Data from lamp5helium_sterk_Subt4__13__468.txt Node

Date: Wed Apr 09 10:18:30 CEST 2025
User: fys-lab-0081
Spectrometer: S04999
Trigger mode: 0
Resolution mode: 1024 pixels
Integration Time (sec): 1.000000E-1
Scans to average: 1
Nonlinearity correction enabled: false
Boxcar width: 0
Baseline correction enabled: true
XAxis mode: Wavelengths
Number of Pixels in Spectrum: 1024
>>>>>Begin Spectral Data<<<<<
336.42	2
336.877	1
337.334	-1
337.792	-1
338.249	5
338.706	4
339.164	-2
339.621	-1
340.079	3
340.536	4
340.994	12
341.452	-1
341.909	2
342.367	-2
342.825	1
343.283	1
343.741	-3
344.198	-2
344.656	1
345.114	-2
345.572	3
346.03	5
346.488	4
346.947	-2
347.405	4
347.863	1
348.321	8
348.779	-2
349.238	3
349.696	7
350.154	3
350.613	3
351.071	1
351.53	3
351.988	6
352.447	3
352.905	2
353.364	1
353.823	-1
354.282	5
354.74	3
355.199	6
355.658	3
356.117	3
356.576	6
357.035	7
357.494	7
357.953	10
358.412	12
358.871	-2
359.33	3
359.789	7
360.249	4
360.708	11
361.167	2
361.626	7
362.086	-1
362.545	9
363.005	9
363.464	2
363.924	4
364.383	7
364.843	5
365.303	8
365.762	8
366.222	-4
366.682	6
367.142	11
367.601	9
368.061	7
368.521	10
368.981	9
369.441	11
369.901	11
370.361	6
370.821	10
371.282	9
371.742	9
372.202	11
372.662	12
373.123	13
373.583	8
374.043	10
374.504	6
374.964	8
375.425	10
375.885	9
376.346	8
376.806	11
377.267	11
377.728	14
378.188	11
378.649	13
379.11	16
379.571	13
380.032	12
380.493	10
380.954	20
381.414	12
381.876	17
382.337	18
382.798	17
383.259	20
383.72	17
384.181	15
384.642	9
385.104	21
385.565	28
386.026	19
386.488	15
386.949	22
387.411	25
387.872	22
388.334	26
388.795	20
389.257	32
389.719	29
390.181	23
390.642	27
391.104	25
391.566	24
392.028	35
392.49	23
392.952	28
393.414	30
393.876	27
394.338	32
394.8	29
395.262	34
395.724	31
396.186	36
396.648	35
397.111	38
397.573	37
398.035	37
398.498	40
398.96	34
399.423	38
399.885	43
400.348	45
400.81	48
401.273	34
401.736	42
402.198	46
402.661	46
403.124	48
403.587	49
404.049	51
404.512	53
404.975	57
405.438	49
405.901	50
406.364	54
406.827	53
407.29	54
407.754	50
408.217	55
408.68	50
409.143	53
409.607	60
410.07	55
410.533	56
410.997	62
411.46	57
411.924	61
412.387	62
412.851	61
413.314	65
413.778	68
414.242	72
414.705	67
415.169	65
415.633	71
416.097	72
416.561	72
417.024	72
417.488	78
417.952	74
418.416	74
418.88	70
419.344	72
419.809	77
420.273	78
420.737	76
421.201	71
421.665	82
422.13	80
422.594	84
423.059	87
423.523	84
423.987	87
424.452	88
424.916	94
425.381	94
425.846	95
426.31	98
426.775	99
427.24	103
427.704	96
428.169	102
428.634	105
429.099	104
429.564	100
430.029	107
430.494	106
430.959	106
431.424	101
431.889	106
432.354	109
432.819	107
433.284	113
433.75	117
434.215	120
434.68	122
435.146	128
435.611	145
436.077	147
436.542	152
437.008	142
437.473	141
437.939	146
438.404	148
438.87	149
439.336	150
439.801	147
440.267	151
440.733	154
441.199	157
441.665	152
442.131	162
442.596	162
443.062	156
443.529	169
443.995	168
444.461	171
444.927	183
445.393	184
445.859	193
446.325	196
446.792	212
447.258	211
447.724	217
448.191	221
448.657	226
449.124	231
449.59	230
450.057	246
450.523	241
450.99	249
451.457	246
451.923	251
452.39	246
452.857	263
453.324	254
453.791	261
454.257	260
454.724	265
455.191	269
455.658	262
456.125	282
456.592	278
457.059	281
457.527	285
457.994	297
458.461	296
458.928	306
459.396	298
459.863	309
460.33	309
460.798	307
461.265	314
461.732	314
462.2	323
462.668	319
463.135	330
463.603	319
464.07	319
464.538	324
465.006	336
465.474	327
465.941	331
466.409	332
466.877	323
467.345	337
467.813	336
468.281	335
468.749	332
469.217	343
469.685	346
470.153	351
470.621	355
471.09	359
471.558	372
472.026	374
472.494	384
472.963	388
473.431	401
473.9	412
474.368	426
474.837	428
475.305	434
475.774	447
476.242	463
476.711	461
477.18	467
477.648	469
478.117	476
478.586	470
479.055	470
479.524	472
479.993	475
480.462	473
480.93	477
481.399	471
481.869	483
482.338	484
482.807	492
483.276	493
483.745	492
484.214	506
484.684	516
485.153	515
485.622	519
486.092	535
486.561	525
487.031	540
487.5	558
487.97	570
488.439	580
488.909	594
489.378	622
489.848	616
490.318	637
490.787	659
491.257	671
491.727	669
492.197	688
492.667	682
493.137	686
493.607	691
494.077	706
494.547	696
495.017	700
495.487	706
495.957	728
496.427	710
496.897	712
497.368	720
497.838	714
498.308	730
498.779	742
499.249	746
499.719	759
500.19	762
500.66	765
501.131	773
501.602	787
502.072	778
502.543	797
503.014	830
503.484	823
503.955	859
504.426	884
504.897	898
505.368	910
505.838	929
506.309	956
506.78	983
507.251	1004
507.722	1023
508.194	1045
508.665	1062
509.136	1059
509.607	1097
510.078	1105
510.549	1110
511.021	1137
511.492	1142
511.964	1166
512.435	1180
512.906	1172
513.378	1187
513.849	1216
514.321	1215
514.793	1232
515.264	1249
515.736	1257
516.208	1285
516.679	1292
517.151	1298
517.623	1316
518.095	1342
518.567	1354
519.038	1375
519.51	1373
519.982	1402
520.454	1421
520.927	1445
521.399	1456
521.871	1483
522.343	1481
522.815	1496
523.287	1500
523.76	1515
524.232	1543
524.704	1552
525.177	1528
525.649	1543
526.122	1560
526.594	1528
527.067	1569
527.539	1587
528.012	1574
528.484	1568
528.957	1578
529.43	1580
529.903	1570
530.375	1628
530.848	1602
531.321	1621
531.794	1614
532.267	1666
532.74	1635
533.213	1639
533.686	1670
534.159	1657
534.632	1701
535.105	1719
535.578	1752
536.051	1752
536.525	1759
536.998	1768
537.471	1809
537.945	1781
538.418	1829
538.891	1832
539.365	1852
539.838	1872
540.312	1876
540.786	1898
541.259	1899
541.733	1920
542.206	1925
542.68	1900
543.154	1894
543.628	1911
544.101	1966
544.575	1948
545.049	1894
545.523	1941
545.997	1949
546.471	1969
546.945	1928
547.419	1954
547.893	1881
548.367	1934
548.842	1909
549.316	1915
549.79	1940
550.264	1922
550.739	1946
551.213	1943
551.687	1942
552.162	1966
552.636	1946
553.111	1943
553.585	1995
554.06	1981
554.534	2012
555.009	1999
555.484	2039
555.958	2065
556.433	2079
556.908	2103
557.383	2081
557.858	2130
558.333	2142
558.807	2134
559.282	2144
559.757	2213
560.232	2223
560.708	2199
561.183	2181
561.658	2208
562.133	2211
562.608	2193
563.083	2248
563.559	2198
564.034	2215
564.509	2217
564.985	2227
565.46	2200
565.936	2246
566.411	2248
566.887	2226
567.362	2236
567.838	2248
568.313	2260
568.789	2231
569.265	2221
569.74	2252
570.216	2250
570.692	2285
571.168	2285
571.644	2269
572.12	2264
572.596	2303
573.071	2314
573.547	2378
574.024	2403
574.5	2440
574.976	2455
575.452	2487
575.928	2496
576.404	2517
576.881	2607
577.357	2564
577.833	2573
578.31	2642
578.786	2688
579.262	2736
579.739	2704
580.215	2769
580.692	2752
581.169	2753
581.645	2749
582.122	2841
582.598	2834
583.075	2836
583.552	2867
584.029	2851
584.506	2837
584.982	2805
585.459	2868
585.936	2843
586.413	2874
586.89	2928
587.367	2907
587.844	2967
588.321	2958
588.799	2955
589.276	2915
589.753	2964
590.23	2988
590.707	2975
591.185	2969
591.662	2979
592.139	3027
592.617	3080
593.094	3069
593.572	3074
594.049	3102
594.527	3152
595.004	3176
595.482	3251
595.96	3221
596.437	3231
596.915	3326
597.393	3266
597.871	3331
598.349	3296
598.826	3367
599.304	3375
599.782	3445
600.26	3411
600.738	3503
601.216	3501
601.694	3531
602.173	3557
602.651	3557
603.129	3487
603.607	3526
604.085	3551
604.564	3550
605.042	3555
605.52	3525
605.999	3632
606.477	3553
606.956	3566
607.434	3610.5
607.913	3655
608.391	3641
608.87	3622
609.348	3582
609.827	3610
610.306	3656
610.785	3703
611.263	3727
611.742	3676
612.221	3622
612.7	3644
613.179	3666
613.658	3633
614.137	3688
614.616	3708
615.095	3634
615.574	3706
616.053	3747
616.532	3706
617.011	3716
617.491	3730
617.97	3743
618.449	3806
618.928	3826
619.408	3792
619.887	3837
620.367	3864
620.846	3918
621.326	3897
621.805	3974
622.285	3968
622.764	3991
623.244	4008
623.724	4040
624.203	4063
624.683	3991
625.163	4072
625.643	4067
626.123	4035
626.602	4143
627.082	4058
627.562	4060
628.042	4151
628.522	4101
629.002	4066
629.482	4084
629.963	4084
630.443	4050
630.923	4079
631.403	4102
631.883	4092
632.364	4108
632.844	4069
633.324	4100
633.805	4123
634.285	4082
634.766	4049
635.246	4059
635.727	4056
636.207	4077
636.688	4089
637.168	4093
637.649	4056
638.13	4032
638.611	4075
639.091	4067
639.572	4037
640.053	4021
640.534	4058
641.015	4043
641.496	3996
641.977	4072
642.458	4034
642.939	4060
643.42	4067
643.901	4074
644.382	4127
644.863	4116
645.345	4121
645.826	4117
646.307	4131
646.788	4197
647.27	4123
647.751	4124
648.233	4153
648.714	4069
649.196	4189
649.677	4181
650.159	4186
650.64	4130
651.122	4193
651.603	4163
652.085	4214
652.567	4214
653.049	4178
653.53	4177
654.012	4227
654.494	4161
654.976	4196
655.458	4187
655.94	4180
656.422	4261
656.904	4202
657.386	4153
657.868	4164
658.35	4146
658.833	4181
659.315	4193
659.797	4141
660.279	4142
660.762	4180
661.244	4140
661.726	4068
662.209	4068
662.691	4076
663.174	4010
663.656	4039
664.139	4043
664.621	3990
665.104	3966
665.587	4035
666.069	4055
666.552	4079
667.035	4021
667.517	4035
668	4071
668.483	4067
668.966	4033
669.449	4024
669.932	4024
670.415	4056
670.898	4019
671.381	4050
671.864	4066
672.347	4033
672.83	4041
673.313	4040
673.797	4024
674.28	4105
674.763	4137
675.247	4169
675.73	4147
676.213	4160
676.697	4189
677.18	4188
677.664	4216
678.147	4211
678.631	4217
679.114	4240
679.598	4240
680.082	4286
680.565	4288
681.049	4270
681.533	4276
682.017	4288
682.5	4264
682.984	4297
683.468	4305
683.952	4222
684.436	4306
684.92	4279
685.404	4294
685.888	4337
686.372	4309
686.856	4341
687.341	4388
687.825	4318
688.309	4336
688.793	4312
689.278	4262
689.762	4312
690.246	4283
690.731	4304
691.215	4329
691.7	4202
692.184	4254
692.669	4245
693.153	4277
693.638	4229
694.122	4211
694.607	4237
695.092	4181
695.577	4212
696.061	4133
696.546	4152
697.031	4145
697.516	4166
698.001	4178
698.486	4166
698.971	4233
699.456	4142
699.941	4139
700.426	4141
700.911	4187
701.396	4163
701.881	4211
702.366	4203
702.852	4183
703.337	4204
703.822	4192
704.308	4190
704.793	4209
705.278	4220
705.764	4249
706.249	4208
706.735	4176
707.22	4206
707.706	4135
708.191	4225
708.677	4240
709.163	4203
709.648	4230
710.134	4286
710.62	4252
711.106	4258
711.592	4328
712.077	4297
712.563	4190
713.049	4164
713.535	4253
714.021	4224
714.507	4229
714.993	4199
715.479	4243
715.966	4189
716.452	4197
716.938	4183
717.424	4071
717.91	4156
718.397	4130
718.883	4115
719.369	4133
719.856	4090
720.342	4144
720.829	4088
721.315	4109
721.802	4077
722.288	4111
722.775	3948
723.262	3837
723.748	4013
724.235	3997
724.722	4070
725.208	4016
725.695	4013
726.182	3988
726.669	3921
727.156	3909
727.643	3870
728.13	3869
728.617	3826
729.104	3829
729.591	3803
730.078	3836
730.565	3856
731.052	3807
731.539	3822
732.027	3792
732.514	3741
733.001	3781
733.488	3753
733.976	3746
734.463	3735
734.951	3723
735.438	3763
735.926	3741
736.413	3779
736.901	3749
737.388	3794
737.876	3795
738.364	3760
738.851	3775
739.339	3764
739.827	3807
740.314	3688
740.802	3714
741.29	3727
741.778	3682
742.266	3689
742.754	3701
743.242	3729
743.73	3641
744.218	3633
744.706	3593
745.194	3610
745.682	3586
746.17	3605
746.659	3640
747.147	3554
747.635	3571
748.123	3560
748.612	3520
749.1	3515
749.589	3549
750.077	3522
750.566	3505
751.054	3512
751.543	3527
752.031	3469
752.52	3452
753.008	3382
753.497	3387
753.986	3373
754.474	3355
754.963	3399
755.452	3355
755.941	3336
756.43	3341
756.919	3334
757.408	3320
757.896	3329
758.385	3338
758.875	3301
759.364	3253
759.853	3225
760.342	3163
760.831	3218
761.32	3189
761.809	3131
762.299	3153
762.788	3167
763.277	3159
763.767	3107
764.256	3120
764.745	3061
765.235	3098
765.724	3002
766.214	3055
766.703	3037
767.193	3004
767.683	3022
768.172	2966
768.662	2991
769.152	2971
769.641	2976
770.131	2905
770.621	2950
771.111	2898
771.601	2885
772.09	2856
772.58	2819
773.07	2836
773.56	2873
774.05	2832
774.54	2839
775.031	2823
775.521	2805
776.011	2774
776.501	2797
776.991	2730
777.482	2762
777.972	2697
778.462	2698
778.953	2721
779.443	2704
779.933	2694
780.424	2662
780.914	2690
781.405	2707
781.895	2675
782.386	2665
782.877	2652
783.367	2598
783.858	2578
784.349	2567
784.839	2547
785.33	2550
785.821	2548
786.312	2530
786.803	2552
787.293	2560
787.784	2514
788.275	2468
788.766	2441
789.257	2476
789.748	2419
790.24	2404
790.731	2426
791.222	2388
791.713	2380
792.204	2377
792.696	2322
793.187	2342
793.678	2323
794.169	2259
794.661	2282
795.152	2263
795.644	2250
796.135	2245
796.627	2264
797.118	2219
797.61	2213
798.101	2182
798.593	2205
799.085	2173
799.576	2184
800.068	2147
800.56	2147
801.052	2087
801.544	2083
802.035	2104
802.527	2067
803.019	2044
803.511	2026
804.003	2010
804.495	2017
804.987	1994
805.479	1951
805.971	1974
806.464	1974
806.956	1935
807.448	1927
807.94	1931
808.433	1914
808.925	1903
809.417	1890
809.91	1879
810.402	1826
810.894	1828
811.387	1842
811.879	1818
812.372	1834
812.865	1809
813.357	1806
813.85	1790
814.342	1787
814.835	1793
815.328	1783
815.821	1748
816.313	1742
816.806	1746
817.299	1728
817.792	1735
818.285	1711
818.778	1728
819.271	1728
819.764	1702
820.257	1714
820.75	1726
821.243	1724
821.736	1701
822.229	1719
822.722	1710
823.216	1750
