Data from lamp5helium_sterk_Subt4__55__510.txt Node

Date: Wed Apr 09 10:18:35 CEST 2025
User: fys-lab-0081
Spectrometer: S04999
Trigger mode: 0
Resolution mode: 1024 pixels
Integration Time (sec): 1.000000E-1
Scans to average: 1
Nonlinearity correction enabled: false
Boxcar width: 0
Baseline correction enabled: true
XAxis mode: Wavelengths
Number of Pixels in Spectrum: 1024
>>>>>Begin Spectral Data<<<<<
336.42	-2
336.877	1
337.334	0
337.792	0
338.249	2
338.706	2
339.164	-2
339.621	-2
340.079	2
340.536	7
340.994	6
341.452	-1
341.909	2
342.367	-3
342.825	-1
343.283	-2
343.741	1
344.198	2
344.656	1
345.114	-2
345.572	4
346.03	3
346.488	6
346.947	-4
347.405	0
347.863	1
348.321	7
348.779	2
349.238	6
349.696	1
350.154	2
350.613	0
351.071	3
351.53	2
351.988	3
352.447	2
352.905	-1
353.364	0
353.823	5
354.282	5
354.74	0
355.199	7
355.658	5
356.117	5
356.576	5
357.035	2
357.494	-1
357.953	4
358.412	9
358.871	-2
359.33	2
359.789	5
360.249	5
360.708	10
361.167	2
361.626	7
362.086	-2
362.545	5
363.005	14
363.464	0
363.924	5
364.383	10
364.843	-1
365.303	6
365.762	4
366.222	4
366.682	9
367.142	12
367.601	2
368.061	4
368.521	13
368.981	6
369.441	8
369.901	11
370.361	7
370.821	9
371.282	8
371.742	9
372.202	11
372.662	15
373.123	9
373.583	4
374.043	8
374.504	7
374.964	10
375.425	5
375.885	12
376.346	12
376.806	11
377.267	14
377.728	16
378.188	12
378.649	10
379.11	13
379.571	12
380.032	10
380.493	12
380.954	18
381.414	12
381.876	12
382.337	21
382.798	17
383.259	24
383.72	12
384.181	18
384.642	12
385.104	25
385.565	28
386.026	23
386.488	20
386.949	20
387.411	25
387.872	21
388.334	22
388.795	23
389.257	25
389.719	29
390.181	23
390.642	23
391.104	23
391.566	21
392.028	32
392.49	25
392.952	28
393.414	29
393.876	32
394.338	32
394.8	30
395.262	30
395.724	36
396.186	36
396.648	35
397.111	37
397.573	33
398.035	35
398.498	40
398.96	33
399.423	37
399.885	42
400.348	40
400.81	46
401.273	37
401.736	45
402.198	44
402.661	46
403.124	47
403.587	46
404.049	51
404.512	56
404.975	53
405.438	51
405.901	53
406.364	55
406.827	55
407.29	54
407.754	54
408.217	53
408.68	54
409.143	52
409.607	64
410.07	59
410.533	59
410.997	63
411.46	55
411.924	60
412.387	61
412.851	63
413.314	64
413.778	62
414.242	66
414.705	69
415.169	69
415.633	68
416.097	65
416.561	70
417.024	75
417.488	80
417.952	78
418.416	78
418.88	72
419.344	72
419.809	74
420.273	74
420.737	75
421.201	72
421.665	86
422.13	79
422.594	87
423.059	87
423.523	86
423.987	85
424.452	87
424.916	90
425.381	95
425.846	96
426.31	101
426.775	94
427.24	105
427.704	95
428.169	105
428.634	103
429.099	94
429.564	101
430.029	106
430.494	106
430.959	108
431.424	100
431.889	103
432.354	111
432.819	107
433.284	110
433.75	116
434.215	120
434.68	125
435.146	123
435.611	137
436.077	150
436.542	150
437.008	142
437.473	140
437.939	143
438.404	151
438.87	152
439.336	145
439.801	147
440.267	146
440.733	159
441.199	157
441.665	145
442.131	160
442.596	161
443.062	159
443.529	167
443.995	168
444.461	171
444.927	185
445.393	180
445.859	192
446.325	194
446.792	212
447.258	212
447.724	217
448.191	223
448.657	220
449.124	238
449.59	227
450.057	245
450.523	239
450.99	249
451.457	248
451.923	253
452.39	248
452.857	262
453.324	257
453.791	259
454.257	261
454.724	264
455.191	271
455.658	265
456.125	278
456.592	275
457.059	280
457.527	285
457.994	294
458.461	297
458.928	305
459.396	295
459.863	307
460.33	310
460.798	312
461.265	317
461.732	317
462.2	323
462.668	325
463.135	329
463.603	315
464.07	327
464.538	324
465.006	332
465.474	320
465.941	326
466.409	329
466.877	326
467.345	334
467.813	333
468.281	336
468.749	339
469.217	343
469.685	346
470.153	347
470.621	352
471.09	362
471.558	372
472.026	371
472.494	382
472.963	389
473.431	404
473.9	413
474.368	416
474.837	427
475.305	433
475.774	445
476.242	457
476.711	453
477.18	464
477.648	466
478.117	471
478.586	468
479.055	468
479.524	475
479.993	476
480.462	477
480.93	472
481.399	477
481.869	485
482.338	483
482.807	492
483.276	488
483.745	488
484.214	504
484.684	515
485.153	511
485.622	516
486.092	538
486.561	529
487.031	543
487.5	555
487.97	566
488.439	583
488.909	599
489.378	616
489.848	619
490.318	639
490.787	657
491.257	668
491.727	668
492.197	688
492.667	680
493.137	686
493.607	698
494.077	708
494.547	696
495.017	703
495.487	706
495.957	728
496.427	708
496.897	710
497.368	720
497.838	718
498.308	729
498.779	739
499.249	746
499.719	754
500.19	759
500.66	765
501.131	770
501.602	786
502.072	781
502.543	798
503.014	827
503.484	821
503.955	852
504.426	889
504.897	893
505.368	910
505.838	927
506.309	947
506.78	979
507.251	1008
507.722	1014
508.194	1042
508.665	1063
509.136	1051
509.607	1096
510.078	1105
510.549	1111
511.021	1133
511.492	1138
511.964	1163
512.435	1184
512.906	1169
513.378	1183
513.849	1206
514.321	1217
514.793	1228
515.264	1246
515.736	1260
516.208	1281
516.679	1284
517.151	1303
517.623	1319
518.095	1343
518.567	1352
519.038	1372
519.51	1372
519.982	1398
520.454	1413
520.927	1437
521.399	1459
521.871	1479
522.343	1490
522.815	1500
523.287	1498
523.76	1513
524.232	1548
524.704	1553
525.177	1529
525.649	1539
526.122	1555
526.594	1523
527.067	1565
527.539	1588
528.012	1575
528.484	1578
528.957	1573
529.43	1578
529.903	1571
530.375	1626
530.848	1599
531.321	1615
531.794	1619
532.267	1661
532.74	1633
533.213	1635
533.686	1668
534.159	1662
534.632	1701
535.105	1716
535.578	1750
536.051	1760
536.525	1765
536.998	1772
537.471	1806
537.945	1786
538.418	1832
538.891	1836
539.365	1851
539.838	1869
540.312	1879
540.786	1896
541.259	1891
541.733	1915
542.206	1922
542.68	1899
543.154	1899
543.628	1902
544.101	1962
544.575	1944
545.049	1892
545.523	1938
545.997	1941
546.471	1960
546.945	1928
547.419	1955
547.893	1881
548.367	1930
548.842	1912
549.316	1915
549.79	1929
550.264	1915
550.739	1947
551.213	1942
551.687	1940
552.162	1958
552.636	1945
553.111	1942
553.585	1997
554.06	1976
554.534	2007
555.009	1994
555.484	2034
555.958	2064
556.433	2078
556.908	2102
557.383	2080
557.858	2137
558.333	2141
558.807	2132
559.282	2146
559.757	2212
560.232	2230
560.708	2196
561.183	2184
561.658	2212
562.133	2214
562.608	2192
563.083	2243
563.559	2189
564.034	2210
564.509	2209
564.985	2221
565.46	2197
565.936	2246
566.411	2248
566.887	2222
567.362	2238
567.838	2242
568.313	2268
568.789	2238
569.265	2226
569.74	2255
570.216	2241
570.692	2290
571.168	2283
571.644	2268
572.12	2272
572.596	2298
573.071	2318
573.547	2381
574.024	2410
574.5	2442
574.976	2450
575.452	2485
575.928	2505
576.404	2519
576.881	2609
577.357	2567
577.833	2574
578.31	2647
578.786	2690
579.262	2737
579.739	2698
580.215	2766
580.692	2756
581.169	2740
581.645	2750
582.122	2839
582.598	2836
583.075	2836
583.552	2861
584.029	2851
584.506	2841
584.982	2802
585.459	2862
585.936	2845
586.413	2871
586.89	2926
587.367	2906
587.844	2970
588.321	2959
588.799	2952
589.276	2912
589.753	2958
590.23	2980
590.707	2972
591.185	2970
591.662	2975
592.139	3022
592.617	3076
593.094	3062
593.572	3069
594.049	3106
594.527	3156
595.004	3179
595.482	3256
595.96	3225
596.437	3236
596.915	3320
597.393	3265
597.871	3334
598.349	3298
598.826	3363
599.304	3368
599.782	3444
600.26	3415
600.738	3495
601.216	3502
601.694	3526
602.173	3555
602.651	3545
603.129	3492
603.607	3529
604.085	3543
604.564	3544
605.042	3555
605.52	3532
605.999	3635
606.477	3551
606.956	3566
607.434	3604
607.913	3642
608.391	3636
608.87	3620
609.348	3574
609.827	3606
610.306	3652
610.785	3702
611.263	3721
611.742	3690
612.221	3616
612.7	3647
613.179	3670
613.658	3626
614.137	3691
614.616	3704
615.095	3633
615.574	3699
616.053	3741
616.532	3709
617.011	3714
617.491	3736
617.97	3741
618.449	3802
618.928	3830
619.408	3803
619.887	3834
620.367	3868
620.846	3917
621.326	3880
621.805	3978
622.285	3963
622.764	3995
623.244	4013
623.724	4052
624.203	4070
624.683	3993
625.163	4073
625.643	4069
626.123	4037
626.602	4142
627.082	4066
627.562	4061
628.042	4154
628.522	4097
629.002	4072
629.482	4090
629.963	4084
630.443	4060
630.923	4075
631.403	4104
631.883	4105
632.364	4114
632.844	4070
633.324	4111
633.805	4125
634.285	4082
634.766	4050
635.246	4054
635.727	4054
636.207	4073
636.688	4082
637.168	4080
637.649	4046
638.13	4035
638.611	4062
639.091	4060
639.572	4034
640.053	4017
640.534	4055
641.015	4045
641.496	3994
641.977	4084
642.458	4042
642.939	4058
643.42	4072
643.901	4078
644.382	4133
644.863	4116
645.345	4122
645.826	4118
646.307	4132
646.788	4201
647.27	4131
647.751	4122
648.233	4149
648.714	4072
649.196	4195
649.677	4185
650.159	4183
650.64	4127
651.122	4209
651.603	4163
652.085	4204
652.567	4221
653.049	4181
653.53	4169
654.012	4230
654.494	4163
654.976	4203
655.458	4194
655.94	4186
656.422	4252
656.904	4195
657.386	4152
657.868	4164
658.35	4147
658.833	4172
659.315	4192
659.797	4140
660.279	4146
660.762	4177
661.244	4128
661.726	4074
662.209	4068
662.691	4066
663.174	4011
663.656	4036
664.139	4038
664.621	3994
665.104	3962
665.587	4028
666.069	4059
666.552	4083
667.035	4034
667.517	4037
668	4079
668.483	4066
668.966	4034
669.449	4021
669.932	4019
670.415	4062
670.898	4028
671.381	4042
671.864	4075
672.347	4034
672.83	4030
673.313	4039
673.797	4011
674.28	4093
674.763	4145
675.247	4178
675.73	4141
676.213	4160
676.697	4191
677.18	4190
677.664	4211
678.147	4208
678.631	4225
679.114	4240
679.598	4238
680.082	4276
680.565	4291
681.049	4269
681.533	4268
682.017	4286
682.5	4273
682.984	4297
683.468	4294
683.952	4219
684.436	4304
684.92	4267
685.404	4306
685.888	4340
686.372	4319
686.856	4344
687.341	4395
687.825	4319
688.309	4332
688.793	4316
689.278	4267
689.762	4310
690.246	4285
690.731	4305
691.215	4323
691.7	4203
692.184	4261
692.669	4243
693.153	4272
693.638	4221
694.122	4213
694.607	4244
695.092	4179
695.577	4216
696.061	4146
696.546	4151
697.031	4140
697.516	4165
698.001	4169
698.486	4173
698.971	4238
699.456	4148
699.941	4143
700.426	4138
700.911	4190
701.396	4164
701.881	4213
702.366	4197
702.852	4189
703.337	4198
703.822	4184
704.308	4185
704.793	4218
705.278	4226
705.764	4256
706.249	4223
706.735	4184
707.22	4204
707.706	4130
708.191	4219
708.677	4243
709.163	4194
709.648	4236
710.134	4291
710.62	4245
711.106	4260
711.592	4325
712.077	4309
712.563	4185
713.049	4167
713.535	4254
714.021	4234
714.507	4225
714.993	4203
715.479	4260
715.966	4196
716.452	4194
716.938	4198
717.424	4070
717.91	4163
718.397	4132
718.883	4122
719.369	4144
719.856	4106
720.342	4151
720.829	4098
721.315	4120
721.802	4090
722.288	4108
722.775	3942
723.262	3842
723.748	4009
724.235	4000
724.722	4077
725.208	4016
725.695	4007
726.182	3991
726.669	3917
727.156	3926
727.643	3873
728.13	3860
728.617	3817
729.104	3826
729.591	3806
730.078	3840
730.565	3863
731.052	3814
731.539	3826
732.027	3797
732.514	3735
733.001	3783
733.488	3753
733.976	3752
734.463	3739
734.951	3728
735.438	3767
735.926	3735
736.413	3775
736.901	3758
737.388	3804
737.876	3795
738.364	3765
738.851	3777
739.339	3767
739.827	3802
740.314	3684
740.802	3715
741.29	3725
741.778	3678
742.266	3672
742.754	3703
743.242	3725
743.73	3641
744.218	3636
744.706	3591
745.194	3618
745.682	3599
746.17	3617
746.659	3643
747.147	3553
747.635	3567
748.123	3557
748.612	3518
749.1	3509
749.589	3556
750.077	3521
750.566	3495
751.054	3522
751.543	3526
752.031	3464
752.52	3450
753.008	3381
753.497	3388
753.986	3374
754.474	3366
754.963	3398
755.452	3353
755.941	3335
756.43	3333
756.919	3327
757.408	3316
757.896	3323
758.385	3337
758.875	3296
759.364	3253
759.853	3224
760.342	3165
760.831	3215
761.32	3189
761.809	3138
762.299	3165
762.788	3166
763.277	3161
763.767	3127
764.256	3121
764.745	3063
765.235	3100
765.724	3009
766.214	3052
766.703	3042
767.193	3007
767.683	3013
768.172	2966
768.662	2992
769.152	2967
769.641	2976
770.131	2904
770.621	2955
771.111	2908
771.601	2882
772.09	2857
772.58	2819
773.07	2831
773.56	2865
774.05	2835
774.54	2836
775.031	2832
775.521	2803
776.011	2780
776.501	2799
776.991	2734
777.482	2758
777.972	2702
778.462	2700
778.953	2721
779.443	2699
779.933	2694
780.424	2662
780.914	2694
781.405	2710
781.895	2675
782.386	2676
782.877	2656
783.367	2600
783.858	2571
784.349	2570
784.839	2548
785.33	2552
785.821	2546
786.312	2538
786.803	2552
787.293	2558
787.784	2512
788.275	2466
788.766	2434
789.257	2479
789.748	2424
790.24	2405
790.731	2426
791.222	2394
791.713	2380
792.204	2382
792.696	2324
793.187	2349
793.678	2323
794.169	2263
794.661	2285
795.152	2263
795.644	2245
796.135	2237
796.627	2263
797.118	2225
797.61	2215
798.101	2184
798.593	2210
799.085	2179
799.576	2186
800.068	2143
800.56	2138
801.052	2084
801.544	2088
802.035	2097
802.527	2065
803.019	2042
803.511	2024
804.003	2014
804.495	2023
804.987	1994
805.479	1955
805.971	1974
806.464	1979
806.956	1931
807.448	1931
807.94	1930
808.433	1917
808.925	1916
809.417	1884
809.91	1886
810.402	1820
810.894	1831
811.387	1839
811.879	1817
812.372	1833
812.865	1807
813.357	1801
813.85	1790
814.342	1788
814.835	1790
815.328	1779
815.821	1749
816.313	1746
816.806	1749
817.299	1725
817.792	1734
818.285	1710
818.778	1730
819.271	1731
819.764	1708
820.257	1717
820.75	1721
821.243	1729
821.736	1711
822.229	1715
822.722	1710
823.216	1754
