Data from lamp5helium_sterk_Subt2__47__47.txt Node

Date: Wed Apr 09 11:04:39 CEST 2025
User: fys-lab-0081
Spectrometer: S04999
Trigger mode: 0
Resolution mode: 1024 pixels
Integration Time (sec): 1.000000E-1
Scans to average: 1
Nonlinearity correction enabled: false
Boxcar width: 0
Baseline correction enabled: true
XAxis mode: Wavelengths
Number of Pixels in Spectrum: 1024
>>>>>Begin Spectral Data<<<<<
336.42	2
336.877	4
337.334	1
337.792	-2
338.249	4
338.706	2
339.164	2
339.621	-1
340.079	2
340.536	0
340.994	2
341.452	6
341.909	8
342.367	1
342.825	-3
343.283	8
343.741	1
344.198	0
344.656	-1
345.114	-1
345.572	7
346.03	-2
346.488	2
346.947	1
347.405	9
347.863	1
348.321	-2
348.779	1
349.238	0
349.696	3
350.154	1
350.613	2
351.071	-1
351.53	6
351.988	4
352.447	-1
352.905	-5
353.364	4
353.823	3
354.282	3
354.74	-3
355.199	2
355.658	3
356.117	1
356.576	-1
357.035	-1
357.494	1
357.953	-1
358.412	0
358.871	4
359.33	-3
359.789	0
360.249	1
360.708	0
361.167	1
361.626	3
362.086	0
362.545	0
363.005	2
363.464	0
363.924	5
364.383	1
364.843	8
365.303	6
365.762	7
366.222	1
366.682	1
367.142	4
367.601	2
368.061	0
368.521	1
368.981	1
369.441	7
369.901	5
370.361	4
370.821	-1
371.282	2
371.742	2
372.202	1
372.662	3
373.123	-4
373.583	2
374.043	6
374.504	-1
374.964	-1
375.425	5
375.885	1
376.346	4
376.806	8
377.267	1
377.728	7
378.188	5
378.649	1
379.11	5
379.571	-3
380.032	4
380.493	7
380.954	8
381.414	5
381.876	5
382.337	6
382.798	5
383.259	9
383.72	6
384.181	3
384.642	0
385.104	8
385.565	8
386.026	10
386.488	5
386.949	6
387.411	4
387.872	8
388.334	6
388.795	11
389.257	11
389.719	3
390.181	7
390.642	10
391.104	9
391.566	10
392.028	9
392.49	14
392.952	14
393.414	10
393.876	12
394.338	10
394.8	13
395.262	7
395.724	14
396.186	12
396.648	13
397.111	12
397.573	18
398.035	15
398.498	11
398.96	19
399.423	14
399.885	10
400.348	14
400.81	13
401.273	8
401.736	10
402.198	17
402.661	11
403.124	9
403.587	20
404.049	19
404.512	18
404.975	11
405.438	19
405.901	16
406.364	18
406.827	17
407.29	12
407.754	14
408.217	13
408.68	18
409.143	20
409.607	22
410.07	19
410.533	20
410.997	20
411.46	20
411.924	25
412.387	25
412.851	21
413.314	16
413.778	17
414.242	18
414.705	29
415.169	23
415.633	21
416.097	20
416.561	23
417.024	22
417.488	22
417.952	28
418.416	22
418.88	18
419.344	17
419.809	24
420.273	24
420.737	22
421.201	29
421.665	27
422.13	27
422.594	32
423.059	28
423.523	28
423.987	25
424.452	29
424.916	24
425.381	31
425.846	23
426.31	37
426.775	39
427.24	29
427.704	34
428.169	33
428.634	37
429.099	37
429.564	33
430.029	33
430.494	36
430.959	39
431.424	29
431.889	39
432.354	41
432.819	36
433.284	40
433.75	38
434.215	40
434.68	38
435.146	38
435.611	38
436.077	41
436.542	40
437.008	44
437.473	45
437.939	45
438.404	50
438.87	51
439.336	48
439.801	47
440.267	49
440.733	50
441.199	50
441.665	53
442.131	54
442.596	47
443.062	56
443.529	61
443.995	55
444.461	54
444.927	62
445.393	55
445.859	62
446.325	69
446.792	71
447.258	72
447.724	71
448.191	73
448.657	75
449.124	73
449.59	70
450.057	79
450.523	82
450.99	81
451.457	78
451.923	82
452.39	83
452.857	88
453.324	82
453.791	85
454.257	90
454.724	87
455.191	86
455.658	88
456.125	91
456.592	91
457.059	89
457.527	92
457.994	95
458.461	95
458.928	100
459.396	100
459.863	100
460.33	102
460.798	103
461.265	110
461.732	109
462.2	108
462.668	105
463.135	105
463.603	104
464.07	116
464.538	110
465.006	109
465.474	116
465.941	110
466.409	106
466.877	108
467.345	110
467.813	111
468.281	110
468.749	115
469.217	117
469.685	123
470.153	122
470.621	120
471.09	124
471.558	128
472.026	129
472.494	131
472.963	127
473.431	134
473.9	138
474.368	146
474.837	142
475.305	147
475.774	146
476.242	154
476.711	153
477.18	154
477.648	159
478.117	159
478.586	160
479.055	155
479.524	163
479.993	164
480.462	160
480.93	157
481.399	165
481.869	160
482.338	165
482.807	166
483.276	164
483.745	165
484.214	172
484.684	173
485.153	173
485.622	172
486.092	181
486.561	177
487.031	189
487.5	189
487.97	191
488.439	196
488.909	203
489.378	208
489.848	209
490.318	215
490.787	226
491.257	226
491.727	229
492.197	232
492.667	234
493.137	240
493.607	241
494.077	244
494.547	238
495.017	242
495.487	242
495.957	253
496.427	245
496.897	244
497.368	249
497.838	250
498.308	249
498.779	254
499.249	258
499.719	258
500.19	265
500.66	270
501.131	271
501.602	271
502.072	269
502.543	278
503.014	296
503.484	291
503.955	292
504.426	303
504.897	307
505.368	315
505.838	325
506.309	323
506.78	340
507.251	352
507.722	353
508.194	369
508.665	376
509.136	368
509.607	388
510.078	386
510.549	394
511.021	401
511.492	404
511.964	405
512.435	410
512.906	411
513.378	417
513.849	426
514.321	424
514.793	429
515.264	439
515.736	441
516.208	452
516.679	456
517.151	459
517.623	464
518.095	471
518.567	478
519.038	489
519.51	492
519.982	493
520.454	496
520.927	510
521.399	514
521.871	519
522.343	521
522.815	530
523.287	529
523.76	537
524.232	547
524.704	545
525.177	536
525.649	544
526.122	553
526.594	538
527.067	548
527.539	555
528.012	561
528.484	558
528.957	560
529.43	565
529.903	563
530.375	582
530.848	572
531.321	580
531.794	587
532.267	601
532.74	588
533.213	588
533.686	599
534.159	596
534.632	610
535.105	616
535.578	629
536.051	633
536.525	629
536.998	636
537.471	651
537.945	637
538.418	654
538.891	652
539.365	662
539.838	670
540.312	666
540.786	669
541.259	675
541.733	690
542.206	687
542.68	681
543.154	681
543.628	693
544.101	700
544.575	692
545.049	672
545.523	688
545.997	689
546.471	698
546.945	689
547.419	698
547.893	681
548.367	697
548.842	686
549.316	687
549.79	703
550.264	699
550.739	703
551.213	713
551.687	704
552.162	716
552.636	712
553.111	706
553.585	737
554.06	724
554.534	734
555.009	740
555.484	749
555.958	755
556.433	760
556.908	775
557.383	772
557.858	783
558.333	784
558.807	779
559.282	792
559.757	818
560.232	815
560.708	802
561.183	800
561.658	816
562.133	819
562.608	804
563.083	828
563.559	818
564.034	816
564.509	818
564.985	820
565.46	819
565.936	827
566.411	828
566.887	818
567.362	829
567.838	830
568.313	840
568.789	828
569.265	830
569.74	836
570.216	829
570.692	840
571.168	844
571.644	841
572.12	838
572.596	855
573.071	860
573.547	889
574.024	894
574.5	906
574.976	902
575.452	927
575.928	935
576.404	936
576.881	967
577.357	954
577.833	961
578.31	985
578.786	996
579.262	1006
579.739	1004
580.215	1032
580.692	1030
581.169	1024
581.645	1021
582.122	1056
582.598	1053
583.075	1055
583.552	1058
584.029	1054
584.506	1057
584.982	1057
585.459	1067
585.936	1052
586.413	1074
586.89	1101
587.367	1089
587.844	1106
588.321	1095
588.799	1102
589.276	1099
589.753	1107
590.23	1115
590.707	1118
591.185	1118
591.662	1134
592.139	1146
592.617	1158
593.094	1155
593.572	1157
594.049	1170
594.527	1178
595.004	1192
595.482	1229
595.96	1218
596.437	1213
596.915	1241
597.393	1222
597.871	1256
598.349	1245
598.826	1268
599.304	1272
599.782	1303
600.26	1296
600.738	1325
601.216	1320
601.694	1329
602.173	1337
602.651	1343
603.129	1344
603.607	1349
604.085	1352
604.564	1361
605.042	1376
605.52	1369
605.999	1389
606.477	1357
606.956	1368
607.434	1385
607.913	1402
608.391	1398
608.87	1383
609.348	1367
609.827	1375
610.306	1389
610.785	1392
611.263	1393
611.742	1383
612.221	1371
612.7	1388
613.179	1395
613.658	1381
614.137	1407
614.616	1418
615.095	1401
615.574	1426
616.053	1428
616.532	1419
617.011	1427
617.491	1435
617.97	1434
618.449	1453
618.928	1464
619.408	1467
619.887	1477
620.367	1483
620.846	1497
621.326	1490
621.805	1520
622.285	1517
622.764	1536
623.244	1546
623.724	1548
624.203	1570
624.683	1533
625.163	1558
625.643	1559
626.123	1554
626.602	1589
627.082	1560
627.562	1563
628.042	1593
628.522	1586
629.002	1576
629.482	1584
629.963	1589
630.443	1570
630.923	1571
631.403	1587
631.883	1586
632.364	1598
632.844	1589
633.324	1595
633.805	1587
634.285	1572
634.766	1562
635.246	1569
635.727	1575
636.207	1579
636.688	1576
637.168	1564
637.649	1565
638.13	1565
638.611	1584
639.091	1578
639.572	1573
640.053	1554
640.534	1572
641.015	1576
641.496	1551
641.977	1581
642.458	1573
642.939	1571
643.42	1584
643.901	1584
644.382	1607
644.863	1601
645.345	1594
645.826	1600
646.307	1605
646.788	1628
647.27	1605
647.751	1606
648.233	1625
648.714	1594
649.196	1625
649.677	1624
650.159	1617
650.64	1606
651.122	1638
651.603	1605
652.085	1626
652.567	1645
653.049	1630
653.53	1637
654.012	1666
654.494	1639
654.976	1659
655.458	1650
655.94	1641
656.422	1671
656.904	1643
657.386	1613
657.868	1621
658.35	1616
658.833	1626
659.315	1639
659.797	1608
660.279	1613
660.762	1617
661.244	1602
661.726	1587
662.209	1593
662.691	1597
663.174	1563
663.656	1573
664.139	1582
664.621	1562
665.104	1562
665.587	1586
666.069	1599
666.552	1592
667.035	1578
667.517	1581
668	1601
668.483	1604
668.966	1590
669.449	1582
669.932	1590
670.415	1604
670.898	1591
671.381	1601
671.864	1608
672.347	1575
672.83	1590
673.313	1589
673.797	1585
674.28	1620
674.763	1615
675.247	1625
675.73	1605
676.213	1617
676.697	1631
677.18	1639
677.664	1637
678.147	1637
678.631	1651
679.114	1681
679.598	1683
680.082	1698
680.565	1687
681.049	1683
681.533	1684
682.017	1696
682.5	1680
682.984	1693
683.468	1697
683.952	1673
684.436	1717
684.92	1689
685.404	1700
685.888	1716
686.372	1697
686.856	1702
687.341	1714
687.825	1688
688.309	1704
688.793	1718
689.278	1693
689.762	1712
690.246	1702
690.731	1705
691.215	1709
691.7	1662
692.184	1694
692.669	1684
693.153	1687
693.638	1657
694.122	1667
694.607	1689
695.092	1663
695.577	1683
696.061	1658
696.546	1670
697.031	1662
697.516	1681
698.001	1678
698.486	1674
698.971	1694
699.456	1646
699.941	1651
700.426	1652
700.911	1675
701.396	1671
701.881	1683
702.366	1663
702.852	1661
703.337	1659
703.822	1661
704.308	1655
704.793	1664
705.278	1664
705.764	1674
706.249	1660
706.735	1662
707.22	1681
707.706	1661
708.191	1679
708.677	1682
709.163	1664
709.648	1674
710.134	1711
710.62	1697
711.106	1695
711.592	1717
712.077	1702
712.563	1655
713.049	1655
713.535	1698
714.021	1700
714.507	1684
714.993	1661
715.479	1689
715.966	1663
716.452	1673
716.938	1678
717.424	1629
717.91	1662
718.397	1646
718.883	1633
719.369	1644
719.856	1625
720.342	1645
720.829	1627
721.315	1631
721.802	1613
722.288	1622
722.775	1568
723.262	1526
723.748	1594
724.235	1590
724.722	1610
725.208	1572
725.695	1570
726.182	1569
726.669	1554
727.156	1582
727.643	1566
728.13	1562
728.617	1539
729.104	1539
729.591	1527
730.078	1550
730.565	1547
731.052	1528
731.539	1532
732.027	1526
732.514	1505
733.001	1525
733.488	1508
733.976	1512
734.463	1502
734.951	1506
735.438	1510
735.926	1490
736.413	1505
736.901	1502
737.388	1513
737.876	1503
738.364	1497
738.851	1508
739.339	1511
739.827	1523
740.314	1470
740.802	1480
741.29	1487
741.778	1474
742.266	1475
742.754	1477
743.242	1489
743.73	1474
744.218	1465
744.706	1451
745.194	1477
745.682	1467
746.17	1480
746.659	1472
747.147	1443
747.635	1444
748.123	1442
748.612	1420
749.1	1404
749.589	1415
750.077	1413
750.566	1410
751.054	1424
751.543	1432
752.031	1395
752.52	1387
753.008	1367
753.497	1367
753.986	1369
754.474	1370
754.963	1378
755.452	1351
755.941	1341
756.43	1340
756.919	1330
757.408	1317
757.896	1329
758.385	1340
758.875	1330
759.364	1312
759.853	1297
760.342	1281
760.831	1309
761.32	1293
761.809	1276
762.299	1286
762.788	1287
763.277	1297
763.767	1275
764.256	1284
764.745	1265
765.235	1280
765.724	1253
766.214	1271
766.703	1261
767.193	1234
767.683	1242
768.172	1213
768.662	1221
769.152	1215
769.641	1216
770.131	1183
770.621	1201
771.111	1185
771.601	1182
772.09	1175
772.58	1160
773.07	1165
773.56	1161
774.05	1138
774.54	1131
775.031	1125
775.521	1119
776.011	1127
776.501	1135
776.991	1104
777.482	1116
777.972	1088
778.462	1094
778.953	1100
779.443	1098
779.933	1090
780.424	1084
780.914	1102
781.405	1108
781.895	1096
782.386	1101
782.877	1094
783.367	1069
783.858	1067
784.349	1069
784.839	1054
785.33	1061
785.821	1062
786.312	1060
786.803	1062
787.293	1067
787.784	1049
788.275	1035
788.766	1030
789.257	1042
789.748	1024
790.24	1008
790.731	1015
791.222	996
791.713	996
792.204	994
792.696	967
793.187	977
793.678	967
794.169	932
794.661	954
795.152	932
795.644	929
796.135	932
796.627	935
797.118	915
797.61	907
798.101	899
798.593	904
799.085	889
799.576	899
800.068	892
800.56	899
801.052	880
801.544	873
802.035	877
802.527	862
803.019	850
803.511	847
804.003	843
804.495	849
804.987	847
805.479	827
805.971	838
806.464	836
806.956	817
807.448	814
807.94	811
808.433	813
808.925	807
809.417	802
809.91	793
810.402	780
810.894	791
811.387	791
811.879	782
812.372	789
812.865	776
813.357	773
813.85	771
814.342	758
814.835	758
815.328	757
815.821	747
816.313	746
816.806	746
817.299	739
817.792	747
818.285	731
818.778	740
819.271	739
819.764	733
820.257	731
820.75	727
821.243	735
821.736	718
822.229	729
822.722	723
823.216	735
