Data from lamp5helium_sterk_Subt4__90__545.txt Node

Date: Wed Apr 09 10:18:39 CEST 2025
User: fys-lab-0081
Spectrometer: S04999
Trigger mode: 0
Resolution mode: 1024 pixels
Integration Time (sec): 1.000000E-1
Scans to average: 1
Nonlinearity correction enabled: false
Boxcar width: 0
Baseline correction enabled: true
XAxis mode: Wavelengths
Number of Pixels in Spectrum: 1024
>>>>>Begin Spectral Data<<<<<
336.42	2
336.877	-1
337.334	2
337.792	0
338.249	6
338.706	2
339.164	-3
339.621	3
340.079	2
340.536	4
340.994	8
341.452	-2
341.909	3
342.367	-1
342.825	-1
343.283	-1
343.741	-3
344.198	-1
344.656	2
345.114	-4
345.572	3
346.03	8
346.488	6
346.947	1
347.405	0
347.863	1
348.321	9
348.779	-2
349.238	-1
349.696	4
350.154	7
350.613	4
351.071	5
351.53	4
351.988	4
352.447	2
352.905	0
353.364	2
353.823	2
354.282	6
354.74	0
355.199	2
355.658	5
356.117	3
356.576	5
357.035	2
357.494	6
357.953	6
358.412	7
358.871	0
359.33	5
359.789	5
360.249	3
360.708	5
361.167	3
361.626	7
362.086	5
362.545	8
363.005	7
363.464	2
363.924	2
364.383	10
364.843	3
365.303	6
365.762	6
366.222	4
366.682	5
367.142	10
367.601	4
368.061	9
368.521	14
368.981	5
369.441	9
369.901	15
370.361	8
370.821	8
371.282	9
371.742	12
372.202	11
372.662	10
373.123	10
373.583	10
374.043	9
374.504	6
374.964	10
375.425	6
375.885	10
376.346	14
376.806	8
377.267	13
377.728	14
378.188	11
378.649	14
379.11	13
379.571	11
380.032	11
380.493	12
380.954	14
381.414	8
381.876	13
382.337	16
382.798	18
383.259	24
383.72	14
384.181	20
384.642	16
385.104	21
385.565	24
386.026	22
386.488	17
386.949	21
387.411	22
387.872	19
388.334	27
388.795	21
389.257	27
389.719	30
390.181	20
390.642	31
391.104	25
391.566	22
392.028	31
392.49	27
392.952	31
393.414	37
393.876	30
394.338	27
394.8	28
395.262	31
395.724	33
396.186	36
396.648	39
397.111	38
397.573	36
398.035	35
398.498	38
398.96	30
399.423	40
399.885	44
400.348	38
400.81	49
401.273	36
401.736	44
402.198	42
402.661	44
403.124	43
403.587	47
404.049	51
404.512	55
404.975	51
405.438	49
405.901	51
406.364	54
406.827	55
407.29	54
407.754	55
408.217	61
408.68	51
409.143	56
409.607	60
410.07	54
410.533	55
410.997	61
411.46	58
411.924	58
412.387	59
412.851	65
413.314	63
413.778	61
414.242	65
414.705	67
415.169	68
415.633	66
416.097	67
416.561	70
417.024	74
417.488	76
417.952	74
418.416	76
418.88	73
419.344	73
419.809	70
420.273	77
420.737	73
421.201	70
421.665	82
422.13	81
422.594	82
423.059	89
423.523	86
423.987	90
424.452	87
424.916	93
425.381	97
425.846	94
426.31	95
426.775	96
427.24	105
427.704	98
428.169	105
428.634	103
429.099	100
429.564	100
430.029	106
430.494	104
430.959	107
431.424	103
431.889	108
432.354	109
432.819	110
433.284	114
433.75	116
434.215	121
434.68	121
435.146	124
435.611	140
436.077	149
436.542	152
437.008	139
437.473	137
437.939	142
438.404	147
438.87	154
439.336	144
439.801	145
440.267	147
440.733	158
441.199	156
441.665	156
442.131	161
442.596	157
443.062	160
443.529	166
443.995	171
444.461	173
444.927	184
445.393	186
445.859	191
446.325	195
446.792	210
447.258	205
447.724	211
448.191	220
448.657	222
449.124	233
449.59	229
450.057	248
450.523	243
450.99	247
451.457	249
451.923	256
452.39	251
452.857	260
453.324	254
453.791	265
454.257	261
454.724	262
455.191	269
455.658	265
456.125	278
456.592	275
457.059	276
457.527	285
457.994	295
458.461	297
458.928	306
459.396	299
459.863	309
460.33	309
460.798	312
461.265	315
461.732	313
462.2	324
462.668	323
463.135	329
463.603	319
464.07	322
464.538	322
465.006	333
465.474	330
465.941	329
466.409	329
466.877	324
467.345	340
467.813	335
468.281	333
468.749	336
469.217	343
469.685	342
470.153	349
470.621	353
471.09	354
471.558	376
472.026	375
472.494	379
472.963	387
473.431	406
473.9	412
474.368	417
474.837	429
475.305	432
475.774	448
476.242	459
476.711	454
477.18	470
477.648	471
478.117	472
478.586	466
479.055	465
479.524	477
479.993	475
480.462	472
480.93	476
481.399	475
481.869	482
482.338	480
482.807	490
483.276	487
483.745	491
484.214	505
484.684	511
485.153	511
485.622	516
486.092	537
486.561	527
487.031	541
487.5	554
487.97	574
488.439	585
488.909	604
489.378	621
489.848	616
490.318	635
490.787	655
491.257	669
491.727	671
492.197	684
492.667	682
493.137	686
493.607	697
494.077	710
494.547	692
495.017	703
495.487	706
495.957	724
496.427	709
496.897	711
497.368	723
497.838	716
498.308	727
498.779	734
499.249	748
499.719	754
500.19	762
500.66	765
501.131	771
501.602	786
502.072	783
502.543	796
503.014	827
503.484	826
503.955	853
504.426	889
504.897	894
505.368	910
505.838	922
506.309	950
506.78	979
507.251	1000
507.722	1019
508.194	1046
508.665	1065
509.136	1053
509.607	1091
510.078	1105
510.549	1116
511.021	1136
511.492	1143
511.964	1158
512.435	1186
512.906	1175
513.378	1188
513.849	1204
514.321	1217
514.793	1230
515.264	1243
515.736	1253
516.208	1281
516.679	1292
517.151	1298
517.623	1315
518.095	1338
518.567	1358
519.038	1371
519.51	1368
519.982	1402
520.454	1417
520.927	1435
521.399	1464
521.871	1482
522.343	1488
522.815	1506
523.287	1499
523.76	1513
524.232	1542
524.704	1555
525.177	1526
525.649	1538
526.122	1559
526.594	1524
527.067	1559
527.539	1589
528.012	1576
528.484	1569
528.957	1575
529.43	1574
529.903	1568
530.375	1628
530.848	1598
531.321	1622
531.794	1612
532.267	1658
532.74	1635
533.213	1644
533.686	1678
534.159	1659
534.632	1702
535.105	1709
535.578	1751
536.051	1762
536.525	1763
536.998	1769
537.471	1802
537.945	1787
538.418	1826
538.891	1836
539.365	1853
539.838	1877
540.312	1879
540.786	1901
541.259	1887
541.733	1922
542.206	1930
542.68	1908
543.154	1892
543.628	1909
544.101	1962
544.575	1944
545.049	1891
545.523	1932
545.997	1939
546.471	1965
546.945	1932
547.419	1950
547.893	1883
548.367	1928
548.842	1908
549.316	1911
549.79	1933
550.264	1916
550.739	1947
551.213	1942
551.687	1938
552.162	1969
552.636	1948
553.111	1936
553.585	2003
554.06	1973
554.534	2003
555.009	1991
555.484	2036
555.958	2058
556.433	2076
556.908	2098
557.383	2076
557.858	2137
558.333	2148
558.807	2135
559.282	2144
559.757	2216
560.232	2223
560.708	2195
561.183	2183
561.658	2215
562.133	2215
562.608	2195
563.083	2247
563.559	2195
564.034	2213
564.509	2212
564.985	2219
565.46	2199
565.936	2249
566.411	2250
566.887	2228
567.362	2233
567.838	2244
568.313	2262
568.789	2230
569.265	2231
569.74	2261
570.216	2239
570.692	2286
571.168	2282
571.644	2265
572.12	2265
572.596	2304
573.071	2311
573.547	2372
574.024	2399
574.5	2432
574.976	2459
575.452	2483
575.928	2496
576.404	2516
576.881	2616
577.357	2568
577.833	2576
578.31	2639
578.786	2691
579.262	2737
579.739	2694
580.215	2768
580.692	2749
581.169	2747
581.645	2748
582.122	2837
582.598	2836
583.075	2836
583.552	2863
584.029	2851
584.506	2837
584.982	2804
585.459	2863
585.936	2839
586.413	2872
586.89	2921
587.367	2907
587.844	2976
588.321	2954
588.799	2957
589.276	2914
589.753	2956
590.23	2981
590.707	2979
591.185	2974
591.662	2975
592.139	3023
592.617	3078
593.094	3068
593.572	3070
594.049	3122
594.527	3151
595.004	3178
595.482	3246
595.96	3211
596.437	3228
596.915	3318
597.393	3258
597.871	3330
598.349	3292
598.826	3370
599.304	3364
599.782	3436
600.26	3410
600.738	3497
601.216	3500
601.694	3530
602.173	3545
602.651	3542
603.129	3477
603.607	3530
604.085	3545
604.564	3540
605.042	3546
605.52	3532
605.999	3637
606.477	3549
606.956	3562
607.434	3603.5
607.913	3645
608.391	3641
608.87	3613
609.348	3574
609.827	3607
610.306	3655
610.785	3698
611.263	3723
611.742	3689
612.221	3617
612.7	3649
613.179	3657
613.658	3621
614.137	3689
614.616	3709
615.095	3631
615.574	3703
616.053	3742
616.532	3710
617.011	3711
617.491	3723
617.97	3739
618.449	3806
618.928	3834
619.408	3795
619.887	3843
620.367	3858
620.846	3917
621.326	3894
621.805	3967
622.285	3955
622.764	3996
623.244	4006
623.724	4043
624.203	4056
624.683	3986
625.163	4077
625.643	4075
626.123	4029
626.602	4138
627.082	4063
627.562	4054
628.042	4150
628.522	4092
629.002	4069
629.482	4087
629.963	4082
630.443	4058
630.923	4085
631.403	4097
631.883	4093
632.364	4104
632.844	4073
633.324	4100
633.805	4124
634.285	4074
634.766	4051
635.246	4044
635.727	4048
636.207	4064
636.688	4071
637.168	4087
637.649	4049
638.13	4038
638.611	4072
639.091	4064
639.572	4038
640.053	4014
640.534	4056
641.015	4038
641.496	4001
641.977	4077
642.458	4041
642.939	4051
643.42	4070
643.901	4076
644.382	4124
644.863	4120
645.345	4116
645.826	4126
646.307	4133
646.788	4198
647.27	4122
647.751	4124
648.233	4149
648.714	4063
649.196	4200
649.677	4189
650.159	4182
650.64	4131
651.122	4198
651.603	4160
652.085	4203
652.567	4217
653.049	4172
653.53	4171
654.012	4227
654.494	4156
654.976	4200
655.458	4191
655.94	4183
656.422	4255
656.904	4199
657.386	4158
657.868	4163
658.35	4141
658.833	4173
659.315	4201
659.797	4144
660.279	4144
660.762	4170
661.244	4126
661.726	4070
662.209	4073
662.691	4065
663.174	4011
663.656	4043
664.139	4041
664.621	3995
665.104	3957
665.587	4026
666.069	4060
666.552	4073
667.035	4022
667.517	4035
668	4064
668.483	4066
668.966	4031
669.449	4016
669.932	4017
670.415	4056
670.898	4016
671.381	4048
671.864	4068
672.347	4036
672.83	4036
673.313	4038
673.797	4016
674.28	4104
674.763	4138
675.247	4166
675.73	4145
676.213	4161
676.697	4183
677.18	4197
677.664	4207
678.147	4212
678.631	4226
679.114	4245
679.598	4244
680.082	4280
680.565	4283
681.049	4274
681.533	4259
682.017	4277
682.5	4268
682.984	4305
683.468	4291
683.952	4224
684.436	4308
684.92	4266
685.404	4287
685.888	4336
686.372	4312
686.856	4345
687.341	4395
687.825	4317
688.309	4332
688.793	4322
689.278	4266
689.762	4310
690.246	4289
690.731	4306
691.215	4333
691.7	4204
692.184	4257
692.669	4248
693.153	4278
693.638	4228
694.122	4211
694.607	4237
695.092	4187
695.577	4223
696.061	4135
696.546	4152
697.031	4140
697.516	4164
698.001	4181
698.486	4159
698.971	4239
699.456	4148
699.941	4136
700.426	4137
700.911	4188
701.396	4171
701.881	4216
702.366	4206
702.852	4185
703.337	4209
703.822	4187
704.308	4179
704.793	4214
705.278	4229
705.764	4249
706.249	4213
706.735	4180
707.22	4200
707.706	4137
708.191	4217
708.677	4242
709.163	4218
709.648	4236
710.134	4291
710.62	4238
711.106	4269
711.592	4328
712.077	4311
712.563	4189
713.049	4170
713.535	4245
714.021	4228
714.507	4232
714.993	4193
715.479	4246
715.966	4201
716.452	4189
716.938	4185
717.424	4076
717.91	4150
718.397	4132
718.883	4119
719.369	4134
719.856	4100
720.342	4137
720.829	4090
721.315	4116
721.802	4091
722.288	4112
722.775	3950
723.262	3835
723.748	4002
724.235	4002
724.722	4074
725.208	4009
725.695	4009
726.182	3995
726.669	3912
727.156	3917
727.643	3871
728.13	3864
728.617	3825
729.104	3827
729.591	3801
730.078	3847
730.565	3854
731.052	3808
731.539	3817
732.027	3794
732.514	3740
733.001	3780
733.488	3759
733.976	3741
734.463	3730
734.951	3717
735.438	3764
735.926	3742
736.413	3776
736.901	3761
737.388	3794
737.876	3793
738.364	3767
738.851	3778
739.339	3763
739.827	3795
740.314	3689
740.802	3723
741.29	3730
741.778	3676
742.266	3692
742.754	3701
743.242	3728
743.73	3647
744.218	3622
744.706	3587
745.194	3617
745.682	3587
746.17	3604
746.659	3634
747.147	3547
747.635	3577
748.123	3561
748.612	3524
749.1	3512
749.589	3556
750.077	3529
750.566	3499
751.054	3515
751.543	3529
752.031	3465
752.52	3453
753.008	3379
753.497	3383
753.986	3373
754.474	3358
754.963	3403
755.452	3359
755.941	3334
756.43	3334
756.919	3330
757.408	3315
757.896	3333
758.385	3338
758.875	3298
759.364	3255
759.853	3223
760.342	3164
760.831	3211
761.32	3191
761.809	3141
762.299	3145
762.788	3168
763.277	3158
763.767	3126
764.256	3123
764.745	3061
765.235	3097
765.724	3008
766.214	3059
766.703	3040
767.193	3004
767.683	3015
768.172	2972
768.662	2987
769.152	2968
769.641	2971
770.131	2906
770.621	2951
771.111	2898
771.601	2888
772.09	2853
772.58	2824
773.07	2835
773.56	2863
774.05	2833
774.54	2841
775.031	2824
775.521	2802
776.011	2775
776.501	2797
776.991	2735
777.482	2760
777.972	2704
778.462	2694
778.953	2728
779.443	2700
779.933	2699
780.424	2664
780.914	2684
781.405	2699
781.895	2677
782.386	2665
782.877	2650
783.367	2595
783.858	2582
784.349	2575
784.839	2547
785.33	2543
785.821	2541
786.312	2530
786.803	2545
787.293	2550
787.784	2513
788.275	2465
788.766	2440
789.257	2481
789.748	2424
790.24	2404
790.731	2428
791.222	2385
791.713	2376
792.204	2387
792.696	2327
793.187	2347
793.678	2329
794.169	2265
794.661	2290
795.152	2263
795.644	2251
796.135	2247
796.627	2258
797.118	2225
797.61	2212
798.101	2183
798.593	2211
799.085	2178
799.576	2179
800.068	2150
800.56	2138
801.052	2088
801.544	2079
802.035	2092
802.527	2065
803.019	2046
803.511	2021
804.003	2012
804.495	2023
804.987	2003
805.479	1954
805.971	1979
806.464	1975
806.956	1933
807.448	1929
807.94	1931
808.433	1914
808.925	1913
809.417	1890
809.91	1881
810.402	1817
810.894	1831
811.387	1844
811.879	1816
812.372	1837
812.865	1804
813.357	1802
813.85	1798
814.342	1784
814.835	1786
815.328	1779
815.821	1750
816.313	1749
816.806	1747
817.299	1720
817.792	1725
818.285	1711
818.778	1730
819.271	1730
819.764	1707
820.257	1724
820.75	1725
821.243	1727
821.736	1705
822.229	1721
822.722	1718
823.216	1755
