Data from lamp5helium_sterk_Subt2__65__65.txt Node

Date: Wed Apr 09 11:04:42 CEST 2025
User: fys-lab-0081
Spectrometer: S04999
Trigger mode: 0
Resolution mode: 1024 pixels
Integration Time (sec): 1.000000E-1
Scans to average: 1
Nonlinearity correction enabled: false
Boxcar width: 0
Baseline correction enabled: true
XAxis mode: Wavelengths
Number of Pixels in Spectrum: 1024
>>>>>Begin Spectral Data<<<<<
336.42	-2
336.877	-1
337.334	4
337.792	0
338.249	3
338.706	0
339.164	0
339.621	1
340.079	3
340.536	-1
340.994	1
341.452	4
341.909	5
342.367	-1
342.825	-1
343.283	6
343.741	3
344.198	0
344.656	-1
345.114	-1
345.572	4
346.03	-3
346.488	2
346.947	-3
347.405	-1
347.863	0
348.321	0
348.779	5
349.238	2
349.696	2
350.154	-2
350.613	-1
351.071	-1
351.53	8
351.988	4
352.447	3
352.905	-1
353.364	4
353.823	2
354.282	1
354.74	-3
355.199	1
355.658	5
356.117	0
356.576	-1
357.035	-3
357.494	1
357.953	-2
358.412	2
358.871	0
359.33	2
359.789	1
360.249	6
360.708	1
361.167	3
361.626	2
362.086	-2
362.545	-1
363.005	0
363.464	2
363.924	1
364.383	0
364.843	3
365.303	3
365.762	2
366.222	1
366.682	2
367.142	5
367.601	0
368.061	-2
368.521	3
368.981	-2
369.441	8
369.901	6
370.361	1
370.821	-5
371.282	0
371.742	4
372.202	3
372.662	1
373.123	2
373.583	4
374.043	4
374.504	0
374.964	-1
375.425	1
375.885	0
376.346	3
376.806	6
377.267	4
377.728	3
378.188	8
378.649	1
379.11	5
379.571	2
380.032	5
380.493	6
380.954	8
381.414	4
381.876	2
382.337	2
382.798	5
383.259	4
383.72	2
384.181	-2
384.642	4
385.104	3
385.565	5
386.026	8
386.488	6
386.949	5
387.411	9
387.872	8
388.334	10
388.795	8
389.257	6
389.719	4
390.181	10
390.642	9
391.104	9
391.566	9
392.028	6
392.49	11
392.952	11
393.414	12
393.876	9
394.338	3
394.8	6
395.262	7
395.724	19
396.186	9
396.648	10
397.111	13
397.573	13
398.035	11
398.498	7
398.96	12
399.423	13
399.885	10
400.348	8
400.81	8
401.273	12
401.736	10
402.198	16
402.661	10
403.124	8
403.587	16
404.049	14
404.512	12
404.975	11
405.438	14
405.901	22
406.364	17
406.827	12
407.29	14
407.754	15
408.217	16
408.68	14
409.143	17
409.607	21
410.07	22
410.533	17
410.997	21
411.46	21
411.924	22
412.387	25
412.851	18
413.314	19
413.778	17
414.242	20
414.705	24
415.169	21
415.633	22
416.097	18
416.561	24
417.024	23
417.488	24
417.952	21
418.416	16
418.88	21
419.344	14
419.809	26
420.273	24
420.737	23
421.201	26
421.665	26
422.13	31
422.594	30
423.059	31
423.523	28
423.987	25
424.452	31
424.916	31
425.381	27
425.846	28
426.31	37
426.775	32
427.24	33
427.704	32
428.169	34
428.634	35
429.099	36
429.564	35
430.029	34
430.494	38
430.959	30
431.424	32
431.889	40
432.354	39
432.819	36
433.284	36
433.75	40
434.215	44
434.68	39
435.146	34
435.611	38
436.077	45
436.542	43
437.008	42
437.473	46
437.939	42
438.404	43
438.87	48
439.336	47
439.801	47
440.267	46
440.733	55
441.199	53
441.665	51
442.131	54
442.596	50
443.062	54
443.529	57
443.995	59
444.461	57
444.927	59
445.393	59
445.859	63
446.325	64
446.792	70
447.258	68
447.724	71
448.191	77
448.657	73
449.124	69
449.59	75
450.057	77
450.523	81
450.99	80
451.457	79
451.923	84
452.39	82
452.857	89
453.324	84
453.791	86
454.257	88
454.724	86
455.191	85
455.658	88
456.125	91
456.592	88
457.059	92
457.527	93
457.994	96
458.461	98
458.928	99
459.396	98
459.863	107
460.33	99
460.798	107
461.265	111
461.732	109
462.2	108
462.668	103
463.135	106
463.603	103
464.07	118
464.538	108
465.006	111
465.474	110
465.941	110
466.409	111
466.877	110
467.345	109
467.813	108
468.281	118
468.749	120
469.217	116
469.685	119
470.153	123
470.621	123
471.09	125
471.558	126
472.026	129
472.494	130
472.963	131
473.431	135
473.9	139
474.368	144
474.837	145
475.305	145
475.774	141
476.242	150
476.711	152
477.18	155
477.648	155
478.117	157
478.586	160
479.055	158
479.524	161
479.993	159
480.462	160
480.93	157
481.399	162
481.869	163
482.338	158
482.807	164
483.276	165
483.745	166
484.214	168
484.684	171
485.153	173
485.622	178
486.092	181
486.561	177
487.031	186
487.5	187
487.97	192
488.439	201
488.909	197
489.378	207
489.848	211
490.318	219
490.787	229
491.257	225
491.727	228
492.197	232
492.667	235
493.137	234
493.607	236
494.077	240
494.547	241
495.017	238
495.487	246
495.957	254
496.427	246
496.897	242
497.368	251
497.838	247
498.308	250
498.779	255
499.249	259
499.719	260
500.19	265
500.66	268
501.131	269
501.602	269
502.072	268
502.543	282
503.014	290
503.484	293
503.955	292
504.426	305
504.897	308
505.368	315
505.838	327
506.309	330
506.78	343
507.251	347
507.722	353
508.194	367
508.665	373
509.136	371
509.607	388
510.078	387
510.549	395
511.021	404
511.492	402
511.964	408
512.435	415
512.906	408
513.378	416
513.849	423
514.321	430
514.793	428
515.264	445
515.736	448
516.208	461
516.679	454
517.151	461
517.623	466
518.095	476
518.567	480
519.038	488
519.51	493
519.982	497
520.454	499
520.927	513
521.399	514
521.871	523
522.343	528
522.815	531
523.287	528
523.76	536
524.232	542
524.704	548
525.177	539
525.649	545
526.122	560
526.594	544
527.067	550
527.539	562
528.012	561
528.484	563
528.957	565
529.43	567
529.903	566
530.375	589
530.848	571
531.321	582
531.794	594
532.267	601
532.74	589
533.213	591
533.686	596
534.159	594
534.632	613
535.105	620
535.578	634
536.051	630
536.525	635
536.998	637
537.471	651
537.945	645
538.418	656
538.891	664
539.365	668
539.838	676
540.312	668
540.786	674
541.259	679
541.733	696
542.206	694
542.68	679
543.154	687
543.628	693
544.101	703
544.575	691
545.049	675
545.523	690
545.997	690
546.471	696
546.945	693
547.419	709
547.893	681
548.367	695
548.842	688
549.316	695
549.79	708
550.264	697
550.739	704
551.213	712
551.687	709
552.162	719
552.636	713
553.111	713
553.585	734
554.06	730
554.534	736
555.009	740
555.484	748
555.958	761
556.433	763
556.908	776
557.383	767
557.858	787
558.333	786
558.807	783
559.282	793
559.757	820
560.232	817
560.708	800
561.183	807
561.658	814
562.133	816
562.608	807
563.083	832
563.559	816
564.034	818
564.509	821
564.985	822
565.46	814
565.936	835
566.411	830
566.887	820
567.362	826
567.838	830
568.313	835
568.789	833
569.265	839
569.74	839
570.216	833
570.692	837
571.168	841
571.644	847
572.12	844
572.596	854
573.071	860
573.547	891
574.024	899
574.5	903
574.976	909
575.452	926
575.928	941
576.404	939
576.881	971
577.357	957
577.833	966
578.31	989
578.786	1001
579.262	1011
579.739	1001
580.215	1040
580.692	1035
581.169	1023
581.645	1026
582.122	1061
582.598	1060
583.075	1057
583.552	1059
584.029	1065
584.506	1059
584.982	1054
585.459	1076
585.936	1057
586.413	1078
586.89	1102
587.367	1088
587.844	1113
588.321	1102
588.799	1101
589.276	1093
589.753	1112
590.23	1123
590.707	1126
591.185	1121
591.662	1135
592.139	1149
592.617	1163
593.094	1158
593.572	1163
594.049	1178
594.527	1185
595.004	1197
595.482	1231
595.96	1220
596.437	1212
596.915	1249
597.393	1229
597.871	1261
598.349	1252
598.826	1274
599.304	1278
599.782	1306
600.26	1304
600.738	1328
601.216	1320
601.694	1328
602.173	1342
602.651	1347
603.129	1344
603.607	1348
604.085	1361
604.564	1360
605.042	1375
605.52	1367
605.999	1397
606.477	1360
606.956	1365
607.434	1388
607.913	1411
608.391	1400
608.87	1386
609.348	1368
609.827	1376
610.306	1395
610.785	1396
611.263	1394
611.742	1382
612.221	1373
612.7	1389
613.179	1402
613.658	1384
614.137	1401
614.616	1427
615.095	1407
615.574	1426
616.053	1430
616.532	1421
617.011	1434
617.491	1440
617.97	1435
618.449	1457
618.928	1473
619.408	1469
619.887	1482
620.367	1483
620.846	1497
621.326	1497
621.805	1522
622.285	1524
622.764	1541
623.244	1546
623.724	1549
624.203	1565
624.683	1537
625.163	1567
625.643	1562
626.123	1557
626.602	1590
627.082	1565
627.562	1559
628.042	1592
628.522	1585
629.002	1577
629.482	1584
629.963	1589
630.443	1577
630.923	1578
631.403	1596
631.883	1594
632.364	1597
632.844	1594
633.324	1594
633.805	1590
634.285	1570
634.766	1566
635.246	1573
635.727	1583
636.207	1581
636.688	1575
637.168	1570
637.649	1569
638.13	1573
638.611	1585
639.091	1579
639.572	1568
640.053	1563
640.534	1576
641.015	1581
641.496	1549
641.977	1590
642.458	1571
642.939	1582
643.42	1582
643.901	1583
644.382	1608
644.863	1610
645.345	1607
645.826	1603
646.307	1600
646.788	1636
647.27	1611
647.751	1619
648.233	1633
648.714	1591
649.196	1631
649.677	1626
650.159	1623
650.64	1609
651.122	1641
651.603	1615
652.085	1630
652.567	1646
653.049	1636
653.53	1642
654.012	1666
654.494	1638
654.976	1660
655.458	1652
655.94	1649
656.422	1670
656.904	1639
657.386	1623
657.868	1623
658.35	1616
658.833	1635
659.315	1636
659.797	1614
660.279	1609
660.762	1621
661.244	1600
661.726	1589
662.209	1597
662.691	1600
663.174	1570
663.656	1577
664.139	1586
664.621	1572
665.104	1562
665.587	1587
666.069	1600
666.552	1595
667.035	1578
667.517	1581
668	1602
668.483	1607
668.966	1594
669.449	1587
669.932	1586
670.415	1608
670.898	1600
671.381	1601
671.864	1608
672.347	1580
672.83	1591
673.313	1590
673.797	1590
674.28	1614
674.763	1620
675.247	1628
675.73	1604
676.213	1619
676.697	1639
677.18	1641
677.664	1644
678.147	1645
678.631	1662
679.114	1688
679.598	1683
680.082	1701
680.565	1689
681.049	1684
681.533	1684
682.017	1695
682.5	1689
682.984	1696
683.468	1700
683.952	1674
684.436	1713
684.92	1699
685.404	1712
685.888	1722
686.372	1701
686.856	1701
687.341	1730
687.825	1703
688.309	1709
688.793	1719
689.278	1698
689.762	1714
690.246	1700
690.731	1704
691.215	1702
691.7	1670
692.184	1697
692.669	1688
693.153	1688
693.638	1662
694.122	1667
694.607	1689
695.092	1673
695.577	1681
696.061	1658
696.546	1673
697.031	1666
697.516	1678
698.001	1679
698.486	1679
698.971	1703
699.456	1658
699.941	1654
700.426	1646
700.911	1680
701.396	1669
701.881	1687
702.366	1667
702.852	1668
703.337	1665
703.822	1656
704.308	1660
704.793	1671
705.278	1673
705.764	1678
706.249	1669
706.735	1662
707.22	1682
707.706	1665
708.191	1686
708.677	1684
709.163	1672
709.648	1684
710.134	1717
710.62	1704
711.106	1706
711.592	1724
712.077	1704
712.563	1660
713.049	1653
713.535	1704
714.021	1706
714.507	1691
714.993	1671
715.479	1684
715.966	1670
716.452	1676
716.938	1684
717.424	1625
717.91	1666
718.397	1641
718.883	1639
719.369	1652
719.856	1629
720.342	1647
720.829	1622
721.315	1641
721.802	1616
722.288	1626
722.775	1564
723.262	1523
723.748	1596
724.235	1590
724.722	1613
725.208	1576
725.695	1575
726.182	1562
726.669	1559
727.156	1591
727.643	1568
728.13	1562
728.617	1542
729.104	1546
729.591	1530
730.078	1542
730.565	1543
731.052	1528
731.539	1532
732.027	1527
732.514	1503
733.001	1522
733.488	1510
733.976	1515
734.463	1510
734.951	1501
735.438	1518
735.926	1498
736.413	1512
736.901	1508
737.388	1516
737.876	1507
738.364	1494
738.851	1509
739.339	1513
739.827	1537
740.314	1476
740.802	1480
741.29	1494
741.778	1473
742.266	1473
742.754	1483
743.242	1499
743.73	1472
744.218	1472
744.706	1457
745.194	1480
745.682	1474
746.17	1482
746.659	1484
747.147	1446
747.635	1451
748.123	1442
748.612	1426
749.1	1407
749.589	1416
750.077	1415
750.566	1407
751.054	1426
751.543	1434
752.031	1399
752.52	1394
753.008	1363
753.497	1371
753.986	1373
754.474	1367
754.963	1383
755.452	1351
755.941	1341
756.43	1335
756.919	1333
757.408	1327
757.896	1338
758.385	1340
758.875	1335
759.364	1318
759.853	1299
760.342	1283
760.831	1312
761.32	1290
761.809	1281
762.299	1285
762.788	1292
763.277	1294
763.767	1280
764.256	1289
764.745	1268
765.235	1286
765.724	1248
766.214	1274
766.703	1259
767.193	1234
767.683	1243
768.172	1212
768.662	1226
769.152	1216
769.641	1220
770.131	1188
770.621	1207
771.111	1189
771.601	1187
772.09	1173
772.58	1159
773.07	1165
773.56	1167
774.05	1144
774.54	1133
775.031	1120
775.521	1123
776.011	1128
776.501	1141
776.991	1113
777.482	1116
777.972	1095
778.462	1096
778.953	1104
779.443	1092
779.933	1098
780.424	1094
780.914	1106
781.405	1105
781.895	1103
782.386	1107
782.877	1092
783.367	1072
783.858	1064
784.349	1071
784.839	1055
785.33	1062
785.821	1062
786.312	1061
786.803	1062
787.293	1064
787.784	1054
788.275	1040
788.766	1029
789.257	1049
789.748	1020
790.24	1011
790.731	1015
791.222	997
791.713	999
792.204	1001
792.696	975
793.187	975
793.678	971
794.169	938
794.661	957
795.152	941
795.644	929
796.135	934
796.627	933
797.118	924
797.61	901
798.101	900
798.593	909
799.085	894
799.576	900
800.068	890
800.56	900
801.052	879
801.544	875
802.035	876
802.527	863
803.019	855
803.511	849
804.003	843
804.495	848
804.987	848
805.479	833
805.971	836
806.464	835
806.956	813
807.448	809
807.94	816
808.433	814
808.925	808
809.417	798
809.91	794
810.402	785
810.894	788
811.387	795
811.879	782
812.372	787
812.865	780
813.357	774
813.85	766
814.342	755
814.835	760
815.328	755
815.821	751
816.313	747
816.806	746
817.299	744
817.792	747
818.285	731
818.778	742
819.271	743
819.764	731
820.257	733
820.75	731
821.243	730
821.736	724
822.229	730
822.722	723
823.216	735
