Data from lamp5helium_sterk_Subt2__90__90.txt Node

Date: Wed Apr 09 11:04:45 CEST 2025
User: fys-lab-0081
Spectrometer: S04999
Trigger mode: 0
Resolution mode: 1024 pixels
Integration Time (sec): 1.000000E-1
Scans to average: 1
Nonlinearity correction enabled: false
Boxcar width: 0
Baseline correction enabled: true
XAxis mode: Wavelengths
Number of Pixels in Spectrum: 1024
>>>>>Begin Spectral Data<<<<<
336.42	1
336.877	5
337.334	0
337.792	-1
338.249	5
338.706	3
339.164	0
339.621	-1
340.079	2
340.536	3
340.994	0
341.452	-2
341.909	3
342.367	0
342.825	0
343.283	7
343.741	2
344.198	-1
344.656	-1
345.114	1
345.572	3
346.03	-2
346.488	1
346.947	0
347.405	6
347.863	-1
348.321	3
348.779	6
349.238	-3
349.696	0
350.154	2
350.613	4
351.071	3
351.53	8
351.988	4
352.447	-1
352.905	-6
353.364	2
353.823	0
354.282	-2
354.74	-3
355.199	0
355.658	8
356.117	-1
356.576	0
357.035	-1
357.494	0
357.953	-2
358.412	6
358.871	4
359.33	0
359.789	-3
360.249	4
360.708	4
361.167	1
361.626	2
362.086	3
362.545	-2
363.005	3
363.464	-2
363.924	-2
364.383	0
364.843	2
365.303	3
365.762	2
366.222	0
366.682	1
367.142	5
367.601	-1
368.061	1
368.521	2
368.981	3
369.441	10
369.901	6
370.361	-2
370.821	0
371.282	1
371.742	1
372.202	2
372.662	2
373.123	-3
373.583	5
374.043	3
374.504	0
374.964	0
375.425	1
375.885	2
376.346	1
376.806	5
377.267	3
377.728	6
378.188	4
378.649	-3
379.11	4
379.571	-2
380.032	6
380.493	6
380.954	6
381.414	1
381.876	2
382.337	0
382.798	3
383.259	6
383.72	5
384.181	0
384.642	2
385.104	5
385.565	7
386.026	8
386.488	7
386.949	6
387.411	8
387.872	7
388.334	12
388.795	10
389.257	4
389.719	7
390.181	7
390.642	4
391.104	6
391.566	7
392.028	11
392.49	12
392.952	11
393.414	7
393.876	9
394.338	5
394.8	10
395.262	3
395.724	10
396.186	13
396.648	10
397.111	11
397.573	14
398.035	9
398.498	11
398.96	14
399.423	9
399.885	9
400.348	13
400.81	10
401.273	9
401.736	12
402.198	17
402.661	13
403.124	6
403.587	18
404.049	14.5
404.512	11
404.975	11
405.438	14
405.901	16
406.364	19
406.827	9
407.29	15
407.754	13
408.217	17
408.68	16
409.143	20
409.607	24
410.07	18
410.533	17
410.997	22
411.46	17
411.924	25
412.387	23
412.851	18
413.314	23
413.778	18
414.242	20
414.705	19
415.169	23
415.633	19
416.097	17
416.561	20
417.024	20
417.488	22
417.952	23
418.416	18
418.88	14
419.344	16
419.809	23
420.273	21
420.737	17
421.201	23
421.665	24
422.13	25
422.594	28
423.059	24
423.523	26
423.987	25
424.452	26
424.916	30
425.381	26
425.846	25
426.31	34
426.775	34
427.24	30
427.704	32
428.169	32
428.634	36
429.099	32
429.564	35
430.029	31
430.494	32
430.959	30
431.424	29
431.889	37
432.354	40
432.819	32
433.284	37
433.75	32
434.215	39
434.68	38
435.146	35
435.611	40
436.077	44
436.542	41
437.008	42
437.473	39
437.939	37
438.404	41
438.87	49
439.336	47
439.801	44
440.267	49
440.733	47
441.199	46
441.665	49
442.131	50
442.596	45
443.062	50
443.529	56
443.995	52
444.461	54
444.927	59
445.393	55
445.859	58
446.325	61
446.792	63
447.258	65
447.724	69
448.191	69
448.657	67
449.124	64
449.59	70
450.057	75
450.523	80
450.99	76
451.457	79
451.923	81
452.39	79
452.857	80
453.324	77
453.791	80
454.257	88
454.724	83
455.191	82
455.658	83
456.125	86
456.592	84
457.059	89
457.527	82
457.994	92
458.461	92
458.928	95
459.396	94
459.863	95
460.33	97
460.798	99
461.265	102
461.732	101
462.2	101
462.668	102
463.135	101
463.603	96
464.07	106
464.538	106
465.006	105
465.474	106
465.941	102
466.409	101
466.877	103
467.345	107
467.813	101
468.281	108
468.749	110
469.217	112
469.685	116
470.153	115
470.621	118
471.09	114
471.558	120
472.026	121
472.494	124
472.963	123
473.431	129
473.9	135
474.368	135
474.837	132
475.305	135
475.774	137
476.242	148
476.711	144
477.18	153
477.648	145
478.117	149
478.586	154
479.055	151
479.524	148
479.993	155
480.462	152
480.93	155
481.399	157
481.869	152
482.338	152
482.807	163
483.276	157
483.745	158
484.214	162
484.684	164
485.153	166
485.622	170
486.092	173
486.561	166
487.031	182
487.5	181
487.97	177
488.439	185
488.909	190
489.378	198
489.848	203
490.318	201
490.787	218
491.257	215
491.727	217
492.197	217
492.667	218
493.137	230
493.607	228
494.077	232
494.547	225
495.017	226
495.487	231
495.957	237
496.427	234
496.897	230
497.368	243
497.838	235
498.308	240
498.779	238
499.249	246
499.719	252
500.19	256
500.66	249
501.131	255
501.602	263
502.072	258
502.543	263
503.014	279
503.484	278
503.955	279
504.426	294
504.897	292
505.368	299
505.838	317
506.309	309
506.78	324
507.251	333
507.722	337
508.194	349
508.665	355
509.136	352
509.607	369
510.078	367
510.549	374
511.021	382
511.492	389
511.964	394
512.435	393
512.906	393
513.378	397
513.849	404
514.321	407
514.793	410
515.264	418
515.736	423
516.208	430
516.679	435
517.151	439
517.623	441
518.095	452
518.567	456
519.038	470
519.51	472
519.982	471
520.454	474
520.927	490
521.399	491
521.871	496
522.343	503
522.815	503
523.287	505
523.76	510
524.232	518
524.704	518
525.177	514
525.649	519
526.122	527
526.594	520
527.067	528
527.539	536
528.012	537
528.484	535
528.957	544
529.43	546
529.903	540
530.375	560
530.848	553
531.321	559
531.794	561
532.267	571
532.74	567
533.213	564
533.686	572
534.159	569
534.632	584
535.105	592
535.578	603
536.051	602
536.525	601
536.998	605
537.471	624
537.945	617
538.418	624
538.891	625
539.365	637
539.838	642
540.312	640
540.786	641
541.259	649
541.733	659
542.206	658
542.68	654
543.154	652
543.628	661
544.101	673
544.575	660
545.049	645
545.523	658
545.997	658
546.471	670
546.945	666
547.419	674
547.893	650
548.367	663
548.842	659
549.316	668
549.79	674
550.264	664
550.739	674
551.213	678
551.687	673
552.162	687
552.636	681
553.111	684
553.585	706
554.06	693
554.534	705
555.009	708
555.484	721
555.958	728
556.433	727
556.908	738
557.383	737
557.858	755
558.333	751
558.807	752
559.282	761
559.757	790
560.232	778
560.708	765
561.183	770
561.658	783
562.133	778
562.608	774
563.083	795
563.559	782
564.034	782
564.509	784
564.985	790
565.46	785
565.936	794
566.411	792
566.887	786
567.362	794
567.838	794
568.313	802
568.789	793
569.265	800
569.74	807
570.216	791
570.692	807
571.168	809
571.644	814
572.12	811
572.596	820
573.071	821
573.547	856
574.024	858
574.5	864
574.976	869
575.452	883
575.928	899
576.404	905
576.881	934
577.357	913
577.833	922
578.31	942
578.786	954
579.262	968
579.739	965
580.215	992
580.692	997
581.169	982
581.645	981
582.122	1019
582.598	1014
583.075	1013
583.552	1020
584.029	1017
584.506	1014
584.982	1011
585.459	1032
585.936	1014
586.413	1029
586.89	1059
587.367	1051
587.844	1060
588.321	1061
588.799	1055
589.276	1046
589.753	1058
590.23	1077
590.707	1075
591.185	1073
591.662	1082
592.139	1094
592.617	1120
593.094	1108
593.572	1115
594.049	1126
594.527	1139
595.004	1142
595.482	1182
595.96	1168
596.437	1171
596.915	1193
597.393	1182
597.871	1210
598.349	1202
598.826	1222
599.304	1225
599.782	1256
600.26	1242
600.738	1274
601.216	1270
601.694	1282
602.173	1287
602.651	1293
603.129	1291
603.607	1301
604.085	1300
604.564	1310
605.042	1318
605.52	1312
605.999	1337
606.477	1309
606.956	1317
607.434	1333.5
607.913	1350
608.391	1350
608.87	1329
609.348	1314
609.827	1324
610.306	1340
610.785	1338
611.263	1337
611.742	1332
612.221	1312
612.7	1339
613.179	1338
613.658	1329
614.137	1349
614.616	1370
615.095	1348
615.574	1369
616.053	1374
616.532	1369
617.011	1370
617.491	1382
617.97	1378
618.449	1392
618.928	1416
619.408	1402
619.887	1422
620.367	1431
620.846	1441
621.326	1432
621.805	1462
622.285	1466
622.764	1482
623.244	1487
623.724	1495
624.203	1505
624.683	1477
625.163	1506
625.643	1500
626.123	1503
626.602	1529
627.082	1502
627.562	1505
628.042	1527
628.522	1526
629.002	1519
629.482	1523
629.963	1526
630.443	1512
630.923	1518
631.403	1538
631.883	1532
632.364	1539
632.844	1533
633.324	1539
633.805	1532
634.285	1514
634.766	1501
635.246	1509
635.727	1521
636.207	1521
636.688	1516
637.168	1513
637.649	1504
638.13	1513
638.611	1528
639.091	1522
639.572	1509
640.053	1498
640.534	1516
641.015	1526
641.496	1497
641.977	1528
642.458	1513
642.939	1520
643.42	1526
643.901	1523
644.382	1549
644.863	1546
645.345	1537
645.826	1544
646.307	1540
646.788	1573
647.27	1547
647.751	1554
648.233	1569
648.714	1532
649.196	1572
649.677	1556
650.159	1560
650.64	1545
651.122	1577
651.603	1553
652.085	1570
652.567	1592
653.049	1578
653.53	1576
654.012	1609
654.494	1585
654.976	1593
655.458	1593
655.94	1579
656.422	1617
656.904	1581
657.386	1559
657.868	1572
658.35	1557
658.833	1570
659.315	1581
659.797	1556
660.279	1549
660.762	1553
661.244	1541
661.726	1534
662.209	1541
662.691	1542
663.174	1512
663.656	1518
664.139	1523
664.621	1517
665.104	1506
665.587	1532
666.069	1542
666.552	1537
667.035	1522
667.517	1533
668	1544
668.483	1546
668.966	1531
669.449	1530
669.932	1534
670.415	1541
670.898	1540
671.381	1555
671.864	1556
672.347	1524
672.83	1528
673.313	1534
673.797	1530
674.28	1559
674.763	1558
675.247	1565
675.73	1549
676.213	1563
676.697	1580
677.18	1580
677.664	1586
678.147	1577
678.631	1597
679.114	1626
679.598	1622
680.082	1638
680.565	1633
681.049	1626
681.533	1625
682.017	1633
682.5	1625
682.984	1639
683.468	1642
683.952	1613
684.436	1656
684.92	1632
685.404	1646
685.888	1661
686.372	1643
686.856	1644
687.341	1665
687.825	1642
688.309	1641
688.793	1653
689.278	1633
689.762	1652
690.246	1646
690.731	1633
691.215	1647
691.7	1606
692.184	1639
692.669	1626
693.153	1632
693.638	1604
694.122	1606
694.607	1632
695.092	1607
695.577	1624
696.061	1606
696.546	1623
697.031	1600
697.516	1620
698.001	1625
698.486	1613
698.971	1640
699.456	1598
699.941	1598
700.426	1591
700.911	1615
701.396	1612
701.881	1630
702.366	1603
702.852	1608
703.337	1605
703.822	1596
704.308	1605
704.793	1609
705.278	1611
705.764	1625
706.249	1600
706.735	1603
707.22	1618
707.706	1603
708.191	1629
708.677	1625
709.163	1610
709.648	1622
710.134	1650
710.62	1645
711.106	1644
711.592	1661
712.077	1643
712.563	1603
713.049	1599
713.535	1646
714.021	1638
714.507	1633
714.993	1617
715.479	1634
715.966	1613
716.452	1614
716.938	1632
717.424	1570
717.91	1606
718.397	1593
718.883	1583
719.369	1591
719.856	1577
720.342	1590
720.829	1576
721.315	1573
721.802	1562
722.288	1575
722.775	1508
723.262	1470
723.748	1540
724.235	1529
724.722	1555
725.208	1522
725.695	1521
726.182	1518
726.669	1502
727.156	1528
727.643	1515
728.13	1512
728.617	1487
729.104	1493
729.591	1484
730.078	1499
730.565	1497
731.052	1475
731.539	1482
732.027	1477
732.514	1455
733.001	1469
733.488	1458
733.976	1465
734.463	1454
734.951	1456
735.438	1466
735.926	1442
736.413	1465
736.901	1456
737.388	1463
737.876	1457
738.364	1453
738.851	1457
739.339	1458
739.827	1473
740.314	1422
740.802	1437
741.29	1442
741.778	1421
742.266	1425
742.754	1438
743.242	1449
743.73	1424
744.218	1423
744.706	1408
745.194	1434
745.682	1423
746.17	1430
746.659	1432
747.147	1394
747.635	1399
748.123	1397
748.612	1372
749.1	1362
749.589	1375
750.077	1373
750.566	1363
751.054	1381
751.543	1387
752.031	1350
752.52	1350
753.008	1319
753.497	1327
753.986	1326
754.474	1328
754.963	1338
755.452	1311
755.941	1294
756.43	1302
756.919	1294
757.408	1280
757.896	1292
758.385	1302
758.875	1281
759.364	1272
759.853	1261
760.342	1240
760.831	1260
761.32	1262
761.809	1239
762.299	1248
762.788	1247
763.277	1251
763.767	1241
764.256	1239
764.745	1232
765.235	1246
765.724	1214
766.214	1228
766.703	1216
767.193	1200
767.683	1206
768.172	1174
768.662	1184
769.152	1178
769.641	1184
770.131	1151
770.621	1167
771.111	1151
771.601	1148
772.09	1137
772.58	1123
773.07	1130
773.56	1135
774.05	1100
774.54	1100
775.031	1090
775.521	1088
776.011	1094
776.501	1107
776.991	1075
777.482	1083
777.972	1060
778.462	1065
778.953	1069
779.443	1060
779.933	1064
780.424	1054
780.914	1071
781.405	1074
781.895	1061
782.386	1071
782.877	1057
783.367	1037
783.858	1033
784.349	1036
784.839	1025
785.33	1031
785.821	1036
786.312	1028
786.803	1034
787.293	1032
787.784	1020
788.275	1006
788.766	1001
789.257	1021
789.748	996
790.24	979
790.731	987
791.222	968
791.713	967
792.204	965
792.696	943
793.187	945
793.678	937
794.169	910
794.661	925
795.152	909
795.644	894
796.135	904
796.627	906
797.118	882
797.61	881
798.101	871
798.593	881
799.085	860
799.576	872
800.068	866
800.56	876
801.052	852
801.544	849
802.035	853
802.527	839
803.019	828
803.511	823
804.003	819
804.495	825
804.987	825
805.479	807
805.971	808
806.464	813
806.956	792
807.448	793
807.94	786
808.433	783
808.925	779
809.417	781
809.91	770
810.402	754
810.894	764
811.387	770
811.879	765
812.372	768
812.865	752
813.357	749
813.85	748
814.342	731
814.835	738
815.328	733
815.821	727
816.313	723
816.806	724
817.299	720
817.792	721
818.285	711
818.778	720
819.271	721
819.764	714
820.257	715
820.75	709
821.243	708
821.736	708
822.229	712
822.722	699
823.216	717
