Data from lamp5helium_sterk_Subt2__2__2.txt Node

Date: Wed Apr 09 11:04:34 CEST 2025
User: fys-lab-0081
Spectrometer: S04999
Trigger mode: 0
Resolution mode: 1024 pixels
Integration Time (sec): 1.000000E-1
Scans to average: 1
Nonlinearity correction enabled: false
Boxcar width: 0
Baseline correction enabled: true
XAxis mode: Wavelengths
Number of Pixels in Spectrum: 1024
>>>>>Begin Spectral Data<<<<<
336.42	0
336.877	0
337.334	0
337.792	3
338.249	1
338.706	5
339.164	5
339.621	7
340.079	1
340.536	4
340.994	2
341.452	5
341.909	8
342.367	0
342.825	-1
343.283	2
343.741	6
344.198	3
344.656	-3
345.114	-1
345.572	10
346.03	2
346.488	0
346.947	-2
347.405	4
347.863	-2
348.321	-3
348.779	4
349.238	1
349.696	1
350.154	1
350.613	-1
351.071	0
351.53	5
351.988	4
352.447	3
352.905	0
353.364	2
353.823	4
354.282	1
354.74	-2
355.199	2
355.658	5
356.117	6
356.576	1
357.035	4
357.494	3
357.953	1
358.412	2
358.871	2
359.33	0
359.789	-1
360.249	1
360.708	0
361.167	2
361.626	4
362.086	0
362.545	0
363.005	2
363.464	2
363.924	1
364.383	3
364.843	4
365.303	2
365.762	8
366.222	7
366.682	1
367.142	3
367.601	0
368.061	1
368.521	-1
368.981	0
369.441	3
369.901	6
370.361	5
370.821	3
371.282	3
371.742	5
372.202	5
372.662	8
373.123	-4
373.583	-1
374.043	-1
374.504	2
374.964	1
375.425	2
375.885	0
376.346	5
376.806	8
377.267	5
377.728	8
378.188	5
378.649	0
379.11	5
379.571	2
380.032	7
380.493	3
380.954	8
381.414	1
381.876	3
382.337	2
382.798	6
383.259	8
383.72	2
384.181	-1
384.642	4
385.104	1
385.565	10
386.026	10
386.488	8
386.949	9
387.411	8
387.872	8
388.334	9
388.795	10
389.257	12
389.719	7
390.181	10
390.642	4
391.104	5
391.566	11
392.028	7
392.49	16
392.952	12
393.414	10
393.876	16
394.338	9
394.8	11
395.262	7
395.724	11
396.186	10
396.648	13
397.111	11
397.573	14
398.035	8
398.498	13
398.96	14
399.423	10
399.885	13
400.348	16
400.81	9
401.273	13
401.736	11
402.198	20
402.661	17
403.124	10
403.587	18
404.049	17.5
404.512	17
404.975	16
405.438	19
405.901	18
406.364	20
406.827	18
407.29	16
407.754	18
408.217	20
408.68	15
409.143	21
409.607	22
410.07	20
410.533	15
410.997	18
411.46	20
411.924	26
412.387	21
412.851	19
413.314	21
413.778	19
414.242	22
414.705	24
415.169	28
415.633	26
416.097	19
416.561	24
417.024	21
417.488	26
417.952	23
418.416	23
418.88	19
419.344	17
419.809	23
420.273	25
420.737	27
421.201	28
421.665	25
422.13	28
422.594	32
423.059	28
423.523	29
423.987	26
424.452	31
424.916	29
425.381	31
425.846	24
426.31	40
426.775	36
427.24	35
427.704	34
428.169	34
428.634	35
429.099	36
429.564	32
430.029	36
430.494	34
430.959	34
431.424	36
431.889	35
432.354	40
432.819	33
433.284	45
433.75	37
434.215	42
434.68	43
435.146	39
435.611	44
436.077	45
436.542	44
437.008	46
437.473	49
437.939	41
438.404	49
438.87	51
439.336	51
439.801	47
440.267	51
440.733	53
441.199	48
441.665	49
442.131	54
442.596	51
443.062	53
443.529	58
443.995	56
444.461	55
444.927	66
445.393	58
445.859	60
446.325	65
446.792	72
447.258	68
447.724	74
448.191	73
448.657	77
449.124	71
449.59	72
450.057	79
450.523	80
450.99	84
451.457	84
451.923	88
452.39	88
452.857	93
453.324	83
453.791	91
454.257	92
454.724	87
455.191	89
455.658	89
456.125	90
456.592	91
457.059	92
457.527	92
457.994	100
458.461	101
458.928	103
459.396	101
459.863	104
460.33	102
460.798	107
461.265	107
461.732	109
462.2	104
462.668	110
463.135	111
463.603	107
464.07	114
464.538	114
465.006	114
465.474	112
465.941	111
466.409	107
466.877	111
467.345	113
467.813	109
468.281	117
468.749	117
469.217	118
469.685	121
470.153	121
470.621	121
471.09	122
471.558	133
472.026	129
472.494	130
472.963	135
473.431	138
473.9	143
474.368	145
474.837	145
475.305	152
475.774	147
476.242	155
476.711	154
477.18	160
477.648	158
478.117	161
478.586	162
479.055	157
479.524	166
479.993	164
480.462	166
480.93	162
481.399	158
481.869	161
482.338	164
482.807	171
483.276	168
483.745	166
484.214	174
484.684	175
485.153	179
485.622	179
486.092	180
486.561	176
487.031	193
487.5	191
487.97	187
488.439	197
488.909	206
489.378	212
489.848	214
490.318	215
490.787	231
491.257	231
491.727	230
492.197	236
492.667	241
493.137	244
493.607	243
494.077	247
494.547	239
495.017	243
495.487	253
495.957	256
496.427	249
496.897	245
497.368	253
497.838	250
498.308	256
498.779	260
499.249	260
499.719	264
500.19	268
500.66	266
501.131	272
501.602	278
502.072	277
502.543	287
503.014	296
503.484	293
503.955	297
504.426	310
504.897	318
505.368	321
505.838	326
506.309	330
506.78	351
507.251	355
507.722	362
508.194	372
508.665	374
509.136	375
509.607	391
510.078	394
510.549	397
511.021	410
511.492	407
511.964	415
512.435	420
512.906	417
513.378	427
513.849	430
514.321	432
514.793	433
515.264	446
515.736	446
516.208	460
516.679	464
517.151	463
517.623	472
518.095	484
518.567	487
519.038	499
519.51	494
519.982	500
520.454	508
520.927	514
521.399	519
521.871	528
522.343	532
522.815	537
523.287	531
523.76	539
524.232	552
524.704	552
525.177	549
525.649	550
526.122	561
526.594	551
527.067	560
527.539	568
528.012	570
528.484	569
528.957	577
529.43	576
529.903	569
530.375	593
530.848	577
531.321	587
531.794	598
532.267	605
532.74	595
533.213	596
533.686	607
534.159	605
534.632	621
535.105	629
535.578	643
536.051	640
536.525	640
536.998	643
537.471	661
537.945	649
538.418	660
538.891	664
539.365	679
539.838	683
540.312	679
540.786	678
541.259	687
541.733	697
542.206	704
542.68	688
543.154	693
543.628	701
544.101	713
544.575	705
545.049	685
545.523	698
545.997	702
546.471	707
546.945	704
547.419	713
547.893	694
548.367	707
548.842	695
549.316	697
549.79	709
550.264	704
550.739	714
551.213	719
551.687	718
552.162	729
552.636	724
553.111	724
553.585	744
554.06	738
554.534	749
555.009	741
555.484	762
555.958	769
556.433	769
556.908	787
557.383	777
557.858	799
558.333	793
558.807	793
559.282	806
559.757	827
560.232	826
560.708	810
561.183	812
561.658	823
562.133	823
562.608	815
563.083	846
563.559	829
564.034	824
564.509	834
564.985	834
565.46	831
565.936	841
566.411	832
566.887	831
567.362	838
567.838	845
568.313	845
568.789	840
569.265	838
569.74	847
570.216	840
570.692	853
571.168	848
571.644	864
572.12	857
572.596	867
573.071	871
573.547	900
574.024	909
574.5	912
574.976	920
575.452	936
575.928	943
576.404	957
576.881	979
577.357	964
577.833	970
578.31	997
578.786	1009
579.262	1021
579.739	1011
580.215	1044
580.692	1046
581.169	1030
581.645	1042
582.122	1073
582.598	1074
583.075	1074
583.552	1078
584.029	1079
584.506	1072
584.982	1067
585.459	1083
585.936	1071
586.413	1090
586.89	1116
587.367	1102
587.844	1118
588.321	1108
588.799	1120
589.276	1106
589.753	1124
590.23	1132
590.707	1130
591.185	1140
591.662	1147
592.139	1157
592.617	1177
593.094	1163
593.572	1175
594.049	1193
594.527	1196
595.004	1201
595.482	1247
595.96	1234
596.437	1232
596.915	1261
597.393	1241
597.871	1270
598.349	1257
598.826	1281
599.304	1285
599.782	1322
600.26	1315
600.738	1336
601.216	1333
601.694	1341
602.173	1350
602.651	1364
603.129	1357
603.607	1374
604.085	1372
604.564	1376
605.042	1388
605.52	1380
605.999	1411
606.477	1374
606.956	1381
607.434	1402.5
607.913	1424
608.391	1409
608.87	1401
609.348	1386
609.827	1390
610.306	1407
610.785	1408
611.263	1406
611.742	1399
612.221	1381
612.7	1409
613.179	1415
613.658	1395
614.137	1423
614.616	1441
615.095	1421
615.574	1439
616.053	1449
616.532	1437
617.011	1444
617.491	1453
617.97	1456
618.449	1460
618.928	1484
619.408	1481
619.887	1494
620.367	1503
620.846	1515
621.326	1507
621.805	1545
622.285	1536
622.764	1556
623.244	1563
623.724	1567
624.203	1586
624.683	1552
625.163	1580
625.643	1578
626.123	1570
626.602	1606
627.082	1577
627.562	1582
628.042	1608
628.522	1606
629.002	1596
629.482	1602
629.963	1612
630.443	1594
630.923	1594
631.403	1613
631.883	1607
632.364	1616
632.844	1615
633.324	1612
633.805	1609
634.285	1589
634.766	1586
635.246	1587
635.727	1593
636.207	1597
636.688	1590
637.168	1590
637.649	1584
638.13	1586
638.611	1605
639.091	1596
639.572	1590
640.053	1579
640.534	1598
641.015	1595
641.496	1569
641.977	1602
642.458	1590
642.939	1598
643.42	1599
643.901	1601
644.382	1625
644.863	1620
645.345	1616
645.826	1620
646.307	1614
646.788	1650
647.27	1631
647.751	1622
648.233	1649
648.714	1605
649.196	1651
649.677	1641
650.159	1637
650.64	1624
651.122	1655
651.603	1625
652.085	1646
652.567	1661
653.049	1656
653.53	1654
654.012	1683
654.494	1658
654.976	1675
655.458	1673
655.94	1663
656.422	1696
656.904	1652
657.386	1644
657.868	1645
658.35	1628
658.833	1647
659.315	1651
659.797	1627
660.279	1623
660.762	1634
661.244	1620
661.726	1607
662.209	1614
662.691	1615
663.174	1585
663.656	1595
664.139	1604
664.621	1592
665.104	1579
665.587	1597
666.069	1615
666.552	1608
667.035	1587
667.517	1603
668	1618
668.483	1623
668.966	1609
669.449	1608
669.932	1605
670.415	1617
670.898	1613
671.381	1623
671.864	1622
672.347	1593
672.83	1608
673.313	1607
673.797	1601
674.28	1632
674.763	1636
675.247	1647
675.73	1613
676.213	1634
676.697	1650
677.18	1654
677.664	1659
678.147	1651
678.631	1670
679.114	1695
679.598	1696
680.082	1709
680.565	1704
681.049	1699
681.533	1695
682.017	1713
682.5	1706
682.984	1711
683.468	1719
683.952	1687
684.436	1735
684.92	1709
685.404	1723
685.888	1738
686.372	1720
686.856	1721
687.341	1740
687.825	1713
688.309	1718
688.793	1728
689.278	1715
689.762	1730
690.246	1720
690.731	1715
691.215	1730
691.7	1680
692.184	1708
692.669	1699
693.153	1708
693.638	1676
694.122	1679
694.607	1706
695.092	1683
695.577	1693
696.061	1671
696.546	1688
697.031	1673
697.516	1693
698.001	1704
698.486	1694
698.971	1710
699.456	1670
699.941	1670
700.426	1671
700.911	1686
701.396	1691
701.881	1703
702.366	1691
702.852	1686
703.337	1677
703.822	1672
704.308	1674
704.793	1682
705.278	1684
705.764	1695
706.249	1682
706.735	1681
707.22	1705
707.706	1670
708.191	1701
708.677	1697
709.163	1689
709.648	1700
710.134	1725
710.62	1718
711.106	1717
711.592	1733
712.077	1722
712.563	1674
713.049	1674
713.535	1718
714.021	1716
714.507	1710
714.993	1684
715.479	1699
715.966	1685
716.452	1696
716.938	1696
717.424	1640
717.91	1680
718.397	1664
718.883	1650
719.369	1667
719.856	1644
720.342	1663
720.829	1640
721.315	1651
721.802	1630
722.288	1645
722.775	1573
723.262	1543
723.748	1611
724.235	1606
724.722	1624
725.208	1585
725.695	1589
726.182	1580
726.669	1572
727.156	1597
727.643	1574
728.13	1570
728.617	1558
729.104	1560
729.591	1551
730.078	1563
730.565	1558
731.052	1545
731.539	1551
732.027	1539
732.514	1518
733.001	1536
733.488	1529
733.976	1527
734.463	1521
734.951	1516
735.438	1532
735.926	1512
736.413	1531
736.901	1514
737.388	1530
737.876	1517
738.364	1515
738.851	1521
739.339	1529
739.827	1537
740.314	1486
740.802	1496
741.29	1503
741.778	1485
742.266	1487
742.754	1492
743.242	1513
743.73	1486
744.218	1486
744.706	1466
745.194	1495
745.682	1482
746.17	1491
746.659	1494
747.147	1453
747.635	1461
748.123	1454
748.612	1436
749.1	1424
749.589	1431
750.077	1429
750.566	1428
751.054	1440
751.543	1446
752.031	1414
752.52	1409
753.008	1378
753.497	1380
753.986	1385
754.474	1379
754.963	1392
755.452	1364
755.941	1346
756.43	1351
756.919	1346
757.408	1336
757.896	1343
758.385	1353
758.875	1334
759.364	1327
759.853	1309
760.342	1291
760.831	1314
761.32	1308
761.809	1286
762.299	1290
762.788	1299
763.277	1304
763.767	1297
764.256	1292
764.745	1281
765.235	1295
765.724	1262
766.214	1289
766.703	1269
767.193	1247
767.683	1260
768.172	1223
768.662	1229
769.152	1226
769.641	1239
770.131	1196
770.621	1213
771.111	1196
771.601	1198
772.09	1188
772.58	1169
773.07	1173
773.56	1178
774.05	1153
774.54	1149
775.031	1135
775.521	1129
776.011	1142
776.501	1142
776.991	1123
777.482	1136
777.972	1105
778.462	1102
778.953	1106
779.443	1101
779.933	1100
780.424	1103
780.914	1113
781.405	1114
781.895	1108
782.386	1110
782.877	1102
783.367	1083
783.858	1075
784.349	1079
784.839	1063
785.33	1067
785.821	1069
786.312	1072
786.803	1070
787.293	1071
787.784	1059
788.275	1043
788.766	1036
789.257	1061
789.748	1037
790.24	1023
790.731	1024
791.222	1006
791.713	1009
792.204	1008
792.696	977
793.187	984
793.678	973
794.169	948
794.661	967
795.152	943
795.644	937
796.135	945
796.627	945
797.118	923
797.61	912
798.101	904
798.593	917
799.085	893
799.576	905
800.068	896
800.56	909
801.052	888
801.544	879
802.035	882
802.527	870
803.019	863
803.511	857
804.003	850
804.495	855
804.987	851
805.479	839
805.971	839
806.464	846
806.956	826
807.448	824
807.94	822
808.433	817
808.925	814
809.417	807
809.91	805
810.402	787
810.894	790
811.387	797
811.879	792
812.372	796
812.865	785
813.357	777
813.85	776
814.342	763
814.835	770
815.328	758
815.821	753
816.313	758
816.806	752
817.299	748
817.792	751
818.285	733
818.778	745
819.271	744
819.764	733
820.257	739
820.75	738
821.243	738
821.736	731
822.229	734
822.722	732
823.216	738
