Data from lamp5helium_sterk_Subt2__11__11.txt Node

Date: Wed Apr 09 11:04:35 CEST 2025
User: fys-lab-0081
Spectrometer: S04999
Trigger mode: 0
Resolution mode: 1024 pixels
Integration Time (sec): 1.000000E-1
Scans to average: 1
Nonlinearity correction enabled: false
Boxcar width: 0
Baseline correction enabled: true
XAxis mode: Wavelengths
Number of Pixels in Spectrum: 1024
>>>>>Begin Spectral Data<<<<<
336.42	2
336.877	1
337.334	2
337.792	2
338.249	7
338.706	-1
339.164	1
339.621	4
340.079	1
340.536	7
340.994	4
341.452	5
341.909	3
342.367	1
342.825	-2
343.283	3
343.741	1
344.198	2
344.656	-1
345.114	-1
345.572	4
346.03	0
346.488	4
346.947	-1
347.405	0
347.863	-1
348.321	0
348.779	1
349.238	3
349.696	0
350.154	0
350.613	4
351.071	-4
351.53	7
351.988	7
352.447	0
352.905	-2
353.364	3
353.823	3
354.282	1
354.74	-9
355.199	3
355.658	6
356.117	-3
356.576	4
357.035	1
357.494	2
357.953	1
358.412	4
358.871	1
359.33	0
359.789	1
360.249	4
360.708	1
361.167	5
361.626	3
362.086	0
362.545	2
363.005	2
363.464	-1
363.924	-1
364.383	-1
364.843	3
365.303	3
365.762	0
366.222	2
366.682	1
367.142	3
367.601	-2
368.061	0
368.521	0
368.981	-2
369.441	4
369.901	5
370.361	3
370.821	0
371.282	4
371.742	7
372.202	4
372.662	3
373.123	0
373.583	1
374.043	5
374.504	5
374.964	-3
375.425	1
375.885	6
376.346	5
376.806	7
377.267	2
377.728	6
378.188	2
378.649	4
379.11	3
379.571	-2
380.032	4
380.493	3
380.954	10
381.414	2
381.876	4
382.337	2
382.798	5
383.259	2
383.72	3
384.181	2
384.642	4
385.104	6
385.565	7
386.026	8
386.488	9
386.949	6
387.411	9
387.872	7
388.334	6
388.795	8
389.257	11
389.719	7
390.181	6
390.642	6
391.104	10
391.566	10
392.028	8
392.49	15
392.952	14
393.414	7
393.876	13
394.338	7
394.8	8
395.262	0
395.724	14
396.186	16
396.648	13
397.111	8
397.573	14
398.035	10
398.498	11
398.96	13
399.423	12
399.885	10
400.348	13
400.81	12
401.273	10
401.736	11
402.198	18
402.661	17
403.124	10
403.587	17
404.049	17.5
404.512	18
404.975	13
405.438	15
405.901	18
406.364	18
406.827	15
407.29	15
407.754	15
408.217	19
408.68	15
409.143	22
409.607	21
410.07	17
410.533	17
410.997	17
411.46	20
411.924	25
412.387	19
412.851	22
413.314	17
413.778	22
414.242	19
414.705	24
415.169	25
415.633	19
416.097	21
416.561	23
417.024	23
417.488	21
417.952	25
418.416	21
418.88	21
419.344	17
419.809	23
420.273	22
420.737	22
421.201	27
421.665	25
422.13	31
422.594	29
423.059	28
423.523	26
423.987	28
424.452	31
424.916	30
425.381	30
425.846	23
426.31	38
426.775	31
427.24	34
427.704	35
428.169	34
428.634	38
429.099	38
429.564	35
430.029	32
430.494	34
430.959	31
431.424	32
431.889	39
432.354	43
432.819	31
433.284	38
433.75	40
434.215	46
434.68	43
435.146	38
435.611	40
436.077	46
436.542	42
437.008	49
437.473	43
437.939	42
438.404	50
438.87	50
439.336	47
439.801	49
440.267	49
440.733	53
441.199	50
441.665	51
442.131	58
442.596	49
443.062	54
443.529	59
443.995	57
444.461	55
444.927	60
445.393	59
445.859	63
446.325	62
446.792	70
447.258	67
447.724	69
448.191	73
448.657	74
449.124	73
449.59	76
450.057	83
450.523	83
450.99	84
451.457	81
451.923	83
452.39	86
452.857	89
453.324	87
453.791	84
454.257	92
454.724	89
455.191	90
455.658	93
456.125	93
456.592	87
457.059	92
457.527	90
457.994	100
458.461	101
458.928	100
459.396	103
459.863	103
460.33	103
460.798	105
461.265	108
461.732	106
462.2	107
462.668	106
463.135	111
463.603	106
464.07	116
464.538	113
465.006	110
465.474	116
465.941	109
466.409	112
466.877	107
467.345	107
467.813	106
468.281	109
468.749	118
469.217	116
469.685	120
470.153	121
470.621	123
471.09	121
471.558	123
472.026	132
472.494	133
472.963	134
473.431	137
473.9	137
474.368	146
474.837	148
475.305	147
475.774	148
476.242	154
476.711	154
477.18	158
477.648	158
478.117	163
478.586	164
479.055	163
479.524	167
479.993	161
480.462	160
480.93	159
481.399	165
481.869	161
482.338	167
482.807	168
483.276	172
483.745	169
484.214	172
484.684	174
485.153	175
485.622	181
486.092	179
486.561	180
487.031	189
487.5	187
487.97	194
488.439	198
488.909	201
489.378	212
489.848	213
490.318	214
490.787	233
491.257	232
491.727	230
492.197	235
492.667	238
493.137	241
493.607	240
494.077	248
494.547	240
495.017	241
495.487	247
495.957	257
496.427	251
496.897	244
497.368	252
497.838	253
498.308	249
498.779	259
499.249	264
499.719	264
500.19	273
500.66	268
501.131	272
501.602	274
502.072	276
502.543	282
503.014	296
503.484	295
503.955	293
504.426	315
504.897	313
505.368	319
505.838	331
506.309	334
506.78	343
507.251	355
507.722	359
508.194	365
508.665	378
509.136	377
509.607	390
510.078	392
510.549	392
511.021	403
511.492	408
511.964	414
512.435	415
512.906	412
513.378	421
513.849	430
514.321	432
514.793	433
515.264	442
515.736	445
516.208	462
516.679	464
517.151	464
517.623	471
518.095	474
518.567	484
519.038	492
519.51	498
519.982	497
520.454	506
520.927	516
521.399	523
521.871	535
522.343	531
522.815	537
523.287	535
523.76	547
524.232	556
524.704	551
525.177	543
525.649	550
526.122	558
526.594	552
527.067	555
527.539	561
528.012	570
528.484	565
528.957	569
529.43	572
529.903	571
530.375	585
530.848	579
531.321	584
531.794	595
532.267	607
532.74	593
533.213	594
533.686	602
534.159	600
534.632	620
535.105	616
535.578	632
536.051	633
536.525	636
536.998	643
537.471	656
537.945	652
538.418	662
538.891	666
539.365	676
539.838	676
540.312	674
540.786	676
541.259	683
541.733	696
542.206	697
542.68	687
543.154	691
543.628	698
544.101	708
544.575	699
545.049	680
545.523	695
545.997	698
546.471	701
546.945	701
547.419	710
547.893	687
548.367	706
548.842	692
549.316	705
549.79	712
550.264	707
550.739	715
551.213	719
551.687	713
552.162	716
552.636	720
553.111	719
553.585	741
554.06	734
554.534	745
555.009	746
555.484	760
555.958	762
556.433	771
556.908	783
557.383	776
557.858	788
558.333	792
558.807	786
559.282	804
559.757	825
560.232	815
560.708	808
561.183	813
561.658	824
562.133	820
562.608	811
563.083	837
563.559	822
564.034	826
564.509	827
564.985	830
565.46	819
565.936	839
566.411	834
566.887	832
567.362	833
567.838	844
568.313	845
568.789	835
569.265	841
569.74	847
570.216	837
570.692	854
571.168	845
571.644	858
572.12	850
572.596	863
573.071	864
573.547	894
574.024	908
574.5	914
574.976	918
575.452	937
575.928	947
576.404	952
576.881	979
577.357	970
577.833	972
578.31	997
578.786	1007
579.262	1018
579.739	1011
580.215	1045
580.692	1044
581.169	1034
581.645	1041
582.122	1068
582.598	1066
583.075	1064
583.552	1073
584.029	1070
584.506	1066
584.982	1064
585.459	1079
585.936	1068
586.413	1084
586.89	1114
587.367	1098
587.844	1123
588.321	1112
588.799	1112
589.276	1101
589.753	1119
590.23	1133
590.707	1133
591.185	1131
591.662	1146
592.139	1152
592.617	1171
593.094	1170
593.572	1181
594.049	1187
594.527	1197
595.004	1199
595.482	1242
595.96	1237
596.437	1226
596.915	1257
597.393	1243
597.871	1271
598.349	1264
598.826	1279
599.304	1284
599.782	1318
600.26	1305
600.738	1340
601.216	1333
601.694	1346
602.173	1344
602.651	1361
603.129	1352
603.607	1363
604.085	1367
604.564	1378
605.042	1387
605.52	1373
605.999	1409
606.477	1367
606.956	1381
607.434	1400.5
607.913	1420
608.391	1413
608.87	1396
609.348	1383
609.827	1388
610.306	1406
610.785	1406
611.263	1407
611.742	1397
612.221	1382
612.7	1400
613.179	1408
613.658	1400
614.137	1414
614.616	1439
615.095	1420
615.574	1429
616.053	1446
616.532	1436
617.011	1440
617.491	1450
617.97	1447
618.449	1462
618.928	1479
619.408	1476
619.887	1488
620.367	1498
620.846	1515
621.326	1502
621.805	1532
622.285	1540
622.764	1555
623.244	1557
623.724	1562
624.203	1574
624.683	1552
625.163	1579
625.643	1574
626.123	1568
626.602	1605
627.082	1576
627.562	1575
628.042	1609
628.522	1603
629.002	1587
629.482	1593
629.963	1603
630.443	1589
630.923	1590
631.403	1612
631.883	1606
632.364	1611
632.844	1606
633.324	1613
633.805	1604
634.285	1584
634.766	1581
635.246	1585
635.727	1592
636.207	1598
636.688	1591
637.168	1585
637.649	1585
638.13	1581
638.611	1598
639.091	1594
639.572	1585
640.053	1569
640.534	1589
641.015	1587
641.496	1567
641.977	1598
642.458	1581
642.939	1592
643.42	1594
643.901	1599
644.382	1623
644.863	1620
645.345	1612
645.826	1616
646.307	1618
646.788	1645
647.27	1626
647.751	1628
648.233	1639
648.714	1601
649.196	1645
649.677	1633
650.159	1639
650.64	1622
651.122	1651
651.603	1628
652.085	1640
652.567	1659
653.049	1649
653.53	1652
654.012	1679
654.494	1650
654.976	1668
655.458	1670
655.94	1660
656.422	1685
656.904	1655
657.386	1632
657.868	1640
658.35	1628
658.833	1642
659.315	1645
659.797	1625
660.279	1624
660.762	1632
661.244	1612
661.726	1599
662.209	1612
662.691	1616
663.174	1581
663.656	1590
664.139	1603
664.621	1585
665.104	1577
665.587	1596
666.069	1612
666.552	1603
667.035	1585
667.517	1595
668	1615
668.483	1616
668.966	1605
669.449	1603
669.932	1596
670.415	1622
670.898	1613
671.381	1618
671.864	1616
672.347	1588
672.83	1602
673.313	1605
673.797	1605
674.28	1631
674.763	1626
675.247	1636
675.73	1621
676.213	1629
676.697	1651
677.18	1650
677.664	1648
678.147	1654
678.631	1669
679.114	1691
679.598	1694
680.082	1706
680.565	1700
681.049	1695
681.533	1697
682.017	1710
682.5	1705
682.984	1711
683.468	1711
683.952	1688
684.436	1725
684.92	1707
685.404	1723
685.888	1730
686.372	1715
686.856	1719
687.341	1738
687.825	1708
688.309	1718
688.793	1728
689.278	1704
689.762	1727
690.246	1713
690.731	1714
691.215	1724
691.7	1678
692.184	1705
692.669	1697
693.153	1700
693.638	1674
694.122	1675
694.607	1699
695.092	1675
695.577	1694
696.061	1667
696.546	1685
697.031	1675
697.516	1692
698.001	1698
698.486	1692
698.971	1712
699.456	1673
699.941	1667
700.426	1666
700.911	1691
701.396	1684
701.881	1697
702.366	1682
702.852	1679
703.337	1679
703.822	1668
704.308	1673
704.793	1684
705.278	1680
705.764	1684
706.249	1677
706.735	1673
707.22	1695
707.706	1675
708.191	1689
708.677	1694
709.163	1688
709.648	1693
710.134	1719
710.62	1712
711.106	1716
711.592	1730
712.077	1711
712.563	1664
713.049	1673
713.535	1714
714.021	1711
714.507	1703
714.993	1678
715.479	1693
715.966	1684
716.452	1697
716.938	1696
717.424	1639
717.91	1682
718.397	1663
718.883	1648
719.369	1660
719.856	1637
720.342	1657
720.829	1636
721.315	1649
721.802	1629
722.288	1637
722.775	1580
723.262	1541
723.748	1611
724.235	1598
724.722	1619
725.208	1589
725.695	1586
726.182	1582
726.669	1566
727.156	1595
727.643	1579
728.13	1574
728.617	1545
729.104	1556
729.591	1546
730.078	1564
730.565	1559
731.052	1540
731.539	1543
732.027	1541
732.514	1515
733.001	1533
733.488	1524
733.976	1526
734.463	1519
734.951	1510
735.438	1524
735.926	1508
736.413	1522
736.901	1516
737.388	1523
737.876	1512
738.364	1507
738.851	1515
739.339	1522
739.827	1540
740.314	1486
740.802	1498
741.29	1506
741.778	1481
742.266	1482
742.754	1491
743.242	1511
743.73	1485
744.218	1484
744.706	1464
745.194	1488
745.682	1487
746.17	1488
746.659	1485
747.147	1456
747.635	1462
748.123	1456
748.612	1433
749.1	1421
749.589	1421
750.077	1424
750.566	1422
751.054	1430
751.543	1444
752.031	1405
752.52	1402
753.008	1371
753.497	1378
753.986	1379
754.474	1384
754.963	1392
755.452	1363
755.941	1344
756.43	1351
756.919	1340
757.408	1332
757.896	1343
758.385	1345
758.875	1344
759.364	1325
759.853	1317
760.342	1289
760.831	1316
761.32	1304
761.809	1288
762.299	1294
762.788	1299
763.277	1301
763.767	1292
764.256	1293
764.745	1277
765.235	1293
765.724	1259
766.214	1289
766.703	1265
767.193	1247
767.683	1248
768.172	1224
768.662	1232
769.152	1228
769.641	1233
770.131	1191
770.621	1214
771.111	1197
771.601	1197
772.09	1190
772.58	1164
773.07	1169
773.56	1180
774.05	1148
774.54	1145
775.031	1139
775.521	1135
776.011	1131
776.501	1150
776.991	1120
777.482	1125
777.972	1101
778.462	1101
778.953	1111
779.443	1104
779.933	1098
780.424	1101
780.914	1106
781.405	1113
781.895	1113
782.386	1109
782.877	1098
783.367	1076
783.858	1071
784.349	1078
784.839	1064
785.33	1069
785.821	1070
786.312	1067
786.803	1071
787.293	1072
787.784	1055
788.275	1042
788.766	1033
789.257	1054
789.748	1037
790.24	1022
790.731	1022
791.222	1009
791.713	1008
792.204	1005
792.696	977
793.187	982
793.678	975
794.169	946
794.661	965
795.152	947
795.644	932
796.135	941
796.627	938
797.118	925
797.61	910
798.101	900
798.593	910
799.085	896
799.576	905
800.068	899
800.56	905
801.052	884
801.544	882
802.035	879
802.527	868
803.019	861
803.511	854
804.003	849
804.495	855
804.987	849
805.479	839
805.971	838
806.464	842
806.956	823
807.448	819
807.94	819
808.433	817
808.925	813
809.417	806
809.91	801
810.402	786
810.894	793
811.387	800
811.879	790
812.372	795
812.865	787
813.357	780
813.85	779
814.342	765
814.835	767
815.328	762
815.821	757
816.313	753
816.806	753
817.299	740
817.792	750
818.285	736
818.778	749
819.271	743
819.764	736
820.257	741
820.75	738
821.243	739
821.736	730
822.229	738
822.722	729
823.216	740
