Data from lamp5helium_sterk_Subt4__73__528.txt Node

Date: Wed Apr 09 10:18:37 CEST 2025
User: fys-lab-0081
Spectrometer: S04999
Trigger mode: 0
Resolution mode: 1024 pixels
Integration Time (sec): 1.000000E-1
Scans to average: 1
Nonlinearity correction enabled: false
Boxcar width: 0
Baseline correction enabled: true
XAxis mode: Wavelengths
Number of Pixels in Spectrum: 1024
>>>>>Begin Spectral Data<<<<<
336.42	2
336.877	-1
337.334	1
337.792	-3
338.249	2
338.706	3
339.164	4
339.621	-3
340.079	4
340.536	3
340.994	6
341.452	-2
341.909	-1
342.367	-1
342.825	1
343.283	2
343.741	3
344.198	2
344.656	-1
345.114	-3
345.572	2
346.03	2
346.488	6
346.947	-1
347.405	0
347.863	5
348.321	3
348.779	0
349.238	7
349.696	3
350.154	3
350.613	2
351.071	1
351.53	2
351.988	5
352.447	2
352.905	2
353.364	-3
353.823	-1
354.282	4
354.74	-1
355.199	5
355.658	5
356.117	7
356.576	7
357.035	4
357.494	4
357.953	8
358.412	6
358.871	-3
359.33	2
359.789	5
360.249	5
360.708	8
361.167	3
361.626	5
362.086	3
362.545	5
363.005	12
363.464	2
363.924	4
364.383	5
364.843	8
365.303	11
365.762	4
366.222	5
366.682	6
367.142	9
367.601	7
368.061	6
368.521	10
368.981	8
369.441	7
369.901	10
370.361	8
370.821	8
371.282	9
371.742	8
372.202	9
372.662	11
373.123	6
373.583	6
374.043	10
374.504	6
374.964	5
375.425	8
375.885	12
376.346	11
376.806	9
377.267	9
377.728	15
378.188	12
378.649	8
379.11	17
379.571	12
380.032	13
380.493	15
380.954	15
381.414	13
381.876	16
382.337	14
382.798	18
383.259	23
383.72	16
384.181	16
384.642	10
385.104	23
385.565	28
386.026	22
386.488	16
386.949	22
387.411	22
387.872	22
388.334	24
388.795	22
389.257	27
389.719	25
390.181	26
390.642	28
391.104	29
391.566	25
392.028	35
392.49	27
392.952	30
393.414	30
393.876	30
394.338	29
394.8	32
395.262	32
395.724	30
396.186	37
396.648	32
397.111	33
397.573	38
398.035	34
398.498	35
398.96	37
399.423	35
399.885	40
400.348	41
400.81	47
401.273	35
401.736	44
402.198	44
402.661	46
403.124	48
403.587	46
404.049	49
404.512	52
404.975	56
405.438	45
405.901	49
406.364	52
406.827	51
407.29	58
407.754	55
408.217	55
408.68	56
409.143	59
409.607	60
410.07	59
410.533	57
410.997	59
411.46	58
411.924	62
412.387	64
412.851	62
413.314	66
413.778	63
414.242	66
414.705	64
415.169	67
415.633	71
416.097	70
416.561	69
417.024	73
417.488	75
417.952	78
418.416	76
418.88	73
419.344	73
419.809	73
420.273	77
420.737	75
421.201	68
421.665	78
422.13	78
422.594	83
423.059	82
423.523	85
423.987	92
424.452	87
424.916	92
425.381	97
425.846	96
426.31	95
426.775	95
427.24	104
427.704	99
428.169	103
428.634	103
429.099	96
429.564	100
430.029	104
430.494	105
430.959	104
431.424	104
431.889	107
432.354	108
432.819	107
433.284	111
433.75	110
434.215	121
434.68	121
435.146	124
435.611	143
436.077	150
436.542	151
437.008	144
437.473	141
437.939	144
438.404	146
438.87	148
439.336	143
439.801	140
440.267	148
440.733	157
441.199	157
441.665	148
442.131	163
442.596	159
443.062	159
443.529	164
443.995	169
444.461	170
444.927	189
445.393	189
445.859	190
446.325	194
446.792	210
447.258	212
447.724	217
448.191	218
448.657	225
449.124	237
449.59	227
450.057	240
450.523	245
450.99	247
451.457	247
451.923	251
452.39	251
452.857	261
453.324	256
453.791	261
454.257	263
454.724	264
455.191	268
455.658	263
456.125	280
456.592	271
457.059	277
457.527	288
457.994	293
458.461	294
458.928	301
459.396	300
459.863	305
460.33	310
460.798	310
461.265	315
461.732	318
462.2	324
462.668	318
463.135	322
463.603	316
464.07	325
464.538	320
465.006	330
465.474	324
465.941	326
466.409	329
466.877	321
467.345	335
467.813	336
468.281	336
468.749	340
469.217	340
469.685	340
470.153	353
470.621	350
471.09	357
471.558	365
472.026	369
472.494	382
472.963	386
473.431	403
473.9	410
474.368	423
474.837	434
475.305	434
475.774	444
476.242	454
476.711	452
477.18	467
477.648	463
478.117	469
478.586	471
479.055	468
479.524	477
479.993	471
480.462	466
480.93	477
481.399	474
481.869	483
482.338	480
482.807	484
483.276	486
483.745	489
484.214	502
484.684	512
485.153	512
485.622	514
486.092	535
486.561	526
487.031	540
487.5	550
487.97	570
488.439	585
488.909	593
489.378	613
489.848	622
490.318	632
490.787	653
491.257	668
491.727	662
492.197	684
492.667	677
493.137	682
493.607	695
494.077	702
494.547	697
495.017	692
495.487	704
495.957	719
496.427	708
496.897	706
497.368	718
497.838	712
498.308	730
498.779	731
499.249	745
499.719	752
500.19	759
500.66	762
501.131	769
501.602	780
502.072	781
502.543	792
503.014	825
503.484	825
503.955	847
504.426	876
504.897	891
505.368	906
505.838	922
506.309	945
506.78	981
507.251	1000
507.722	1018
508.194	1044
508.665	1053
509.136	1052
509.607	1087
510.078	1100
510.549	1106
511.021	1130
511.492	1144
511.964	1158
512.435	1176
512.906	1168
513.378	1185
513.849	1206
514.321	1207
514.793	1226
515.264	1242
515.736	1250
516.208	1271
516.679	1281
517.151	1296
517.623	1312
518.095	1336
518.567	1352
519.038	1367
519.51	1366
519.982	1391
520.454	1411
520.927	1433
521.399	1451
521.871	1474
522.343	1480
522.815	1491
523.287	1489
523.76	1507
524.232	1536
524.704	1549
525.177	1521
525.649	1536
526.122	1548
526.594	1520
527.067	1561
527.539	1580
528.012	1572
528.484	1568
528.957	1566
529.43	1569
529.903	1558
530.375	1617
530.848	1594
531.321	1609
531.794	1611
532.267	1651
532.74	1630
533.213	1629
533.686	1664
534.159	1651
534.632	1697
535.105	1710
535.578	1742
536.051	1745
536.525	1754
536.998	1769
537.471	1803
537.945	1784
538.418	1819
538.891	1827
539.365	1847
539.838	1869
540.312	1864
540.786	1889
541.259	1881
541.733	1910
542.206	1922
542.68	1893
543.154	1891
543.628	1904
544.101	1955
544.575	1931
545.049	1880
545.523	1929
545.997	1941
546.471	1960
546.945	1917
547.419	1946
547.893	1883
548.367	1922
548.842	1909
549.316	1909
549.79	1927
550.264	1906
550.739	1941
551.213	1932
551.687	1932
552.162	1960
552.636	1948
553.111	1936
553.585	1993
554.06	1974
554.534	1998
555.009	1990
555.484	2028
555.958	2058
556.433	2066
556.908	2094
557.383	2070
557.858	2126
558.333	2130
558.807	2119
559.282	2136
559.757	2198
560.232	2218
560.708	2186
561.183	2163
561.658	2201
562.133	2201
562.608	2182
563.083	2234
563.559	2183
564.034	2203
564.509	2196
564.985	2207
565.46	2184
565.936	2238
566.411	2244
566.887	2218
567.362	2230
567.838	2237
568.313	2261
568.789	2228
569.265	2219
569.74	2250
570.216	2237
570.692	2276
571.168	2268
571.644	2259
572.12	2256
572.596	2290
573.071	2301
573.547	2369
574.024	2399
574.5	2433
574.976	2437
575.452	2474
575.928	2489
576.404	2511
576.881	2606
577.357	2554
577.833	2565
578.31	2639
578.786	2681
579.262	2727
579.739	2690
580.215	2761
580.692	2743
581.169	2732
581.645	2740
582.122	2822
582.598	2821
583.075	2821
583.552	2860
584.029	2842
584.506	2825
584.982	2790
585.459	2850
585.936	2833
586.413	2860
586.89	2912
587.367	2888
587.844	2962
588.321	2948
588.799	2939
589.276	2901
589.753	2943
590.23	2973
590.707	2962
591.185	2953
591.662	2968
592.139	3020
592.617	3066
593.094	3050
593.572	3065
594.049	3104
594.527	3134
595.004	3160
595.482	3237
595.96	3209
596.437	3226
596.915	3305
597.393	3245
597.871	3324
598.349	3287
598.826	3362
599.304	3359
599.782	3429
600.26	3400
600.738	3477
601.216	3490
601.694	3516
602.173	3541
602.651	3537
603.129	3475
603.607	3517
604.085	3534
604.564	3530
605.042	3536
605.52	3522
605.999	3612
606.477	3532
606.956	3558
607.434	3598
607.913	3638
608.391	3626
608.87	3599
609.348	3564
609.827	3599
610.306	3644
610.785	3687
611.263	3707
611.742	3670
612.221	3607
612.7	3636
613.179	3655
613.658	3616
614.137	3674
614.616	3696
615.095	3621
615.574	3688
616.053	3731
616.532	3698
617.011	3706
617.491	3722
617.97	3725
618.449	3787
618.928	3816
619.408	3783
619.887	3821
620.367	3842
620.846	3903
621.326	3872
621.805	3963
622.285	3943
622.764	3977
623.244	3996
623.724	4031
624.203	4051
624.683	3978
625.163	4049
625.643	4053
626.123	4024
626.602	4130
627.082	4050
627.562	4044
628.042	4139
628.522	4093
629.002	4049
629.482	4066
629.963	4066
630.443	4042
630.923	4060
631.403	4091
631.883	4084
632.364	4079
632.844	4054
633.324	4095
633.805	4104
634.285	4055
634.766	4037
635.246	4035
635.727	4037
636.207	4053
636.688	4064
637.168	4071
637.649	4044
638.13	4027
638.611	4057
639.091	4060
639.572	4012
640.053	4006
640.534	4042
641.015	4027
641.496	3978
641.977	4059
642.458	4015
642.939	4045
643.42	4062
643.901	4059
644.382	4108
644.863	4105
645.345	4100
645.826	4104
646.307	4121
646.788	4182
647.27	4118
647.751	4108
648.233	4139
648.714	4053
649.196	4181
649.677	4178
650.159	4175
650.64	4115
651.122	4189
651.603	4149
652.085	4186
652.567	4202
653.049	4159
653.53	4156
654.012	4209
654.494	4144
654.976	4191
655.458	4170
655.94	4173
656.422	4241
656.904	4181
657.386	4146
657.868	4145
658.35	4125
658.833	4160
659.315	4182
659.797	4119
660.279	4129
660.762	4151
661.244	4112
661.726	4054
662.209	4064
662.691	4064
663.174	3998
663.656	4025
664.139	4024
664.621	3979
665.104	3949
665.587	4019
666.069	4044
666.552	4068
667.035	4016
667.517	4019
668	4063
668.483	4054
668.966	4021
669.449	4005
669.932	4015
670.415	4041
670.898	4009
671.381	4031
671.864	4061
672.347	4027
672.83	4019
673.313	4018
673.797	3995
674.28	4087
674.763	4128
675.247	4164
675.73	4131
676.213	4151
676.697	4172
677.18	4169
677.664	4195
678.147	4188
678.631	4211
679.114	4230
679.598	4226
680.082	4268
680.565	4278
681.049	4255
681.533	4254
682.017	4275
682.5	4253
682.984	4279
683.468	4275
683.952	4204
684.436	4293
684.92	4255
685.404	4290
685.888	4322
686.372	4304
686.856	4329
687.341	4381
687.825	4315
688.309	4320
688.793	4310
689.278	4250
689.762	4297
690.246	4275
690.731	4295
691.215	4305
691.7	4202
692.184	4250
692.669	4231
693.153	4268
693.638	4215
694.122	4196
694.607	4223
695.092	4168
695.577	4204
696.061	4123
696.546	4133
697.031	4123
697.516	4156
698.001	4163
698.486	4145
698.971	4224
699.456	4141
699.941	4125
700.426	4123
700.911	4168
701.396	4154
701.881	4200
702.366	4194
702.852	4176
703.337	4193
703.822	4163
704.308	4167
704.793	4203
705.278	4214
705.764	4234
706.249	4205
706.735	4159
707.22	4194
707.706	4116
708.191	4208
708.677	4235
709.163	4196
709.648	4227
710.134	4278
710.62	4230
711.106	4246
711.592	4307
712.077	4291
712.563	4174
713.049	4149
713.535	4229
714.021	4216
714.507	4210
714.993	4184
715.479	4229
715.966	4176
716.452	4180
716.938	4180
717.424	4072
717.91	4140
718.397	4121
718.883	4107
719.369	4135
719.856	4079
720.342	4135
720.829	4083
721.315	4099
721.802	4075
722.288	4103
722.775	3931
723.262	3820
723.748	3989
724.235	3980
724.722	4060
725.208	3999
725.695	3997
726.182	3972
726.669	3907
727.156	3905
727.643	3862
728.13	3845
728.617	3807
729.104	3814
729.591	3796
730.078	3822
730.565	3849
731.052	3796
731.539	3804
732.027	3784
732.514	3721
733.001	3759
733.488	3748
733.976	3720
734.463	3728
734.951	3707
735.438	3762
735.926	3727
736.413	3765
736.901	3737
737.388	3787
737.876	3786
738.364	3757
738.851	3757
739.339	3748
739.827	3785
740.314	3673
740.802	3710
741.29	3722
741.778	3666
742.266	3677
742.754	3693
743.242	3726
743.73	3631
744.218	3621
744.706	3578
745.194	3612
745.682	3583
746.17	3595
746.659	3621
747.147	3538
747.635	3558
748.123	3543
748.612	3507
749.1	3495
749.589	3547
750.077	3512
750.566	3491
751.054	3505
751.543	3514
752.031	3456
752.52	3442
753.008	3374
753.497	3374
753.986	3368
754.474	3343
754.963	3390
755.452	3343
755.941	3333
756.43	3327
756.919	3322
757.408	3307
757.896	3325
758.385	3326
758.875	3284
759.364	3244
759.853	3214
760.342	3147
760.831	3215
761.32	3183
761.809	3125
762.299	3147
762.788	3168
763.277	3152
763.767	3110
764.256	3104
764.745	3054
765.235	3090
765.724	2996
766.214	3043
766.703	3031
767.193	2996
767.683	3010
768.172	2952
768.662	2984
769.152	2962
769.641	2969
770.131	2899
770.621	2943
771.111	2894
771.601	2872
772.09	2848
772.58	2812
773.07	2826
773.56	2864
774.05	2822
774.54	2825
775.031	2824
775.521	2791
776.011	2772
776.501	2793
776.991	2736
777.482	2762
777.972	2690
778.462	2687
778.953	2705
779.443	2699
779.933	2685
780.424	2663
780.914	2684
781.405	2693
781.895	2667
782.386	2661
782.877	2646
783.367	2592
783.858	2571
784.349	2560
784.839	2543
785.33	2545
785.821	2544
786.312	2529
786.803	2536
787.293	2551
787.784	2505
788.275	2462
788.766	2433
789.257	2475
789.748	2416
790.24	2403
790.731	2418
791.222	2379
791.713	2366
792.204	2376
792.696	2312
793.187	2339
793.678	2319
794.169	2252
794.661	2285
795.152	2260
795.644	2238
796.135	2234
796.627	2256
797.118	2217
797.61	2206
798.101	2180
798.593	2199
799.085	2176
799.576	2187
800.068	2142
800.56	2135
801.052	2084
801.544	2085
802.035	2096
802.527	2058
803.019	2041
803.511	2023
804.003	2008
804.495	2017
804.987	1991
805.479	1947
805.971	1976
806.464	1976
806.956	1924
807.448	1925
807.94	1920
808.433	1913
808.925	1906
809.417	1878
809.91	1874
810.402	1812
810.894	1821
811.387	1845
811.879	1809
812.372	1831
812.865	1796
813.357	1802
813.85	1782
814.342	1780
814.835	1782
815.328	1776
815.821	1749
816.313	1745
816.806	1740
817.299	1723
817.792	1726
818.285	1703
818.778	1725
819.271	1729
819.764	1705
820.257	1715
820.75	1722
821.243	1719
821.736	1698
822.229	1714
822.722	1710
823.216	1746
