Data from lamp5helium_sterk_Subt4__27__482.txt Node

Date: Wed Apr 09 10:18:31 CEST 2025
User: fys-lab-0081
Spectrometer: S04999
Trigger mode: 0
Resolution mode: 1024 pixels
Integration Time (sec): 1.000000E-1
Scans to average: 1
Nonlinearity correction enabled: false
Boxcar width: 0
Baseline correction enabled: true
XAxis mode: Wavelengths
Number of Pixels in Spectrum: 1024
>>>>>Begin Spectral Data<<<<<
336.42	0
336.877	-1
337.334	0
337.792	-3
338.249	6
338.706	2
339.164	-2
339.621	-3
340.079	4
340.536	10
340.994	9
341.452	-3
341.909	3
342.367	-1
342.825	1
343.283	0
343.741	3
344.198	-2
344.656	0
345.114	1
345.572	0
346.03	5
346.488	6
346.947	1
347.405	0
347.863	0
348.321	6
348.779	1
349.238	1
349.696	5
350.154	4
350.613	4
351.071	5
351.53	9
351.988	3
352.447	1
352.905	0
353.364	0
353.823	-1
354.282	7
354.74	1
355.199	3
355.658	8
356.117	2
356.576	7
357.035	3
357.494	7
357.953	9
358.412	5
358.871	0
359.33	-2
359.789	6
360.249	4
360.708	5
361.167	4
361.626	8
362.086	6
362.545	6
363.005	10
363.464	3
363.924	6
364.383	10
364.843	4
365.303	6
365.762	2
366.222	-1
366.682	8
367.142	12
367.601	10
368.061	7
368.521	9
368.981	8
369.441	13
369.901	11
370.361	6
370.821	8
371.282	11
371.742	8
372.202	10
372.662	11
373.123	9
373.583	8
374.043	6
374.504	7
374.964	6
375.425	8
375.885	11
376.346	15
376.806	7
377.267	12
377.728	15
378.188	15
378.649	13
379.11	14
379.571	12
380.032	10
380.493	9
380.954	12
381.414	14
381.876	16
382.337	17
382.798	14
383.259	21
383.72	18
384.181	17
384.642	16
385.104	22
385.565	25
386.026	17
386.488	23
386.949	21
387.411	21
387.872	22
388.334	21
388.795	23
389.257	30
389.719	30
390.181	21
390.642	28
391.104	26
391.566	26
392.028	36
392.49	28
392.952	33
393.414	32
393.876	32
394.338	34
394.8	29
395.262	33
395.724	33
396.186	37
396.648	38
397.111	37
397.573	36
398.035	37
398.498	38
398.96	32
399.423	39
399.885	39
400.348	43
400.81	49
401.273	43
401.736	41
402.198	46
402.661	46
403.124	47
403.587	49
404.049	51
404.512	53
404.975	52
405.438	54
405.901	56
406.364	53
406.827	54
407.29	59
407.754	52
408.217	58
408.68	56
409.143	57
409.607	61
410.07	57
410.533	53
410.997	61
411.46	57
411.924	61
412.387	58
412.851	67
413.314	63
413.778	66
414.242	65
414.705	68
415.169	70
415.633	69
416.097	69
416.561	68
417.024	78
417.488	78
417.952	71
418.416	78
418.88	74
419.344	76
419.809	76
420.273	78
420.737	76
421.201	71
421.665	78
422.13	80
422.594	84
423.059	89
423.523	82
423.987	89
424.452	89
424.916	93
425.381	93
425.846	95
426.31	96
426.775	97
427.24	103
427.704	98
428.169	103
428.634	101
429.099	98
429.564	100
430.029	106
430.494	106
430.959	107
431.424	106
431.889	103
432.354	107
432.819	110
433.284	108
433.75	116
434.215	117
434.68	125
435.146	126
435.611	142
436.077	151
436.542	148
437.008	141
437.473	142
437.939	144
438.404	146
438.87	151
439.336	145
439.801	142
440.267	148
440.733	159
441.199	160
441.665	151
442.131	160
442.596	159
443.062	155
443.529	168
443.995	172
444.461	173
444.927	187
445.393	185
445.859	195
446.325	202
446.792	212
447.258	215
447.724	216
448.191	222
448.657	223
449.124	233
449.59	229
450.057	247
450.523	243
450.99	246
451.457	252
451.923	256
452.39	254
452.857	259
453.324	255
453.791	263
454.257	268
454.724	268
455.191	273
455.658	266
456.125	283
456.592	276
457.059	283
457.527	286
457.994	297
458.461	298
458.928	303
459.396	302
459.863	312
460.33	309
460.798	309
461.265	314
461.732	320
462.2	327
462.668	323
463.135	331
463.603	315
464.07	325
464.538	322
465.006	336
465.474	327
465.941	330
466.409	332
466.877	323
467.345	341
467.813	336
468.281	338
468.749	338
469.217	344
469.685	347
470.153	356
470.621	355
471.09	358
471.558	371
472.026	374
472.494	383
472.963	391
473.431	406
473.9	413
474.368	423
474.837	431
475.305	433
475.774	450
476.242	458
476.711	461
477.18	469
477.648	473
478.117	473
478.586	471
479.055	469
479.524	478
479.993	476
480.462	474
480.93	476
481.399	475
481.869	484
482.338	483
482.807	492
483.276	489
483.745	494
484.214	504
484.684	515
485.153	518
485.622	514
486.092	540
486.561	534
487.031	542
487.5	558
487.97	573
488.439	583
488.909	603
489.378	618
489.848	618
490.318	638
490.787	653
491.257	672
491.727	673
492.197	689
492.667	683
493.137	688
493.607	699
494.077	707
494.547	697
495.017	700
495.487	709
495.957	729
496.427	710
496.897	715
497.368	724
497.838	721
498.308	727
498.779	739
499.249	754
499.719	757
500.19	764
500.66	770
501.131	771
501.602	787
502.072	785
502.543	798
503.014	830
503.484	824
503.955	853
504.426	893
504.897	899
505.368	916
505.838	934
506.309	956
506.78	981
507.251	1008
507.722	1022
508.194	1051
508.665	1061
509.136	1059
509.607	1101
510.078	1107
510.549	1118
511.021	1141
511.492	1149
511.964	1169
512.435	1186
512.906	1176
513.378	1188
513.849	1213
514.321	1225
514.793	1235
515.264	1253
515.736	1265
516.208	1286
516.679	1288
517.151	1305
517.623	1321
518.095	1342
518.567	1362
519.038	1380
519.51	1372
519.982	1409
520.454	1419
520.927	1444
521.399	1468
521.871	1485
522.343	1488
522.815	1505
523.287	1496
523.76	1515
524.232	1549
524.704	1557
525.177	1531
525.649	1545
526.122	1564
526.594	1534
527.067	1578
527.539	1591
528.012	1581
528.484	1577
528.957	1579
529.43	1578
529.903	1572
530.375	1630
530.848	1607
531.321	1632
531.794	1622
532.267	1662
532.74	1639
533.213	1642
533.686	1678
534.159	1665
534.632	1707
535.105	1720
535.578	1757
536.051	1768
536.525	1777
536.998	1771
537.471	1812
537.945	1792
538.418	1827
538.891	1845
539.365	1858
539.838	1874
540.312	1884
540.786	1909
541.259	1900
541.733	1919
542.206	1931
542.68	1905
543.154	1909
543.628	1911
544.101	1966
544.575	1951
545.049	1903
545.523	1934
545.997	1941
546.471	1972
546.945	1941
547.419	1963
547.893	1891
548.367	1934
548.842	1919
549.316	1921
549.79	1937
550.264	1921
550.739	1951
551.213	1949
551.687	1947
552.162	1970
552.636	1950
553.111	1945
553.585	2007
554.06	1979
554.534	2016
555.009	2003
555.484	2042
555.958	2070
556.433	2081
556.908	2102
557.383	2084
557.858	2148
558.333	2151
558.807	2138
559.282	2150
559.757	2218
560.232	2236
560.708	2199
561.183	2185
561.658	2213
562.133	2217
562.608	2200
563.083	2256
563.559	2195
564.034	2218
564.509	2218
564.985	2227
565.46	2207
565.936	2254
566.411	2253
566.887	2228
567.362	2243
567.838	2253
568.313	2278
568.789	2247
569.265	2239
569.74	2259
570.216	2245
570.692	2299
571.168	2290
571.644	2281
572.12	2271
572.596	2303
573.071	2320
573.547	2383
574.024	2413
574.5	2442
574.976	2466
575.452	2498
575.928	2514
576.404	2523
576.881	2620
577.357	2578
577.833	2587
578.31	2661
578.786	2698
579.262	2749
579.739	2706
580.215	2775
580.692	2756
581.169	2760
581.645	2757
582.122	2844
582.598	2841
583.075	2840
583.552	2866
584.029	2861
584.506	2842
584.982	2824
585.459	2864
585.936	2852
586.413	2885
586.89	2933
587.367	2905
587.844	2985
588.321	2958
588.799	2958
589.276	2924
589.753	2969
590.23	2985
590.707	2989
591.185	2981
591.662	2991
592.139	3033
592.617	3086
593.094	3077
593.572	3084
594.049	3125
594.527	3153
595.004	3188
595.482	3257
595.96	3232
596.437	3242
596.915	3335
597.393	3274
597.871	3345
598.349	3307
598.826	3381
599.304	3382
599.782	3450
600.26	3416
600.738	3517
601.216	3503
601.694	3544
602.173	3566
602.651	3560
603.129	3496
603.607	3544
604.085	3557
604.564	3552
605.042	3565
605.52	3544
605.999	3647
606.477	3565
606.956	3573
607.434	3614.5
607.913	3656
608.391	3644
608.87	3623
609.348	3588
609.827	3622
610.306	3667
610.785	3714
611.263	3733
611.742	3689
612.221	3624
612.7	3666
613.179	3677
613.658	3637
614.137	3695
614.616	3711
615.095	3643
615.574	3713
616.053	3753
616.532	3722
617.011	3726
617.491	3738
617.97	3745
618.449	3812
618.928	3837
619.408	3807
619.887	3851
620.367	3877
620.846	3932
621.326	3901
621.805	3987
622.285	3968
622.764	4004
623.244	4013
623.724	4056
624.203	4082
624.683	4008
625.163	4085
625.643	4079
626.123	4050
626.602	4155
627.082	4080
627.562	4069
628.042	4162
628.522	4120
629.002	4084
629.482	4099
629.963	4087
630.443	4065
630.923	4098
631.403	4119
631.883	4111
632.364	4123
632.844	4083
633.324	4117
633.805	4138
634.285	4091
634.766	4065
635.246	4074
635.727	4063
636.207	4076
636.688	4096
637.168	4097
637.649	4065
638.13	4049
638.611	4079
639.091	4073
639.572	4051
640.053	4035
640.534	4071
641.015	4055
641.496	4011
641.977	4081
642.458	4053
642.939	4077
643.42	4085
643.901	4087
644.382	4138
644.863	4124
645.345	4135
645.826	4125
646.307	4136
646.788	4211
647.27	4135
647.751	4141
648.233	4160
648.714	4074
649.196	4204
649.677	4205
650.159	4192
650.64	4141
651.122	4210
651.603	4160
652.085	4213
652.567	4236
653.049	4186
653.53	4187
654.012	4239
654.494	4169
654.976	4206
655.458	4193
655.94	4191
656.422	4270
656.904	4217
657.386	4170
657.868	4174
658.35	4154
658.833	4186
659.315	4204
659.797	4157
660.279	4151
660.762	4192
661.244	4145
661.726	4074
662.209	4084
662.691	4084
663.174	4023
663.656	4052
664.139	4054
664.621	4012
665.104	3978
665.587	4035
666.069	4070
666.552	4088
667.035	4044
667.517	4041
668	4089
668.483	4072
668.966	4046
669.449	4034
669.932	4039
670.415	4069
670.898	4030
671.381	4060
671.864	4080
672.347	4047
672.83	4047
673.313	4040
673.797	4026
674.28	4112
674.763	4154
675.247	4186
675.73	4164
676.213	4177
676.697	4191
677.18	4202
677.664	4220
678.147	4222
678.631	4241
679.114	4259
679.598	4248
680.082	4295
680.565	4299
681.049	4282
681.533	4280
682.017	4293
682.5	4280
682.984	4307
683.468	4305
683.952	4233
684.436	4321
684.92	4287
685.404	4312
685.888	4350
686.372	4326
686.856	4363
687.341	4405
687.825	4336
688.309	4345
688.793	4331
689.278	4274
689.762	4323
690.246	4304
690.731	4314
691.215	4337
691.7	4204
692.184	4275
692.669	4264
693.153	4297
693.638	4245
694.122	4228
694.607	4250
695.092	4192
695.577	4237
696.061	4151
696.546	4163
697.031	4151
697.516	4181
698.001	4187
698.486	4175
698.971	4244
699.456	4163
699.941	4156
700.426	4156
700.911	4200
701.396	4175
701.881	4220
702.366	4212
702.852	4203
703.337	4212
703.822	4199
704.308	4198
704.793	4228
705.278	4238
705.764	4261
706.249	4223
706.735	4192
707.22	4216
707.706	4151
708.191	4241
708.677	4259
709.163	4227
709.648	4245
710.134	4310
710.62	4258
711.106	4276
711.592	4340
712.077	4313
712.563	4186
713.049	4178
713.535	4262
714.021	4242
714.507	4236
714.993	4206
715.479	4256
715.966	4204
716.452	4200
716.938	4199
717.424	4085
717.91	4161
718.397	4145
718.883	4128
719.369	4153
719.856	4114
720.342	4153
720.829	4107
721.315	4123
721.802	4090
722.288	4119
722.775	3959
723.262	3844
723.748	4015
724.235	4010
724.722	4083
725.208	4025
725.695	4024
726.182	3998
726.669	3926
727.156	3934
727.643	3883
728.13	3877
728.617	3839
729.104	3835
729.591	3813
730.078	3858
730.565	3873
731.052	3816
731.539	3833
732.027	3811
732.514	3749
733.001	3785
733.488	3762
733.976	3763
734.463	3745
734.951	3729
735.438	3774
735.926	3753
736.413	3786
736.901	3764
737.388	3808
737.876	3805
738.364	3774
738.851	3789
739.339	3774
739.827	3807
740.314	3696
740.802	3734
741.29	3748
741.778	3686
742.266	3696
742.754	3709
743.242	3731
743.73	3650
744.218	3640
744.706	3603
745.194	3620
745.682	3599
746.17	3621
746.659	3647
747.147	3555
747.635	3576
748.123	3573
748.612	3531
749.1	3530
749.589	3560
750.077	3538
750.566	3505
751.054	3527
751.543	3532
752.031	3480
752.52	3461
753.008	3390
753.497	3404
753.986	3383
754.474	3372
754.963	3407
755.452	3363
755.941	3351
756.43	3344
756.919	3343
757.408	3322
757.896	3341
758.385	3350
758.875	3305
759.364	3265
759.853	3233
760.342	3171
760.831	3231
761.32	3197
761.809	3142
762.299	3167
762.788	3176
763.277	3165
763.767	3123
764.256	3130
764.745	3074
765.235	3106
765.724	3014
766.214	3067
766.703	3042
767.193	3016
767.683	3022
768.172	2979
768.662	3003
769.152	2977
769.641	2984
770.131	2907
770.621	2957
771.111	2903
771.601	2900
772.09	2864
772.58	2822
773.07	2843
773.56	2872
774.05	2847
774.54	2848
775.031	2830
775.521	2817
776.011	2787
776.501	2796
776.991	2748
777.482	2771
777.972	2706
778.462	2702
778.953	2727
779.443	2709
779.933	2705
780.424	2673
780.914	2693
781.405	2714
781.895	2684
782.386	2674
782.877	2662
783.367	2611
783.858	2583
784.349	2581
784.839	2554
785.33	2552
785.821	2557
786.312	2545
786.803	2552
787.293	2563
787.784	2514
788.275	2471
788.766	2444
789.257	2489
789.748	2437
790.24	2412
790.731	2431
791.222	2395
791.713	2379
792.204	2387
792.696	2334
793.187	2352
793.678	2333
794.169	2266
794.661	2301
795.152	2263
795.644	2249
796.135	2248
796.627	2266
797.118	2227
797.61	2212
798.101	2195
798.593	2215
799.085	2184
799.576	2191
800.068	2147
800.56	2151
801.052	2091
801.544	2093
802.035	2108
802.527	2065
803.019	2047
803.511	2028
804.003	2022
804.495	2031
804.987	2001
805.479	1954
805.971	1980
806.464	1980
806.956	1936
807.448	1940
807.94	1942
808.433	1922
808.925	1914
809.417	1893
809.91	1884
810.402	1821
810.894	1831
811.387	1845
811.879	1826
812.372	1841
812.865	1812
813.357	1804
813.85	1797
814.342	1791
814.835	1792
815.328	1782
815.821	1749
816.313	1744
816.806	1759
817.299	1725
817.792	1732
818.285	1715
818.778	1735
819.271	1737
819.764	1712
820.257	1726
820.75	1727
821.243	1730
821.736	1709
822.229	1726
822.722	1720
823.216	1750
