Data from lamp5helium_sterk_Subt2__99__99.txt Node

Date: Wed Apr 09 11:04:46 CEST 2025
User: fys-lab-0081
Spectrometer: S04999
Trigger mode: 0
Resolution mode: 1024 pixels
Integration Time (sec): 1.000000E-1
Scans to average: 1
Nonlinearity correction enabled: false
Boxcar width: 0
Baseline correction enabled: true
XAxis mode: Wavelengths
Number of Pixels in Spectrum: 1024
>>>>>Begin Spectral Data<<<<<
336.42	-1
336.877	5
337.334	2
337.792	2
338.249	1
338.706	0
339.164	-1
339.621	3
340.079	5
340.536	0
340.994	3
341.452	1
341.909	6
342.367	0
342.825	-2
343.283	4
343.741	-4
344.198	0
344.656	1
345.114	-1
345.572	4
346.03	-2
346.488	1
346.947	0
347.405	0
347.863	2
348.321	-4
348.779	3
349.238	-1
349.696	0
350.154	-2
350.613	1
351.071	5
351.53	4
351.988	3
352.447	-1
352.905	2
353.364	-2
353.823	3
354.282	-3
354.74	-4
355.199	3
355.658	3
356.117	-5
356.576	7
357.035	1
357.494	-1
357.953	0
358.412	5
358.871	-1
359.33	3
359.789	-1
360.249	0
360.708	3
361.167	1
361.626	1
362.086	-1
362.545	3
363.005	1
363.464	-1
363.924	3
364.383	-2
364.843	-1
365.303	5
365.762	3
366.222	2
366.682	1
367.142	4
367.601	0
368.061	-3
368.521	0
368.981	-1
369.441	7
369.901	3
370.361	-1
370.821	4
371.282	-1
371.742	6
372.202	0
372.662	4
373.123	-2
373.583	2
374.043	5
374.504	-3
374.964	3
375.425	2
375.885	3
376.346	4
376.806	6
377.267	4
377.728	3
378.188	4
378.649	0
379.11	5
379.571	-3
380.032	4
380.493	0
380.954	7
381.414	5
381.876	4
382.337	-2
382.798	4
383.259	5
383.72	5
384.181	1
384.642	3
385.104	0
385.565	8
386.026	7
386.488	4
386.949	12
387.411	5
387.872	10
388.334	8
388.795	4
389.257	10
389.719	8
390.181	8
390.642	6
391.104	6
391.566	7
392.028	11
392.49	15
392.952	9
393.414	9
393.876	11
394.338	7
394.8	7
395.262	3
395.724	10
396.186	9
396.648	10
397.111	7
397.573	13
398.035	10
398.498	11
398.96	11
399.423	9
399.885	9
400.348	15
400.81	12
401.273	7
401.736	6
402.198	15
402.661	13
403.124	6
403.587	17
404.049	14
404.512	11
404.975	10
405.438	13
405.901	14
406.364	19
406.827	13
407.29	10
407.754	14
408.217	17
408.68	13
409.143	17
409.607	23
410.07	19
410.533	10
410.997	18
411.46	14
411.924	20
412.387	24
412.851	15
413.314	14
413.778	16
414.242	18
414.705	22
415.169	23
415.633	15
416.097	18
416.561	20
417.024	20
417.488	25
417.952	22
418.416	19
418.88	18
419.344	15
419.809	18
420.273	21
420.737	19
421.201	25
421.665	24
422.13	23
422.594	27
423.059	23
423.523	28
423.987	22
424.452	27
424.916	27
425.381	26
425.846	23
426.31	32
426.775	28
427.24	27
427.704	31
428.169	31
428.634	31
429.099	30
429.564	31
430.029	31
430.494	34
430.959	25
431.424	29
431.889	39
432.354	33
432.819	32
433.284	34
433.75	34
434.215	40
434.68	32
435.146	31
435.611	36
436.077	41
436.542	36
437.008	44
437.473	39
437.939	42
438.404	42
438.87	47
439.336	45
439.801	43
440.267	45
440.733	50
441.199	45
441.665	50
442.131	49
442.596	45
443.062	48
443.529	52
443.995	54
444.461	54
444.927	58
445.393	52
445.859	56
446.325	60
446.792	62
447.258	64
447.724	67
448.191	69
448.657	66
449.124	66
449.59	64
450.057	73
450.523	74
450.99	74
451.457	76
451.923	77
452.39	81
452.857	81
453.324	74
453.791	79
454.257	84
454.724	83
455.191	75
455.658	79
456.125	83
456.592	80
457.059	87
457.527	84
457.994	93
458.461	93
458.928	97
459.396	85
459.863	94
460.33	91
460.798	96
461.265	97
461.732	95
462.2	96
462.668	101
463.135	100
463.603	92
464.07	105
464.538	101
465.006	100
465.474	99
465.941	101
466.409	98
466.877	96
467.345	101
467.813	94
468.281	108
468.749	107
469.217	105
469.685	110
470.153	112
470.621	113
471.09	110
471.558	114
472.026	120
472.494	121
472.963	119
473.431	125
473.9	127
474.368	135
474.837	132
475.305	133
475.774	133
476.242	142
476.711	138
477.18	149
477.648	141
478.117	148
478.586	147
479.055	142
479.524	149
479.993	149
480.462	146
480.93	149
481.399	148
481.869	148
482.338	150
482.807	153
483.276	152
483.745	153
484.214	153
484.684	162
485.153	162
485.622	165
486.092	160
486.561	162
487.031	171
487.5	173
487.97	176
488.439	182
488.909	187
489.378	192
489.848	192
490.318	194
490.787	210
491.257	210
491.727	209
492.197	214
492.667	216
493.137	215
493.607	215
494.077	225
494.547	218
495.017	217
495.487	227
495.957	232
496.427	229
496.897	227
497.368	232
497.838	224
498.308	229
498.779	234
499.249	238
499.719	237
500.19	247
500.66	246
501.131	249
501.602	251
502.072	246
502.543	261
503.014	268
503.484	269
503.955	272
504.426	282
504.897	287
505.368	288
505.838	298
506.309	302
506.78	314
507.251	320
507.722	328
508.194	336
508.665	346
509.136	338
509.607	354
510.078	356
510.549	364
511.021	371
511.492	368
511.964	378
512.435	384
512.906	376
513.378	384
513.849	388
514.321	388
514.793	398
515.264	407
515.736	410
516.208	417
516.679	420
517.151	421
517.623	429
518.095	438
518.567	443
519.038	455
519.51	451
519.982	457
520.454	458
520.927	472
521.399	475
521.871	485
522.343	482
522.815	488
523.287	490
523.76	495
524.232	502
524.704	500
525.177	498
525.649	501
526.122	509
526.594	497
527.067	510
527.539	518
528.012	517
528.484	518
528.957	521
529.43	526
529.903	524
530.375	536
530.848	531
531.321	538
531.794	550
532.267	554
532.74	542
533.213	543
533.686	556
534.159	550
534.632	567
535.105	565
535.578	584
536.051	584
536.525	585
536.998	590
537.471	599
537.945	597
538.418	603
538.891	608
539.365	613
539.838	618
540.312	619
540.786	621
541.259	626
541.733	643
542.206	646
542.68	632
543.154	633
543.628	644
544.101	650
544.575	637
545.049	627
545.523	637
545.997	638
546.471	645
546.945	639
547.419	654
547.893	632
548.367	646
548.842	639
549.316	642
549.79	646
550.264	652
550.739	651
551.213	657
551.687	656
552.162	659
552.636	656
553.111	661
553.585	683
554.06	678
554.534	680
555.009	680
555.484	694
555.958	708
556.433	702
556.908	716
557.383	710
557.858	729
558.333	732
558.807	731
559.282	735
559.757	759
560.232	752
560.708	742
561.183	748
561.658	757
562.133	748
562.608	744
563.083	772
563.559	760
564.034	758
564.509	760
564.985	766
565.46	759
565.936	773
566.411	766
566.887	758
567.362	773
567.838	776
568.313	775
568.789	772
569.265	770
569.74	776
570.216	764
570.692	788
571.168	779
571.644	791
572.12	785
572.596	788
573.071	798
573.547	821
574.024	836
574.5	836
574.976	845
575.452	862
575.928	870
576.404	879
576.881	901
577.357	885
577.833	898
578.31	919
578.786	925
579.262	934
579.739	930
580.215	964
580.692	968
581.169	951
581.645	955
582.122	987
582.598	985
583.075	987
583.552	990
584.029	982
584.506	986
584.982	979
585.459	1000
585.936	986
586.413	1003
586.89	1026
587.367	1017
587.844	1032
588.321	1024
588.799	1025
589.276	1017
589.753	1033
590.23	1046
590.707	1047
591.185	1047
591.662	1055
592.139	1068
592.617	1081
593.094	1078
593.572	1085
594.049	1096
594.527	1100
595.004	1110
595.482	1142
595.96	1132
596.437	1133
596.915	1160
597.393	1149
597.871	1173
598.349	1160
598.826	1188
599.304	1190
599.782	1215
600.26	1210
600.738	1234
601.216	1232
601.694	1241
602.173	1248
602.651	1260
603.129	1253
603.607	1265
604.085	1263
604.564	1274
605.042	1277
605.52	1270
605.999	1300
606.477	1265
606.956	1274
607.434	1294
607.913	1314
608.391	1305
608.87	1295
609.348	1273
609.827	1285
610.306	1299
610.785	1302
611.263	1294
611.742	1294
612.221	1280
612.7	1302
613.179	1304
613.658	1293
614.137	1312
614.616	1334
615.095	1314
615.574	1332
616.053	1339
616.532	1325
617.011	1336
617.491	1346
617.97	1339
618.449	1354
618.928	1370
619.408	1363
619.887	1382
620.367	1386
620.846	1402
621.326	1391
621.805	1421
622.285	1423
622.764	1436
623.244	1443
623.724	1452
624.203	1461
624.683	1439
625.163	1466
625.643	1458
626.123	1450
626.602	1483
627.082	1467
627.562	1462
628.042	1486
628.522	1480
629.002	1480
629.482	1482
629.963	1488
630.443	1472
630.923	1474
631.403	1484
631.883	1487
632.364	1494
632.844	1487
633.324	1493
633.805	1491
634.285	1478
634.766	1470
635.246	1469
635.727	1484
636.207	1476
636.688	1474
637.168	1471
637.649	1469
638.13	1462
638.611	1481
639.091	1479
639.572	1472
640.053	1455
640.534	1470
641.015	1475
641.496	1458
641.977	1484
642.458	1471
642.939	1469
643.42	1487
643.901	1483
644.382	1508
644.863	1500
645.345	1499
645.826	1496
646.307	1499
646.788	1530
647.27	1503
647.751	1510
648.233	1528
648.714	1490
649.196	1529
649.677	1520
650.159	1523
650.64	1508
651.122	1533
651.603	1512
652.085	1529
652.567	1542
653.049	1536
653.53	1530
654.012	1564
654.494	1536
654.976	1552
655.458	1551
655.94	1547
656.422	1568
656.904	1543
657.386	1517
657.868	1523
658.35	1519
658.833	1530
659.315	1536
659.797	1508
660.279	1508
660.762	1518
661.244	1504
661.726	1491
662.209	1496
662.691	1495
663.174	1470
663.656	1482
664.139	1489
664.621	1473
665.104	1469
665.587	1494
666.069	1498
666.552	1494
667.035	1479
667.517	1493
668	1506
668.483	1506
668.966	1491
669.449	1494
669.932	1494
670.415	1503
670.898	1497
671.381	1508
671.864	1510
672.347	1483
672.83	1490
673.313	1495
673.797	1496
674.28	1530
674.763	1519
675.247	1523
675.73	1511
676.213	1518
676.697	1539
677.18	1540
677.664	1546
678.147	1539
678.631	1561
679.114	1577
679.598	1578
680.082	1600
680.565	1589
681.049	1583
681.533	1582
682.017	1594
682.5	1580
682.984	1596
683.468	1599
683.952	1571
684.436	1614
684.92	1591
685.404	1602
685.888	1613
686.372	1596
686.856	1602
687.341	1617
687.825	1600
688.309	1603
688.793	1611
689.278	1598
689.762	1608
690.246	1600
690.731	1596
691.215	1604
691.7	1568
692.184	1594
692.669	1585
693.153	1589
693.638	1564
694.122	1567
694.607	1590
695.092	1569
695.577	1590
696.061	1563
696.546	1573
697.031	1560
697.516	1581
698.001	1584
698.486	1577
698.971	1597
699.456	1558
699.941	1560
700.426	1559
700.911	1576
701.396	1574
701.881	1578
702.366	1567
702.852	1570
703.337	1567
703.822	1556
704.308	1562
704.793	1567
705.278	1574
705.764	1576
706.249	1570
706.735	1565
707.22	1587
707.706	1568
708.191	1586
708.677	1584
709.163	1573
709.648	1578
710.134	1619
710.62	1606
711.106	1601
711.592	1628
712.077	1601
712.563	1559
713.049	1562
713.535	1598
714.021	1602
714.507	1591
714.993	1573
715.479	1584
715.966	1569
716.452	1581
716.938	1584
717.424	1531
717.91	1570
718.397	1554
718.883	1542
719.369	1555
719.856	1536
720.342	1549
720.829	1533
721.315	1539
721.802	1528
722.288	1533
722.775	1476
723.262	1435
723.748	1511
724.235	1494
724.722	1516
725.208	1490
725.695	1486
726.182	1476
726.669	1466
727.156	1496
727.643	1477
728.13	1471
728.617	1459
729.104	1459
729.591	1448
730.078	1462
730.565	1459
731.052	1441
731.539	1449
732.027	1437
732.514	1425
733.001	1433
733.488	1419
733.976	1424
734.463	1423
734.951	1429
735.438	1431
735.926	1409
736.413	1423
736.901	1418
737.388	1425
737.876	1422
738.364	1417
738.851	1426
739.339	1431
739.827	1446
740.314	1384
740.802	1396
741.29	1416
741.778	1393
742.266	1391
742.754	1403
743.242	1418
743.73	1391
744.218	1389
744.706	1373
745.194	1394
745.682	1391
746.17	1404
746.659	1394
747.147	1362
747.635	1364
748.123	1362
748.612	1341
749.1	1325
749.589	1338
750.077	1342
750.566	1330
751.054	1349
751.543	1343
752.031	1323
752.52	1317
753.008	1289
753.497	1292
753.986	1294
754.474	1295
754.963	1308
755.452	1276
755.941	1269
756.43	1265
756.919	1262
757.408	1251
757.896	1265
758.385	1263
758.875	1256
759.364	1248
759.853	1232
760.342	1216
760.831	1238
761.32	1229
761.809	1205
762.299	1217
762.788	1220
763.277	1221
763.767	1215
764.256	1214
764.745	1199
765.235	1220
765.724	1185
766.214	1207
766.703	1193
767.193	1172
767.683	1164
768.172	1149
768.662	1158
769.152	1152
769.641	1155
770.131	1121
770.621	1143
771.111	1122
771.601	1125
772.09	1110
772.58	1099
773.07	1097
773.56	1104
774.05	1080
774.54	1073
775.031	1069
775.521	1061
776.011	1062
776.501	1080
776.991	1055
777.482	1062
777.972	1035
778.462	1035
778.953	1043
779.443	1044
779.933	1035
780.424	1032
780.914	1047
781.405	1047
781.895	1047
782.386	1045
782.877	1037
783.367	1014
783.858	1007
784.349	1014
784.839	999
785.33	1007
785.821	1013
786.312	1001
786.803	1009
787.293	1012
787.784	1000
788.275	989
788.766	975
789.257	990
789.748	966
790.24	961
790.731	964
791.222	947
791.713	945
792.204	943
792.696	922
793.187	926
793.678	916
794.169	892
794.661	902
795.152	891
795.644	879
796.135	887
796.627	879
797.118	869
797.61	856
798.101	847
798.593	858
799.085	839
799.576	854
800.068	845
800.56	852
801.052	830
801.544	832
802.035	828
802.527	820
803.019	812
803.511	807
804.003	802
804.495	806
804.987	802
805.479	785
805.971	790
806.464	793
806.956	772
807.448	773
807.94	775
808.433	770
808.925	764
809.417	759
809.91	757
810.402	738
810.894	745
811.387	755
811.879	740
812.372	748
812.865	743
813.357	729
813.85	724
814.342	718
814.835	726
815.328	720
815.821	708
816.313	712
816.806	709
817.299	708
817.792	711
818.285	695
818.778	704
819.271	707
819.764	700
820.257	697
820.75	693
821.243	690
821.736	689
822.229	690
822.722	681
823.216	701
