Data from lamp5helium_sterk_Subt2__12__12.txt Node

Date: Wed Apr 09 11:04:35 CEST 2025
User: fys-lab-0081
Spectrometer: S04999
Trigger mode: 0
Resolution mode: 1024 pixels
Integration Time (sec): 1.000000E-1
Scans to average: 1
Nonlinearity correction enabled: false
Boxcar width: 0
Baseline correction enabled: true
XAxis mode: Wavelengths
Number of Pixels in Spectrum: 1024
>>>>>Begin Spectral Data<<<<<
336.42	2
336.877	1
337.334	2
337.792	0
338.249	3
338.706	-2
339.164	0
339.621	2
340.079	3
340.536	4
340.994	0
341.452	3
341.909	7
342.367	3
342.825	1
343.283	5
343.741	-1
344.198	1
344.656	1
345.114	1
345.572	5
346.03	-1
346.488	1
346.947	3
347.405	3
347.863	-2
348.321	2
348.779	2
349.238	-1
349.696	3
350.154	-3
350.613	-1
351.071	4
351.53	2
351.988	3
352.447	-1
352.905	-3
353.364	-1
353.823	-6
354.282	-2
354.74	-4
355.199	3
355.658	6
356.117	1
356.576	1
357.035	-2
357.494	2
357.953	-2
358.412	2
358.871	3
359.33	0
359.789	-2
360.249	1
360.708	4
361.167	3
361.626	3
362.086	3
362.545	5
363.005	-2
363.464	-1
363.924	2
364.383	-2
364.843	2
365.303	-1
365.762	3
366.222	5
366.682	3
367.142	0
367.601	-3
368.061	-3
368.521	2
368.981	1
369.441	5
369.901	2
370.361	3
370.821	-2
371.282	3
371.742	3
372.202	0
372.662	3
373.123	0
373.583	1
374.043	3
374.504	3
374.964	1
375.425	3
375.885	-3
376.346	5
376.806	7
377.267	2
377.728	6
378.188	4
378.649	2
379.11	7
379.571	-1
380.032	4
380.493	1
380.954	8
381.414	5
381.876	4
382.337	-1
382.798	5
383.259	8
383.72	5
384.181	1
384.642	3
385.104	6
385.565	8
386.026	11
386.488	6
386.949	5
387.411	9
387.872	8
388.334	12
388.795	11
389.257	9
389.719	9
390.181	9
390.642	9
391.104	7
391.566	11
392.028	5
392.49	15
392.952	12
393.414	9
393.876	13
394.338	9
394.8	10
395.262	-2
395.724	10
396.186	14
396.648	14
397.111	13
397.573	16
398.035	13
398.498	11
398.96	13
399.423	10
399.885	14
400.348	17
400.81	11
401.273	8
401.736	14
402.198	17
402.661	17
403.124	9
403.587	21
404.049	16
404.512	11
404.975	13
405.438	15
405.901	20
406.364	15
406.827	14
407.29	15
407.754	18
408.217	15
408.68	16
409.143	21
409.607	24
410.07	21
410.533	15
410.997	17
411.46	19
411.924	25
412.387	23
412.851	19
413.314	16
413.778	18
414.242	19
414.705	20
415.169	26
415.633	17
416.097	18
416.561	23
417.024	20
417.488	23
417.952	27
418.416	20
418.88	19
419.344	21
419.809	24
420.273	25
420.737	26
421.201	22
421.665	27
422.13	29
422.594	31
423.059	28
423.523	28
423.987	24
424.452	30
424.916	28
425.381	33
425.846	26
426.31	33
426.775	35
427.24	34
427.704	33
428.169	33
428.634	33
429.099	35
429.564	31
430.029	34
430.494	32
430.959	31
431.424	31
431.889	40
432.354	39
432.819	36
433.284	41
433.75	37
434.215	41
434.68	41
435.146	40
435.611	43
436.077	44
436.542	42
437.008	48
437.473	47
437.939	45
438.404	43
438.87	45
439.336	47
439.801	50
440.267	51
440.733	51
441.199	48
441.665	49
442.131	59
442.596	49
443.062	54
443.529	57
443.995	59
444.461	56
444.927	62
445.393	59
445.859	62
446.325	64
446.792	70
447.258	68
447.724	74
448.191	73
448.657	74
449.124	70
449.59	73
450.057	78
450.523	82
450.99	86
451.457	80
451.923	86
452.39	84
452.857	90
453.324	88
453.791	87
454.257	88
454.724	89
455.191	88
455.658	92
456.125	92
456.592	95
457.059	92
457.527	92
457.994	99
458.461	101
458.928	102
459.396	105
459.863	102
460.33	104
460.798	105
461.265	108
461.732	106
462.2	108
462.668	109
463.135	110
463.603	109
464.07	114
464.538	107
465.006	111
465.474	114
465.941	113
466.409	108
466.877	108
467.345	109
467.813	110
468.281	115
468.749	119
469.217	115
469.685	118
470.153	127
470.621	123
471.09	120
471.558	130
472.026	129
472.494	130
472.963	131
473.431	138
473.9	142
474.368	147
474.837	146
475.305	151
475.774	149
476.242	155
476.711	153
477.18	159
477.648	154
478.117	163
478.586	166
479.055	159
479.524	162
479.993	161
480.462	163
480.93	163
481.399	161
481.869	164
482.338	165
482.807	171
483.276	166
483.745	169
484.214	172
484.684	176
485.153	174
485.622	182
486.092	182
486.561	179
487.031	196
487.5	188
487.97	196
488.439	195
488.909	200
489.378	211
489.848	215
490.318	219
490.787	232
491.257	233
491.727	235
492.197	233
492.667	235
493.137	244
493.607	240
494.077	246
494.547	239
495.017	243
495.487	246
495.957	259
496.427	246
496.897	245
497.368	255
497.838	251
498.308	251
498.779	255
499.249	262
499.719	264
500.19	274
500.66	267
501.131	275
501.602	282
502.072	271
502.543	283
503.014	291
503.484	294
503.955	299
504.426	311
504.897	312
505.368	315
505.838	330
506.309	332
506.78	349
507.251	354
507.722	353
508.194	373
508.665	376
509.136	379
509.607	390
510.078	391
510.549	395
511.021	405
511.492	408
511.964	412
512.435	416
512.906	420
513.378	421
513.849	429
514.321	429
514.793	434
515.264	448
515.736	449
516.208	458
516.679	459
517.151	463
517.623	475
518.095	482
518.567	486
519.038	494
519.51	494
519.982	496
520.454	505
520.927	511
521.399	522
521.871	527
522.343	531
522.815	533
523.287	534
523.76	540
524.232	554
524.704	548
525.177	545
525.649	550
526.122	555
526.594	549
527.067	561
527.539	567
528.012	570
528.484	566
528.957	576
529.43	569
529.903	572
530.375	584
530.848	576
531.321	587
531.794	594
532.267	604
532.74	589
533.213	599
533.686	604
534.159	601
534.632	619
535.105	624
535.578	636
536.051	639
536.525	641
536.998	644
537.471	661
537.945	650
538.418	657
538.891	658
539.365	678
539.838	680
540.312	674
540.786	674
541.259	689
541.733	699
542.206	698
542.68	683
543.154	690
543.628	700
544.101	711
544.575	698
545.049	679
545.523	695
545.997	698
546.471	704
546.945	698
547.419	708
547.893	688
548.367	705
548.842	692
549.316	697
549.79	711
550.264	705
550.739	712
551.213	719
551.687	714
552.162	721
552.636	720
553.111	727
553.585	739
554.06	733
554.534	744
555.009	749
555.484	758
555.958	762
556.433	769
556.908	781
557.383	773
557.858	792
558.333	792
558.807	791
559.282	804
559.757	825
560.232	821
560.708	811
561.183	813
561.658	823
562.133	825
562.608	812
563.083	838
563.559	825
564.034	824
564.509	827
564.985	826
565.46	830
565.936	845
566.411	833
566.887	833
567.362	837
567.838	841
568.313	840
568.789	833
569.265	840
569.74	844
570.216	841
570.692	848
571.168	849
571.644	855
572.12	852
572.596	862
573.071	869
573.547	897
574.024	906
574.5	911
574.976	918
575.452	938
575.928	942
576.404	952
576.881	980
577.357	967
577.833	972
578.31	1000
578.786	1001
579.262	1014
579.739	1008
580.215	1043
580.692	1044
581.169	1030
581.645	1034
582.122	1067
582.598	1073
583.075	1061
583.552	1071
584.029	1066
584.506	1071
584.982	1067
585.459	1080
585.936	1068
586.413	1085
586.89	1112
587.367	1096
587.844	1118
588.321	1107
588.799	1118
589.276	1103
589.753	1121
590.23	1134
590.707	1131
591.185	1137
591.662	1143
592.139	1151
592.617	1173
593.094	1169
593.572	1179
594.049	1181
594.527	1195
595.004	1208
595.482	1244
595.96	1227
596.437	1218
596.915	1257
597.393	1243
597.871	1266
598.349	1267
598.826	1285
599.304	1288
599.782	1313
600.26	1309
600.738	1334
601.216	1334
601.694	1339
602.173	1345
602.651	1360
603.129	1356
603.607	1366
604.085	1366
604.564	1376
605.042	1381
605.52	1381
605.999	1409
606.477	1369
606.956	1383
607.434	1401
607.913	1419
608.391	1409
608.87	1400
609.348	1381
609.827	1391
610.306	1404
610.785	1400
611.263	1405
611.742	1395
612.221	1380
612.7	1398
613.179	1410
613.658	1396
614.137	1417
614.616	1441
615.095	1414
615.574	1440
616.053	1445
616.532	1437
617.011	1443
617.491	1456
617.97	1449
618.449	1461
618.928	1476
619.408	1477
619.887	1487
620.367	1498
620.846	1519
621.326	1502
621.805	1534
622.285	1537
622.764	1551
623.244	1550
623.724	1570
624.203	1583
624.683	1547
625.163	1584
625.643	1574
626.123	1572
626.602	1604
627.082	1575
627.562	1576
628.042	1608
628.522	1602
629.002	1587
629.482	1599
629.963	1601
630.443	1586
630.923	1588
631.403	1608
631.883	1609
632.364	1617
632.844	1607
633.324	1610
633.805	1599
634.285	1579
634.766	1582
635.246	1587
635.727	1592
636.207	1597
636.688	1589
637.168	1582
637.649	1580
638.13	1582
638.611	1606
639.091	1594
639.572	1583
640.053	1570
640.534	1586
641.015	1589
641.496	1567
641.977	1599
642.458	1588
642.939	1590
643.42	1593
643.901	1602
644.382	1622
644.863	1628
645.345	1607
645.826	1616
646.307	1618
646.788	1645
647.27	1621
647.751	1627
648.233	1641
648.714	1598
649.196	1643
649.677	1634
650.159	1634
650.64	1616
651.122	1653
651.603	1627
652.085	1640
652.567	1658
653.049	1648
653.53	1648
654.012	1685
654.494	1655
654.976	1673
655.458	1662
655.94	1659
656.422	1690
656.904	1655
657.386	1636
657.868	1641
658.35	1629
658.833	1643
659.315	1653
659.797	1629
660.279	1621
660.762	1622
661.244	1613
661.726	1603
662.209	1606
662.691	1610
663.174	1577
663.656	1592
664.139	1595
664.621	1585
665.104	1577
665.587	1599
666.069	1610
666.552	1611
667.035	1585
667.517	1598
668	1616
668.483	1616
668.966	1605
669.449	1602
669.932	1594
670.415	1613
670.898	1610
671.381	1614
671.864	1622
672.347	1587
672.83	1606
673.313	1605
673.797	1603
674.28	1630
674.763	1628
675.247	1636
675.73	1623
676.213	1634
676.697	1650
677.18	1654
677.664	1656
678.147	1649
678.631	1669
679.114	1695
679.598	1696
680.082	1708
680.565	1706
681.049	1699
681.533	1691
682.017	1712
682.5	1703
682.984	1711
683.468	1712
683.952	1683
684.436	1726
684.92	1706
685.404	1717
685.888	1724
686.372	1711
686.856	1714
687.341	1741
687.825	1710
688.309	1720
688.793	1729
689.278	1708
689.762	1724
690.246	1711
690.731	1715
691.215	1720
691.7	1674
692.184	1706
692.669	1699
693.153	1695
693.638	1669
694.122	1676
694.607	1701
695.092	1681
695.577	1693
696.061	1668
696.546	1686
697.031	1675
697.516	1699
698.001	1691
698.486	1686
698.971	1711
699.456	1662
699.941	1675
700.426	1661
700.911	1682
701.396	1682
701.881	1696
702.366	1680
702.852	1680
703.337	1680
703.822	1669
704.308	1670
704.793	1678
705.278	1684
705.764	1690
706.249	1677
706.735	1671
707.22	1692
707.706	1670
708.191	1694
708.677	1692
709.163	1686
709.648	1693
710.134	1720
710.62	1720
711.106	1719
711.592	1729
712.077	1711
712.563	1670
713.049	1672
713.535	1713
714.021	1716
714.507	1701
714.993	1685
715.479	1695
715.966	1678
716.452	1688
716.938	1698
717.424	1643
717.91	1674
718.397	1659
718.883	1654
719.369	1660
719.856	1639
720.342	1660
720.829	1641
721.315	1651
721.802	1630
722.288	1640
722.775	1573
723.262	1533
723.748	1611
724.235	1595
724.722	1623
725.208	1580
725.695	1587
726.182	1589
726.669	1571
727.156	1591
727.643	1580
728.13	1571
728.617	1548
729.104	1553
729.591	1541
730.078	1562
730.565	1564
731.052	1540
731.539	1551
732.027	1538
732.514	1517
733.001	1527
733.488	1522
733.976	1521
734.463	1518
734.951	1515
735.438	1522
735.926	1504
736.413	1523
736.901	1514
737.388	1524
737.876	1518
738.364	1505
738.851	1520
739.339	1520
739.827	1533
740.314	1483
740.802	1495
741.29	1506
741.778	1485
742.266	1488
742.754	1486
743.242	1504
743.73	1486
744.218	1478
744.706	1471
745.194	1491
745.682	1485
746.17	1490
746.659	1490
747.147	1455
747.635	1460
748.123	1452
748.612	1428
749.1	1411
749.589	1429
750.077	1426
750.566	1419
751.054	1435
751.543	1440
752.031	1410
752.52	1409
753.008	1377
753.497	1379
753.986	1376
754.474	1383
754.963	1397
755.452	1362
755.941	1349
756.43	1350
756.919	1345
757.408	1327
757.896	1343
758.385	1352
758.875	1335
759.364	1323
759.853	1310
760.342	1291
760.831	1316
761.32	1307
761.809	1285
762.299	1293
762.788	1298
763.277	1296
763.767	1291
764.256	1293
764.745	1279
765.235	1291
765.724	1260
766.214	1283
766.703	1276
767.193	1246
767.683	1248
768.172	1219
768.662	1226
769.152	1224
769.641	1232
770.131	1192
770.621	1214
771.111	1198
771.601	1192
772.09	1183
772.58	1166
773.07	1164
773.56	1174
774.05	1151
774.54	1144
775.031	1135
775.521	1130
776.011	1133
776.501	1146
776.991	1118
777.482	1126
777.972	1101
778.462	1107
778.953	1107
779.443	1099
779.933	1102
780.424	1098
780.914	1112
781.405	1115
781.895	1107
782.386	1110
782.877	1100
783.367	1081
783.858	1070
784.349	1072
784.839	1063
785.33	1071
785.821	1071
786.312	1066
786.803	1069
787.293	1068
787.784	1055
788.275	1042
788.766	1035
789.257	1052
789.748	1032
790.24	1024
790.731	1021
791.222	1004
791.713	1007
792.204	1007
792.696	978
793.187	984
793.678	973
794.169	946
794.661	961
795.152	939
795.644	935
796.135	940
796.627	938
797.118	924
797.61	915
798.101	896
798.593	911
799.085	892
799.576	905
800.068	897
800.56	904
801.052	881
801.544	881
802.035	879
802.527	874
803.019	858
803.511	855
804.003	846
804.495	851
804.987	857
805.479	836
805.971	838
806.464	839
806.956	824
807.448	817
807.94	817
808.433	815
808.925	810
809.417	802
809.91	804
810.402	784
810.894	792
811.387	803
811.879	790
812.372	792
812.865	780
813.357	777
813.85	776
814.342	771
814.835	768
815.328	765
815.821	751
816.313	750
816.806	755
817.299	747
817.792	752
818.285	736
818.778	747
819.271	750
819.764	734
820.257	740
820.75	736
821.243	736
821.736	730
822.229	734
822.722	724
823.216	737
