Data from lamp5helium_sterk_Subt2__63__63.txt Node

Date: Wed Apr 09 11:04:41 CEST 2025
User: fys-lab-0081
Spectrometer: S04999
Trigger mode: 0
Resolution mode: 1024 pixels
Integration Time (sec): 1.000000E-1
Scans to average: 1
Nonlinearity correction enabled: false
Boxcar width: 0
Baseline correction enabled: true
XAxis mode: Wavelengths
Number of Pixels in Spectrum: 1024
>>>>>Begin Spectral Data<<<<<
336.42	-2
336.877	2
337.334	4
337.792	-1
338.249	1
338.706	2
339.164	0
339.621	0
340.079	6
340.536	6
340.994	2
341.452	2
341.909	5
342.367	0
342.825	0
343.283	4
343.741	-7
344.198	2
344.656	2
345.114	2
345.572	5
346.03	3
346.488	1
346.947	0
347.405	4
347.863	-3
348.321	-1
348.779	7
349.238	0
349.696	1
350.154	0
350.613	0
351.071	4
351.53	6
351.988	3
352.447	-3
352.905	-3
353.364	-1
353.823	2
354.282	1
354.74	-4
355.199	2
355.658	5
356.117	-3
356.576	2
357.035	0
357.494	4
357.953	-3
358.412	7
358.871	2
359.33	1
359.789	-2
360.249	-1
360.708	2
361.167	8
361.626	0
362.086	0
362.545	-2
363.005	-2
363.464	-1
363.924	2
364.383	-2
364.843	0
365.303	4
365.762	1
366.222	7
366.682	3
367.142	2
367.601	1
368.061	0
368.521	-1
368.981	-2
369.441	8
369.901	4
370.361	3
370.821	-1
371.282	1
371.742	3
372.202	3
372.662	8
373.123	-3
373.583	4
374.043	4
374.504	0
374.964	-2
375.425	3
375.885	1
376.346	6
376.806	4
377.267	1
377.728	5
378.188	8
378.649	1
379.11	5
379.571	0
380.032	4
380.493	3
380.954	6
381.414	4
381.876	6
382.337	3
382.798	9
383.259	4
383.72	4
384.181	1
384.642	3
385.104	6
385.565	7
386.026	11
386.488	9
386.949	6
387.411	5
387.872	9
388.334	9
388.795	10
389.257	10
389.719	8
390.181	9
390.642	3
391.104	10
391.566	10
392.028	9
392.49	15
392.952	13
393.414	13
393.876	13
394.338	10
394.8	9
395.262	5
395.724	12
396.186	9
396.648	12
397.111	14
397.573	16
398.035	12
398.498	10
398.96	13
399.423	13
399.885	8
400.348	15
400.81	12
401.273	10
401.736	13
402.198	14
402.661	17
403.124	10
403.587	14
404.049	14
404.512	14
404.975	10
405.438	17
405.901	15
406.364	20
406.827	13
407.29	14
407.754	13
408.217	17
408.68	16
409.143	17
409.607	21
410.07	18
410.533	14
410.997	14
411.46	23
411.924	24
412.387	21
412.851	21
413.314	19
413.778	24
414.242	19
414.705	27
415.169	24
415.633	24
416.097	19
416.561	20
417.024	22
417.488	26
417.952	23
418.416	18
418.88	18
419.344	19
419.809	25
420.273	19
420.737	19
421.201	26
421.665	28
422.13	28
422.594	30
423.059	24
423.523	28
423.987	24
424.452	29
424.916	26
425.381	31
425.846	26
426.31	34
426.775	33
427.24	36
427.704	35
428.169	33
428.634	36
429.099	33
429.564	37
430.029	36
430.494	34
430.959	32
431.424	29
431.889	38
432.354	37
432.819	30
433.284	38
433.75	39
434.215	42
434.68	41
435.146	35
435.611	43
436.077	40
436.542	43
437.008	48
437.473	46
437.939	43
438.404	45
438.87	52
439.336	52
439.801	47
440.267	49
440.733	54
441.199	49
441.665	51
442.131	53
442.596	50
443.062	50
443.529	56
443.995	57
444.461	57
444.927	60
445.393	57
445.859	61
446.325	63
446.792	69
447.258	71
447.724	72
448.191	74
448.657	69
449.124	68
449.59	71
450.057	80
450.523	80
450.99	83
451.457	81
451.923	84
452.39	87
452.857	86
453.324	82
453.791	86
454.257	91
454.724	90
455.191	87
455.658	85
456.125	93
456.592	88
457.059	92
457.527	90
457.994	98
458.461	100
458.928	100
459.396	101
459.863	97
460.33	104
460.798	104
461.265	103
461.732	103
462.2	103
462.668	103
463.135	108
463.603	104
464.07	115
464.538	109
465.006	112
465.474	112
465.941	106
466.409	109
466.877	108
467.345	111
467.813	108
468.281	112
468.749	116
469.217	112
469.685	119
470.153	122
470.621	122
471.09	120
471.558	127
472.026	129
472.494	127
472.963	131
473.431	136
473.9	140
474.368	144
474.837	142
475.305	145
475.774	146
476.242	155
476.711	151
477.18	161
477.648	152
478.117	155
478.586	161
479.055	160
479.524	165
479.993	162
480.462	161
480.93	157
481.399	161
481.869	166
482.338	164
482.807	169
483.276	162
483.745	164
484.214	172
484.684	174
485.153	176
485.622	180
486.092	178
486.561	178
487.031	192
487.5	184
487.97	191
488.439	200
488.909	205
489.378	203
489.848	214
490.318	215
490.787	234
491.257	226
491.727	228
492.197	235
492.667	235
493.137	236
493.607	237
494.077	239
494.547	238
495.017	242
495.487	242
495.957	250
496.427	244
496.897	245
497.368	250
497.838	248
498.308	250
498.779	255
499.249	257
499.719	261
500.19	268
500.66	266
501.131	269
501.602	270
502.072	268
502.543	283
503.014	289
503.484	292
503.955	296
504.426	308
504.897	309
505.368	315
505.838	323
506.309	327
506.78	340
507.251	349
507.722	354
508.194	368
508.665	372
509.136	367
509.607	384
510.078	384
510.549	392
511.021	401
511.492	398
511.964	410
512.435	415
512.906	407
513.378	417
513.849	423
514.321	427
514.793	430
515.264	447
515.736	443
516.208	457
516.679	454
517.151	463
517.623	464
518.095	475
518.567	482
519.038	490
519.51	492
519.982	495
520.454	496
520.927	508
521.399	516
521.871	526
522.343	527
522.815	531
523.287	530
523.76	534
524.232	545
524.704	544
525.177	545
525.649	543
526.122	551
526.594	543
527.067	548
527.539	557
528.012	564
528.484	559
528.957	567
529.43	565
529.903	567
530.375	585
530.848	577
531.321	581
531.794	583
532.267	601
532.74	585
533.213	588
533.686	598
534.159	594
534.632	614
535.105	617
535.578	632
536.051	632
536.525	629
536.998	626
537.471	653
537.945	646
538.418	653
538.891	658
539.365	667
539.838	671
540.312	669
540.786	669
541.259	676
541.733	689
542.206	690
542.68	686
543.154	686
543.628	691
544.101	702
544.575	695
545.049	673
545.523	690
545.997	689
546.471	695
546.945	691
547.419	704
547.893	685
548.367	698
548.842	687
549.316	689
549.79	702
550.264	700
550.739	706
551.213	710
551.687	706
552.162	715
552.636	711
553.111	715
553.585	735
554.06	726
554.534	737
555.009	738
555.484	756
555.958	762
556.433	760
556.908	778
557.383	767
557.858	784
558.333	788
558.807	785
559.282	800
559.757	821
560.232	813
560.708	803
561.183	798
561.658	818
562.133	812
562.608	801
563.083	832
563.559	811
564.034	813
564.509	820
564.985	822
565.46	817
565.936	831
566.411	827
566.887	823
567.362	827
567.838	832
568.313	833
568.789	832
569.265	836
569.74	840
570.216	827
570.692	844
571.168	839
571.644	852
572.12	848
572.596	853
573.071	861
573.547	893
574.024	896
574.5	903
574.976	908
575.452	928
575.928	937
576.404	946
576.881	968
577.357	954
577.833	963
578.31	988
578.786	996
579.262	1010
579.739	1004
580.215	1034
580.692	1037
581.169	1025
581.645	1028
582.122	1058
582.598	1056
583.075	1057
583.552	1062
584.029	1059
584.506	1057
584.982	1054
585.459	1076
585.936	1057
586.413	1080
586.89	1098
587.367	1092
587.844	1113
588.321	1100
588.799	1098
589.276	1089
589.753	1111
590.23	1123
590.707	1116
591.185	1120
591.662	1128
592.139	1147
592.617	1164
593.094	1163
593.572	1169
594.049	1175
594.527	1188
595.004	1196
595.482	1230
595.96	1219
596.437	1216
596.915	1240
597.393	1227
597.871	1257
598.349	1249
598.826	1277
599.304	1278
599.782	1307
600.26	1301
600.738	1329
601.216	1321
601.694	1330
602.173	1333
602.651	1347
603.129	1342
603.607	1353
604.085	1356
604.564	1360
605.042	1371
605.52	1364
605.999	1394
606.477	1356
606.956	1366
607.434	1384.5
607.913	1403
608.391	1400
608.87	1381
609.348	1369
609.827	1381
610.306	1394
610.785	1390
611.263	1392
611.742	1385
612.221	1368
612.7	1392
613.179	1402
613.658	1383
614.137	1408
614.616	1424
615.095	1406
615.574	1420
616.053	1430
616.532	1427
617.011	1432
617.491	1440
617.97	1433
618.449	1452
618.928	1472
619.408	1463
619.887	1475
620.367	1484
620.846	1500
621.326	1492
621.805	1519
622.285	1520
622.764	1544
623.244	1541
623.724	1553
624.203	1560
624.683	1538
625.163	1564
625.643	1552
626.123	1561
626.602	1589
627.082	1564
627.562	1565
628.042	1595
628.522	1591
629.002	1578
629.482	1586
629.963	1588
630.443	1575
630.923	1576
631.403	1594
631.883	1586
632.364	1594
632.844	1596
633.324	1600
633.805	1593
634.285	1574
634.766	1570
635.246	1570
635.727	1584
636.207	1582
636.688	1581
637.168	1566
637.649	1562
638.13	1567
638.611	1592
639.091	1579
639.572	1565
640.053	1562
640.534	1574
641.015	1575
641.496	1559
641.977	1582
642.458	1573
642.939	1580
643.42	1582
643.901	1587
644.382	1607
644.863	1607
645.345	1603
645.826	1603
646.307	1600
646.788	1632
647.27	1609
647.751	1607
648.233	1627
648.714	1591
649.196	1628
649.677	1623
650.159	1626
650.64	1602
651.122	1633
651.603	1607
652.085	1630
652.567	1642
653.049	1634
653.53	1637
654.012	1668
654.494	1635
654.976	1663
655.458	1654
655.94	1646
656.422	1677
656.904	1642
657.386	1622
657.868	1626
658.35	1623
658.833	1629
659.315	1638
659.797	1611
660.279	1609
660.762	1610
661.244	1598
661.726	1591
662.209	1595
662.691	1596
663.174	1565
663.656	1576
664.139	1584
664.621	1572
665.104	1568
665.587	1586
666.069	1597
666.552	1594
667.035	1575
667.517	1587
668	1601
668.483	1608
668.966	1589
669.449	1589
669.932	1584
670.415	1606
670.898	1600
671.381	1599
671.864	1607
672.347	1581
672.83	1592
673.313	1583
673.797	1587
674.28	1616
674.763	1618
675.247	1625
675.73	1608
676.213	1615
676.697	1636
677.18	1636
677.664	1640
678.147	1641
678.631	1661
679.114	1680
679.598	1684
680.082	1696
680.565	1690
681.049	1686
681.533	1685
682.017	1695
682.5	1690
682.984	1697
683.468	1703
683.952	1674
684.436	1717
684.92	1690
685.404	1705
685.888	1717
686.372	1695
686.856	1697
687.341	1724
687.825	1702
688.309	1705
688.793	1713
689.278	1699
689.762	1709
690.246	1709
690.731	1703
691.215	1702
691.7	1662
692.184	1697
692.669	1684
693.153	1685
693.638	1661
694.122	1667
694.607	1688
695.092	1665
695.577	1684
696.061	1654
696.546	1668
697.031	1663
697.516	1682
698.001	1683
698.486	1672
698.971	1696
699.456	1654
699.941	1650
700.426	1652
700.911	1673
701.396	1668
701.881	1680
702.366	1667
702.852	1664
703.337	1661
703.822	1656
704.308	1659
704.793	1671
705.278	1672
705.764	1673
706.249	1660
706.735	1665
707.22	1683
707.706	1657
708.191	1682
708.677	1681
709.163	1666
709.648	1680
710.134	1708
710.62	1700
711.106	1707
711.592	1720
712.077	1701
712.563	1659
713.049	1659
713.535	1699
714.021	1700
714.507	1689
714.993	1672
715.479	1682
715.966	1666
716.452	1680
716.938	1677
717.424	1628
717.91	1662
718.397	1645
718.883	1636
719.369	1643
719.856	1630
720.342	1653
720.829	1620
721.315	1630
721.802	1616
722.288	1623
722.775	1563
723.262	1521
723.748	1591
724.235	1583
724.722	1609
725.208	1568
725.695	1578
726.182	1569
726.669	1555
727.156	1580
727.643	1559
728.13	1562
728.617	1542
729.104	1539
729.591	1537
730.078	1547
730.565	1548
731.052	1527
731.539	1533
732.027	1524
732.514	1502
733.001	1514
733.488	1513
733.976	1503
734.463	1504
734.951	1499
735.438	1513
735.926	1494
736.413	1511
736.901	1505
737.388	1515
737.876	1503
738.364	1499
738.851	1507
739.339	1515
739.827	1522
740.314	1476
740.802	1477
741.29	1485
741.778	1474
742.266	1472
742.754	1481
743.242	1492
743.73	1475
744.218	1468
744.706	1458
745.194	1483
745.682	1474
746.17	1478
746.659	1473
747.147	1449
747.635	1448
748.123	1442
748.612	1424
749.1	1408
749.589	1412
750.077	1413
750.566	1406
751.054	1426
751.543	1437
752.031	1399
752.52	1395
753.008	1367
753.497	1370
753.986	1371
754.474	1368
754.963	1377
755.452	1355
755.941	1336
756.43	1339
756.919	1334
757.408	1321
757.896	1338
758.385	1347
758.875	1325
759.364	1311
759.853	1302
760.342	1280
760.831	1309
761.32	1294
761.809	1274
762.299	1286
762.788	1288
763.277	1291
763.767	1281
764.256	1283
764.745	1271
765.235	1288
765.724	1251
766.214	1272
766.703	1259
767.193	1237
767.683	1244
768.172	1212
768.662	1224
769.152	1212
769.641	1221
770.131	1187
770.621	1210
771.111	1188
771.601	1184
772.09	1173
772.58	1159
773.07	1161
773.56	1166
774.05	1147
774.54	1137
775.031	1123
775.521	1123
776.011	1131
776.501	1139
776.991	1106
777.482	1122
777.972	1098
778.462	1094
778.953	1102
779.443	1098
779.933	1091
780.424	1086
780.914	1108
781.405	1105
781.895	1101
782.386	1099
782.877	1091
783.367	1071
783.858	1059
784.349	1071
784.839	1058
785.33	1058
785.821	1062
786.312	1060
786.803	1066
787.293	1060
787.784	1053
788.275	1038
788.766	1031
789.257	1048
789.748	1023
790.24	1019
790.731	1013
791.222	999
791.713	995
792.204	995
792.696	972
793.187	975
793.678	970
794.169	933
794.661	960
795.152	938
795.644	928
796.135	937
796.627	935
797.118	917
797.61	903
798.101	896
798.593	905
799.085	891
799.576	902
800.068	891
800.56	893
801.052	880
801.544	877
802.035	872
802.527	864
803.019	851
803.511	847
804.003	845
804.495	846
804.987	845
805.479	828
805.971	837
806.464	831
806.956	816
807.448	813
807.94	812
808.433	816
808.925	804
809.417	799
809.91	796
810.402	781
810.894	789
811.387	795
811.879	780
812.372	788
812.865	778
813.357	770
813.85	770
814.342	755
814.835	759
815.328	754
815.821	748
816.313	746
816.806	750
817.299	744
817.792	746
818.285	730
818.778	741
819.271	733
819.764	731
820.257	731
820.75	730
821.243	733
821.736	722
822.229	732
822.722	727
823.216	741
