Data from lamp5helium_sterk_Subt2__84__84.txt Node

Date: Wed Apr 09 11:04:44 CEST 2025
User: fys-lab-0081
Spectrometer: S04999
Trigger mode: 0
Resolution mode: 1024 pixels
Integration Time (sec): 1.000000E-1
Scans to average: 1
Nonlinearity correction enabled: false
Boxcar width: 0
Baseline correction enabled: true
XAxis mode: Wavelengths
Number of Pixels in Spectrum: 1024
>>>>>Begin Spectral Data<<<<<
336.42	1
336.877	5
337.334	0
337.792	1
338.249	1
338.706	0
339.164	2
339.621	-2
340.079	1
340.536	4
340.994	5
341.452	4
341.909	3
342.367	0
342.825	-4
343.283	4
343.741	3
344.198	0
344.656	-2
345.114	-2
345.572	5
346.03	0
346.488	3
346.947	2
347.405	2
347.863	-2
348.321	-1
348.779	5
349.238	0
349.696	1
350.154	-1
350.613	-5
351.071	1
351.53	5
351.988	2
352.447	-2
352.905	-2
353.364	1
353.823	4
354.282	-1
354.74	-6
355.199	1
355.658	1
356.117	2
356.576	0
357.035	-1
357.494	0
357.953	-1
358.412	6
358.871	1
359.33	-1
359.789	-2
360.249	2
360.708	5
361.167	1
361.626	-1
362.086	2
362.545	1
363.005	2
363.464	-3
363.924	1
364.383	4
364.843	1
365.303	3
365.762	2
366.222	3
366.682	1
367.142	2
367.601	-1
368.061	-2
368.521	1
368.981	1
369.441	3
369.901	4
370.361	1
370.821	0
371.282	2
371.742	-1
372.202	2
372.662	2
373.123	-2
373.583	3
374.043	5
374.504	1
374.964	3
375.425	2
375.885	0
376.346	5
376.806	6
377.267	5
377.728	10
378.188	10
378.649	1
379.11	4
379.571	0
380.032	3
380.493	2
380.954	7
381.414	6
381.876	1
382.337	3
382.798	4
383.259	4
383.72	5
384.181	2
384.642	0
385.104	3
385.565	12
386.026	10
386.488	4
386.949	6
387.411	8
387.872	9
388.334	7
388.795	8
389.257	9
389.719	9
390.181	7
390.642	4
391.104	7
391.566	11
392.028	4
392.49	10
392.952	14
393.414	11
393.876	14
394.338	7
394.8	7
395.262	2
395.724	12
396.186	11
396.648	9
397.111	13
397.573	13
398.035	8
398.498	11
398.96	8
399.423	12
399.885	11
400.348	18
400.81	12
401.273	8
401.736	10
402.198	17
402.661	13
403.124	7
403.587	16
404.049	17
404.512	18
404.975	11
405.438	16
405.901	18
406.364	20
406.827	16
407.29	16
407.754	14
408.217	17
408.68	18
409.143	19
409.607	23
410.07	16
410.533	18
410.997	19
411.46	18
411.924	21
412.387	22
412.851	16
413.314	16
413.778	19
414.242	19
414.705	20
415.169	21
415.633	21
416.097	18
416.561	21
417.024	22
417.488	24
417.952	24
418.416	20
418.88	21
419.344	17
419.809	21
420.273	24
420.737	22
421.201	24
421.665	24
422.13	31
422.594	30
423.059	27
423.523	28
423.987	26
424.452	29
424.916	28
425.381	30
425.846	27
426.31	34
426.775	35
427.24	32
427.704	32
428.169	30
428.634	31
429.099	35
429.564	35
430.029	31
430.494	31
430.959	30
431.424	30
431.889	40
432.354	39
432.819	36
433.284	39
433.75	37
434.215	44
434.68	39
435.146	34
435.611	37
436.077	41
436.542	42
437.008	42
437.473	43
437.939	45
438.404	47
438.87	48
439.336	47
439.801	46
440.267	49
440.733	51
441.199	50
441.665	49
442.131	49
442.596	47
443.062	54
443.529	58
443.995	57
444.461	54
444.927	59
445.393	58
445.859	59
446.325	56
446.792	68
447.258	73
447.724	71
448.191	74
448.657	67
449.124	73
449.59	72
450.057	81
450.523	80
450.99	81
451.457	78
451.923	83
452.39	78
452.857	86
453.324	79
453.791	85
454.257	90
454.724	87
455.191	82
455.658	85
456.125	92
456.592	92
457.059	89
457.527	86
457.994	94
458.461	97
458.928	100
459.396	98
459.863	102
460.33	100
460.798	102
461.265	104
461.732	100
462.2	110
462.668	108
463.135	109
463.603	99
464.07	108
464.538	106
465.006	108
465.474	110
465.941	107
466.409	103
466.877	105
467.345	107
467.813	107
468.281	110
468.749	115
469.217	108
469.685	116
470.153	116
470.621	117
471.09	116
471.558	123
472.026	126
472.494	129
472.963	132
473.431	131
473.9	140
474.368	138
474.837	139
475.305	141
475.774	142
476.242	152
476.711	154
477.18	154
477.648	148
478.117	159
478.586	159
479.055	153
479.524	155
479.993	162
480.462	154
480.93	158
481.399	163
481.869	157
482.338	159
482.807	164
483.276	160
483.745	161
484.214	168
484.684	169
485.153	169
485.622	175
486.092	179
486.561	174
487.031	182
487.5	180
487.97	191
488.439	194
488.909	193
489.378	205
489.848	205
490.318	212
490.787	228
491.257	220
491.727	222
492.197	226
492.667	235
493.137	231
493.607	229
494.077	233
494.547	232
495.017	233
495.487	233
495.957	246
496.427	241
496.897	238
497.368	246
497.838	242
498.308	249
498.779	252
499.249	253
499.719	256
500.19	264
500.66	258
501.131	265
501.602	261
502.072	267
502.543	271
503.014	282
503.484	285
503.955	284
504.426	301
504.897	303
505.368	306
505.838	323
506.309	318
506.78	339
507.251	346
507.722	350
508.194	358
508.665	367
509.136	365
509.607	376
510.078	378
510.549	382
511.021	391
511.492	392
511.964	399
512.435	410
512.906	401
513.378	410
513.849	420
514.321	417
514.793	420
515.264	435
515.736	437
516.208	441
516.679	444
517.151	455
517.623	454
518.095	467
518.567	468
519.038	482
519.51	483
519.982	486
520.454	488
520.927	501
521.399	508
521.871	518
522.343	519
522.815	515
523.287	518
523.76	527
524.232	535
524.704	532
525.177	522
525.649	533
526.122	549
526.594	532
527.067	541
527.539	544
528.012	552
528.484	546
528.957	557
529.43	555
529.903	554
530.375	570
530.848	558
531.321	567
531.794	574
532.267	587
532.74	577
533.213	582
533.686	590
534.159	585
534.632	604
535.105	608
535.578	615
536.051	618
536.525	620
536.998	623
537.471	641
537.945	629
538.418	644
538.891	641
539.365	657
539.838	664
540.312	655
540.786	657
541.259	666
541.733	677
542.206	680
542.68	665
543.154	670
543.628	679
544.101	688
544.575	682
545.049	666
545.523	682
545.997	675
546.471	687
546.945	677
547.419	690
547.893	668
548.367	685
548.842	673
549.316	681
549.79	689
550.264	688
550.739	692
551.213	695
551.687	691
552.162	700
552.636	702
553.111	702
553.585	720
554.06	713
554.534	724
555.009	720
555.484	736
555.958	746
556.433	750
556.908	763
557.383	750
557.858	773
558.333	773
558.807	770
559.282	781
559.757	804
560.232	799
560.708	780
561.183	782
561.658	803
562.133	800
562.608	797
563.083	815
563.559	805
564.034	805
564.509	800
564.985	809
565.46	797
565.936	822
566.411	815
566.887	806
567.362	807
567.838	818
568.313	827
568.789	818
569.265	820
569.74	819
570.216	815
570.692	827
571.168	820
571.644	833
572.12	828
572.596	842
573.071	846
573.547	872
574.024	884
574.5	890
574.976	893
575.452	906
575.928	920
576.404	923
576.881	955
577.357	933
577.833	946
578.31	970
578.786	978
579.262	988
579.739	984
580.215	1016
580.692	1019
581.169	1005
581.645	1010
582.122	1039
582.598	1041
583.075	1040
583.552	1044
584.029	1042
584.506	1042
584.982	1036
585.459	1056
585.936	1040
586.413	1061
586.89	1076
587.367	1064
587.844	1088
588.321	1082
588.799	1088
589.276	1070
589.753	1092
590.23	1105
590.707	1102
591.185	1106
591.662	1118
592.139	1131
592.617	1145
593.094	1139
593.572	1145
594.049	1162
594.527	1162
595.004	1172
595.482	1213
595.96	1202
596.437	1189
596.915	1226
597.393	1209
597.871	1238
598.349	1227
598.826	1250
599.304	1255
599.782	1290
600.26	1278
600.738	1313
601.216	1304
601.694	1305
602.173	1314
602.651	1329
603.129	1319
603.607	1331
604.085	1340
604.564	1340
605.042	1354
605.52	1346
605.999	1366
606.477	1332
606.956	1341
607.434	1363.5
607.913	1386
608.391	1378
608.87	1360
609.348	1350
609.827	1362
610.306	1373
610.785	1370
611.263	1367
611.742	1358
612.221	1343
612.7	1374
613.179	1377
613.658	1359
614.137	1389
614.616	1399
615.095	1384
615.574	1400
616.053	1410
616.532	1402
617.011	1411
617.491	1414
617.97	1416
618.449	1421
618.928	1443
619.408	1443
619.887	1446
620.367	1460
620.846	1481
621.326	1466
621.805	1493
622.285	1497
622.764	1512
623.244	1519
623.724	1527
624.203	1542
624.683	1503
625.163	1537
625.643	1534
626.123	1533
626.602	1565
627.082	1537
627.562	1537
628.042	1563
628.522	1561
629.002	1552
629.482	1559
629.963	1566
630.443	1547
630.923	1548
631.403	1570
631.883	1572
632.364	1574
632.844	1567
633.324	1572
633.805	1565
634.285	1546
634.766	1535
635.246	1545
635.727	1551
636.207	1556
636.688	1554
637.168	1545
637.649	1540
638.13	1546
638.611	1558
639.091	1551
639.572	1542
640.053	1532
640.534	1552
641.015	1549
641.496	1527
641.977	1557
642.458	1549
642.939	1557
643.42	1559
643.901	1556
644.382	1584
644.863	1583
645.345	1576
645.826	1575
646.307	1579
646.788	1603
647.27	1588
647.751	1592
648.233	1600
648.714	1562
649.196	1603
649.677	1595
650.159	1598
650.64	1582
651.122	1612
651.603	1589
652.085	1604
652.567	1619
653.049	1607
653.53	1610
654.012	1643
654.494	1615
654.976	1629
655.458	1629
655.94	1624
656.422	1646
656.904	1614
657.386	1598
657.868	1598
658.35	1594
658.833	1603
659.315	1611
659.797	1588
660.279	1584
660.762	1593
661.244	1569
661.726	1566
662.209	1576
662.691	1575
663.174	1542
663.656	1558
664.139	1560
664.621	1552
665.104	1540
665.587	1561
666.069	1572
666.552	1574
667.035	1553
667.517	1560
668	1580
668.483	1587
668.966	1568
669.449	1566
669.932	1565
670.415	1583
670.898	1576
671.381	1582
671.864	1586
672.347	1555
672.83	1561
673.313	1569
673.797	1567
674.28	1591
674.763	1593
675.247	1599
675.73	1586
676.213	1602
676.697	1613
677.18	1614
677.664	1620
678.147	1615
678.631	1635
679.114	1652
679.598	1662
680.082	1678
680.565	1665
681.049	1665
681.533	1658
682.017	1678
682.5	1668
682.984	1665
683.468	1673
683.952	1647
684.436	1693
684.92	1666
685.404	1679
685.888	1697
686.372	1676
686.856	1681
687.341	1694
687.825	1672
688.309	1676
688.793	1689
689.278	1671
689.762	1683
690.246	1679
690.731	1677
691.215	1683
691.7	1640
692.184	1667
692.669	1659
693.153	1662
693.638	1640
694.122	1646
694.607	1663
695.092	1642
695.577	1657
696.061	1640
696.546	1648
697.031	1639
697.516	1652
698.001	1657
698.486	1652
698.971	1676
699.456	1627
699.941	1631
700.426	1629
700.911	1649
701.396	1643
701.881	1655
702.366	1645
702.852	1640
703.337	1636
703.822	1633
704.308	1631
704.793	1646
705.278	1648
705.764	1652
706.249	1639
706.735	1638
707.22	1665
707.706	1636
708.191	1653
708.677	1658
709.163	1644
709.648	1658
710.134	1681
710.62	1677
711.106	1677
711.592	1698
712.077	1678
712.563	1639
713.049	1623
713.535	1675
714.021	1675
714.507	1669
714.993	1649
715.479	1658
715.966	1636
716.452	1654
716.938	1655
717.424	1604
717.91	1642
718.397	1627
718.883	1612
719.369	1621
719.856	1604
720.342	1626
720.829	1604
721.315	1612
721.802	1592
722.288	1605
722.775	1539
723.262	1499
723.748	1568
724.235	1566
724.722	1591
725.208	1549
725.695	1555
726.182	1547
726.669	1535
727.156	1559
727.643	1543
728.13	1544
728.617	1515
729.104	1522
729.591	1507
730.078	1530
730.565	1523
731.052	1507
731.539	1513
732.027	1500
732.514	1490
733.001	1499
733.488	1490
733.976	1483
734.463	1479
734.951	1483
735.438	1494
735.926	1477
736.413	1493
736.901	1482
737.388	1491
737.876	1482
738.364	1474
738.851	1490
739.339	1487
739.827	1511
740.314	1455
740.802	1461
741.29	1472
741.778	1447
742.266	1455
742.754	1464
743.242	1479
743.73	1453
744.218	1449
744.706	1440
745.194	1456
745.682	1457
746.17	1458
746.659	1455
747.147	1426
747.635	1431
748.123	1421
748.612	1403
749.1	1387
749.589	1395
750.077	1396
750.566	1387
751.054	1405
751.543	1412
752.031	1381
752.52	1370
753.008	1335
753.497	1348
753.986	1351
754.474	1353
754.963	1365
755.452	1332
755.941	1323
756.43	1321
756.919	1315
757.408	1303
757.896	1318
758.385	1329
758.875	1315
759.364	1296
759.853	1288
760.342	1260
760.831	1294
761.32	1277
761.809	1261
762.299	1269
762.788	1271
763.277	1272
763.767	1265
764.256	1270
764.745	1254
765.235	1270
765.724	1234
766.214	1262
766.703	1238
767.193	1226
767.683	1224
768.172	1192
768.662	1203
769.152	1195
769.641	1206
770.131	1174
770.621	1185
771.111	1168
771.601	1174
772.09	1162
772.58	1146
773.07	1146
773.56	1148
774.05	1132
774.54	1124
775.031	1111
775.521	1103
776.011	1110
776.501	1123
776.991	1097
777.482	1104
777.972	1082
778.462	1081
778.953	1090
779.443	1084
779.933	1084
780.424	1070
780.914	1089
781.405	1095
781.895	1086
782.386	1084
782.877	1078
783.367	1057
783.858	1056
784.349	1058
784.839	1043
785.33	1043
785.821	1046
786.312	1047
786.803	1043
787.293	1050
787.784	1040
788.275	1019
788.766	1017
789.257	1031
789.748	1013
790.24	1000
790.731	1003
791.222	987
791.713	980
792.204	988
792.696	959
793.187	966
793.678	952
794.169	927
794.661	945
795.152	929
795.644	917
796.135	922
796.627	918
797.118	907
797.61	894
798.101	882
798.593	898
799.085	871
799.576	888
800.068	883
800.56	888
801.052	862
801.544	864
802.035	863
802.527	853
803.019	844
803.511	836
804.003	829
804.495	841
804.987	834
805.479	821
805.971	826
806.464	830
806.956	806
807.448	804
807.94	803
808.433	806
808.925	796
809.417	791
809.91	785
810.402	767
810.894	778
811.387	785
811.879	772
812.372	780
812.865	764
813.357	759
813.85	758
814.342	748
814.835	749
815.328	748
815.821	735
816.313	735
816.806	742
817.299	732
817.792	736
818.285	720
818.778	735
819.271	733
819.764	722
820.257	727
820.75	720
821.243	723
821.736	712
822.229	719
822.722	715
823.216	729
