Data from lamp5helium_sterk_Subt4__5__460.txt Node

Date: Wed Apr 09 10:18:29 CEST 2025
User: fys-lab-0081
Spectrometer: S04999
Trigger mode: 0
Resolution mode: 1024 pixels
Integration Time (sec): 1.000000E-1
Scans to average: 1
Nonlinearity correction enabled: false
Boxcar width: 0
Baseline correction enabled: true
XAxis mode: Wavelengths
Number of Pixels in Spectrum: 1024
>>>>>Begin Spectral Data<<<<<
336.42	1
336.877	-2
337.334	1
337.792	-3
338.249	6
338.706	0
339.164	2
339.621	0
340.079	5
340.536	1
340.994	4
341.452	-1
341.909	3
342.367	-1
342.825	0
343.283	-1
343.741	2
344.198	3
344.656	0
345.114	0
345.572	3
346.03	6
346.488	4
346.947	-1
347.405	6
347.863	7
348.321	6
348.779	-1
349.238	4
349.696	1
350.154	4
350.613	0
351.071	1
351.53	0
351.988	0
352.447	5
352.905	2
353.364	0
353.823	4
354.282	6
354.74	-1
355.199	-2
355.658	3
356.117	6
356.576	10
357.035	8
357.494	5
357.953	5
358.412	8
358.871	0
359.33	2
359.789	4
360.249	2
360.708	5
361.167	6
361.626	5
362.086	0
362.545	5
363.005	10
363.464	3
363.924	2
364.383	4
364.843	4
365.303	7
365.762	10
366.222	0
366.682	5
367.142	10
367.601	11
368.061	8
368.521	10
368.981	7
369.441	10
369.901	11
370.361	7
370.821	3
371.282	7
371.742	13
372.202	8
372.662	10
373.123	11
373.583	7
374.043	10
374.504	4
374.964	9
375.425	6
375.885	14
376.346	11
376.806	10
377.267	13
377.728	14
378.188	14
378.649	11
379.11	9
379.571	9
380.032	12
380.493	13
380.954	16
381.414	8
381.876	13
382.337	18
382.798	20
383.259	18
383.72	12
384.181	12
384.642	19
385.104	22
385.565	29
386.026	20
386.488	19
386.949	20
387.411	22
387.872	19
388.334	25
388.795	24
389.257	29
389.719	28
390.181	26
390.642	27
391.104	27
391.566	22
392.028	33
392.49	22
392.952	31
393.414	34
393.876	28
394.338	28
394.8	29
395.262	31
395.724	36
396.186	37
396.648	33
397.111	31
397.573	37
398.035	35
398.498	34
398.96	35
399.423	39
399.885	45
400.348	39
400.81	44
401.273	34
401.736	46
402.198	45
402.661	46
403.124	45
403.587	48
404.049	52.5
404.512	57
404.975	54
405.438	47
405.901	52
406.364	55
406.827	53
407.29	55
407.754	53
408.217	54
408.68	57
409.143	55
409.607	62
410.07	61
410.533	59
410.997	55
411.46	55
411.924	59
412.387	60
412.851	61
413.314	69
413.778	64
414.242	65
414.705	67
415.169	70
415.633	67
416.097	69
416.561	70
417.024	74
417.488	76
417.952	70
418.416	78
418.88	79
419.344	75
419.809	74
420.273	78
420.737	76
421.201	73
421.665	77
422.13	80
422.594	83
423.059	86
423.523	84
423.987	85
424.452	89
424.916	95
425.381	96
425.846	96
426.31	94
426.775	93
427.24	107
427.704	96
428.169	103
428.634	101
429.099	103
429.564	101
430.029	104
430.494	105
430.959	108
431.424	104
431.889	109
432.354	109
432.819	110
433.284	111
433.75	111
434.215	121
434.68	122
435.146	125
435.611	144
436.077	150
436.542	151
437.008	146
437.473	139
437.939	147
438.404	149
438.87	154
439.336	144
439.801	144
440.267	152
440.733	159
441.199	157
441.665	150
442.131	162
442.596	154
443.062	159
443.529	163
443.995	172
444.461	171
444.927	190
445.393	181
445.859	192
446.325	195
446.792	212
447.258	210
447.724	214
448.191	224
448.657	225
449.124	237
449.59	230
450.057	243
450.523	245
450.99	254
451.457	243
451.923	256
452.39	251
452.857	259
453.324	255
453.791	261
454.257	260
454.724	261
455.191	266
455.658	266
456.125	279
456.592	274
457.059	278
457.527	284
457.994	296
458.461	296
458.928	305
459.396	305
459.863	313
460.33	310
460.798	308
461.265	313
461.732	315
462.2	324
462.668	316
463.135	335
463.603	318
464.07	326
464.538	325
465.006	338
465.474	323
465.941	328
466.409	331
466.877	320
467.345	338
467.813	336
468.281	339
468.749	335
469.217	342
469.685	345
470.153	347
470.621	352
471.09	356
471.558	374
472.026	373
472.494	381
472.963	389
473.431	399
473.9	407
474.368	422
474.837	430
475.305	432
475.774	449
476.242	464
476.711	453
477.18	467
477.648	463
478.117	474
478.586	463
479.055	467
479.524	475
479.993	477
480.462	472
480.93	479
481.399	474
481.869	480
482.338	488
482.807	490
483.276	486
483.745	492
484.214	500
484.684	509
485.153	517
485.622	516
486.092	534
486.561	526
487.031	542
487.5	554
487.97	571
488.439	582
488.909	602
489.378	620
489.848	622
490.318	632
490.787	652
491.257	671
491.727	669
492.197	683
492.667	681
493.137	687
493.607	695
494.077	706
494.547	696
495.017	696
495.487	710
495.957	723
496.427	705
496.897	707
497.368	722
497.838	716
498.308	732
498.779	743
499.249	753
499.719	758
500.19	765
500.66	765
501.131	773
501.602	787
502.072	789
502.543	797
503.014	835
503.484	823
503.955	857
504.426	888
504.897	898
505.368	915
505.838	928
506.309	955
506.78	983
507.251	1002
507.722	1021
508.194	1044
508.665	1056
509.136	1060
509.607	1092
510.078	1100
510.549	1111
511.021	1138
511.492	1143
511.964	1170
512.435	1176
512.906	1172
513.378	1191
513.849	1211
514.321	1218
514.793	1231
515.264	1244
515.736	1258
516.208	1283
516.679	1288
517.151	1300
517.623	1319
518.095	1338
518.567	1351
519.038	1373
519.51	1376
519.982	1400
520.454	1412
520.927	1442
521.399	1459
521.871	1480
522.343	1488
522.815	1500
523.287	1496
523.76	1518
524.232	1542
524.704	1553
525.177	1527
525.649	1532
526.122	1553
526.594	1537
527.067	1565
527.539	1586
528.012	1578
528.484	1572
528.957	1575
529.43	1579
529.903	1572
530.375	1622
530.848	1603
531.321	1623
531.794	1619
532.267	1654
532.74	1633
533.213	1641
533.686	1673
534.159	1659
534.632	1696
535.105	1719
535.578	1752
536.051	1757
536.525	1763
536.998	1768
537.471	1809
537.945	1787
538.418	1831
538.891	1835
539.365	1853
539.838	1875
540.312	1878
540.786	1891
541.259	1890
541.733	1917
542.206	1925
542.68	1902
543.154	1892
543.628	1906
544.101	1965
544.575	1945
545.049	1891
545.523	1938
545.997	1947
546.471	1968
546.945	1933
547.419	1954
547.893	1884
548.367	1930
548.842	1914
549.316	1922
549.79	1935
550.264	1917
550.739	1942
551.213	1936
551.687	1945
552.162	1962
552.636	1947
553.111	1942
553.585	1998
554.06	1973
554.534	2010
555.009	2001
555.484	2033
555.958	2066
556.433	2073
556.908	2096
557.383	2084
557.858	2137
558.333	2149
558.807	2136
559.282	2147
559.757	2214
560.232	2223
560.708	2195
561.183	2178
561.658	2207
562.133	2217
562.608	2186
563.083	2250
563.559	2192
564.034	2211
564.509	2212
564.985	2212
565.46	2194
565.936	2251
566.411	2250
566.887	2222
567.362	2237
567.838	2241
568.313	2270
568.789	2234
569.265	2226
569.74	2251
570.216	2243
570.692	2285
571.168	2284
571.644	2267
572.12	2267
572.596	2296
573.071	2314
573.547	2379
574.024	2403
574.5	2438
574.976	2457
575.452	2484
575.928	2496
576.404	2515
576.881	2609
577.357	2563
577.833	2575
578.31	2647
578.786	2688
579.262	2736
579.739	2693
580.215	2762
580.692	2750
581.169	2742
581.645	2748
582.122	2833
582.598	2835
583.075	2838
583.552	2866
584.029	2858
584.506	2834
584.982	2813
585.459	2873
585.936	2840
586.413	2868
586.89	2918
587.367	2900
587.844	2972
588.321	2959
588.799	2953
589.276	2907
589.753	2954
590.23	2979
590.707	2967
591.185	2965
591.662	2970
592.139	3026
592.617	3078
593.094	3062
593.572	3077
594.049	3107
594.527	3150
595.004	3179
595.482	3249
595.96	3216
596.437	3226
596.915	3328
597.393	3253
597.871	3332
598.349	3293
598.826	3370
599.304	3382
599.782	3435
600.26	3420
600.738	3498
601.216	3495
601.694	3527
602.173	3547
602.651	3536
603.129	3488
603.607	3524
604.085	3544
604.564	3542
605.042	3556
605.52	3529
605.999	3626
606.477	3545
606.956	3565
607.434	3606
607.913	3647
608.391	3637
608.87	3607
609.348	3581
609.827	3602
610.306	3655
610.785	3700
611.263	3722
611.742	3683
612.221	3620
612.7	3642
613.179	3661
613.658	3620
614.137	3680
614.616	3709
615.095	3638
615.574	3691
616.053	3745
616.532	3701
617.011	3718
617.491	3734
617.97	3740
618.449	3805
618.928	3830
619.408	3794
619.887	3839
620.367	3868
620.846	3915
621.326	3885
621.805	3970
622.285	3952
622.764	3995
623.244	4002
623.724	4037
624.203	4057
624.683	3990
625.163	4067
625.643	4065
626.123	4032
626.602	4140
627.082	4066
627.562	4054
628.042	4156
628.522	4109
629.002	4065
629.482	4083
629.963	4089
630.443	4050
630.923	4065
631.403	4100
631.883	4094
632.364	4105
632.844	4069
633.324	4105
633.805	4122
634.285	4076
634.766	4056
635.246	4059
635.727	4040
636.207	4066
636.688	4075
637.168	4087
637.649	4049
638.13	4029
638.611	4064
639.091	4064
639.572	4033
640.053	4011
640.534	4055
641.015	4045
641.496	4002
641.977	4077
642.458	4040
642.939	4062
643.42	4070
643.901	4080
644.382	4127
644.863	4115
645.345	4115
645.826	4121
646.307	4130
646.788	4205
647.27	4116
647.751	4128
648.233	4150
648.714	4066
649.196	4192
649.677	4186
650.159	4175
650.64	4126
651.122	4202
651.603	4147
652.085	4206
652.567	4218
653.049	4180
653.53	4170
654.012	4232
654.494	4160
654.976	4204
655.458	4190
655.94	4176
656.422	4251
656.904	4190
657.386	4158
657.868	4168
658.35	4141
658.833	4172
659.315	4192
659.797	4137
660.279	4145
660.762	4181
661.244	4128
661.726	4064
662.209	4070
662.691	4070
663.174	4004
663.656	4034
664.139	4042
664.621	3987
665.104	3964
665.587	4023
666.069	4051
666.552	4064
667.035	4021
667.517	4032
668	4075
668.483	4073
668.966	4037
669.449	4027
669.932	4015
670.415	4056
670.898	4026
671.381	4045
671.864	4074
672.347	4024
672.83	4029
673.313	4031
673.797	4010
674.28	4101
674.763	4131
675.247	4160
675.73	4135
676.213	4159
676.697	4182
677.18	4185
677.664	4210
678.147	4199
678.631	4226
679.114	4252
679.598	4232
680.082	4273
680.565	4285
681.049	4264
681.533	4265
682.017	4283
682.5	4266
682.984	4302
683.468	4298
683.952	4225
684.436	4302
684.92	4265
685.404	4288
685.888	4333
686.372	4312
686.856	4341
687.341	4392
687.825	4319
688.309	4333
688.793	4316
689.278	4266
689.762	4302
690.246	4282
690.731	4298
691.215	4314
691.7	4208
692.184	4244
692.669	4242
693.153	4287
693.638	4223
694.122	4210
694.607	4238
695.092	4185
695.577	4212
696.061	4140
696.546	4149
697.031	4132
697.516	4168
698.001	4173
698.486	4166
698.971	4233
699.456	4144
699.941	4140
700.426	4132
700.911	4186
701.396	4161
701.881	4211
702.366	4198
702.852	4182
703.337	4203
703.822	4178
704.308	4174
704.793	4209
705.278	4230
705.764	4240
706.249	4206
706.735	4177
707.22	4205
707.706	4135
708.191	4215
708.677	4241
709.163	4202
709.648	4223
710.134	4288
710.62	4248
711.106	4257
711.592	4318
712.077	4296
712.563	4184
713.049	4164
713.535	4246
714.021	4226
714.507	4223
714.993	4190
715.479	4236
715.966	4189
716.452	4184
716.938	4181
717.424	4065
717.91	4141
718.397	4128
718.883	4120
719.369	4133
719.856	4086
720.342	4143
720.829	4089
721.315	4111
721.802	4080
722.288	4111
722.775	3942
723.262	3836
723.748	3997
724.235	3989
724.722	4066
725.208	4012
725.695	4013
726.182	3987
726.669	3906
727.156	3915
727.643	3868
728.13	3857
728.617	3819
729.104	3824
729.591	3801
730.078	3832
730.565	3855
731.052	3799
731.539	3816
732.027	3791
732.514	3737
733.001	3770
733.488	3750
733.976	3741
734.463	3727
734.951	3719
735.438	3767
735.926	3734
736.413	3782
736.901	3743
737.388	3799
737.876	3785
738.364	3757
738.851	3766
739.339	3763
739.827	3795
740.314	3685
740.802	3721
741.29	3730
741.778	3671
742.266	3687
742.754	3700
743.242	3723
743.73	3647
744.218	3630
744.706	3582
745.194	3612
745.682	3592
746.17	3600
746.659	3638
747.147	3545
747.635	3564
748.123	3554
748.612	3512
749.1	3509
749.589	3553
750.077	3519
750.566	3504
751.054	3509
751.543	3529
752.031	3466
752.52	3455
753.008	3378
753.497	3377
753.986	3371
754.474	3360
754.963	3393
755.452	3350
755.941	3338
756.43	3337
756.919	3324
757.408	3306
757.896	3327
758.385	3333
758.875	3292
759.364	3255
759.853	3218
760.342	3155
760.831	3211
761.32	3183
761.809	3135
762.299	3152
762.788	3169
763.277	3156
763.767	3110
764.256	3115
764.745	3063
765.235	3099
765.724	3009
766.214	3057
766.703	3037
767.193	3006
767.683	3016
768.172	2962
768.662	2988
769.152	2970
769.641	2962
770.131	2905
770.621	2947
771.111	2896
771.601	2883
772.09	2847
772.58	2816
773.07	2829
773.56	2864
774.05	2833
774.54	2834
775.031	2824
775.521	2798
776.011	2779
776.501	2791
776.991	2739
777.482	2760
777.972	2700
778.462	2695
778.953	2715
779.443	2694
779.933	2692
780.424	2660
780.914	2692
781.405	2701
781.895	2675
782.386	2667
782.877	2652
783.367	2595
783.858	2568
784.349	2569
784.839	2546
785.33	2549
785.821	2545
786.312	2527
786.803	2546
787.293	2558
787.784	2505
788.275	2466
788.766	2438
789.257	2476
789.748	2423
790.24	2408
790.731	2427
791.222	2382
791.713	2377
792.204	2377
792.696	2324
793.187	2342
793.678	2325
794.169	2257
794.661	2287
795.152	2261
795.644	2245
796.135	2241
796.627	2263
797.118	2219
797.61	2206
798.101	2179
798.593	2201
799.085	2167
799.576	2179
800.068	2139
800.56	2138
801.052	2087
801.544	2086
802.035	2102
802.527	2062
803.019	2043
803.511	2026
804.003	2014
804.495	2023
804.987	1994
805.479	1953
805.971	1974
806.464	1970
806.956	1934
807.448	1926
807.94	1933
808.433	1910
808.925	1909
809.417	1889
809.91	1876
810.402	1822
810.894	1823
811.387	1842
811.879	1822
812.372	1831
812.865	1804
813.357	1803
813.85	1786
814.342	1784
814.835	1786
815.328	1777
815.821	1745
816.313	1743
816.806	1751
817.299	1724
817.792	1723
818.285	1702
818.778	1729
819.271	1728
819.764	1706
820.257	1717
820.75	1727
821.243	1719
821.736	1704
822.229	1723
822.722	1713
823.216	1742
