Data from lamp5helium_sterk_Subt4__75__530.txt Node

Date: Wed Apr 09 10:18:37 CEST 2025
User: fys-lab-0081
Spectrometer: S04999
Trigger mode: 0
Resolution mode: 1024 pixels
Integration Time (sec): 1.000000E-1
Scans to average: 1
Nonlinearity correction enabled: false
Boxcar width: 0
Baseline correction enabled: true
XAxis mode: Wavelengths
Number of Pixels in Spectrum: 1024
>>>>>Begin Spectral Data<<<<<
336.42	3
336.877	3
337.334	4
337.792	0
338.249	3
338.706	-1
339.164	0
339.621	-1
340.079	-1
340.536	8
340.994	8
341.452	-1
341.909	1
342.367	-3
342.825	0
343.283	6
343.741	1
344.198	2
344.656	-1
345.114	1
345.572	0
346.03	5
346.488	2
346.947	0
347.405	2
347.863	0
348.321	5
348.779	2
349.238	3
349.696	0
350.154	3
350.613	6
351.071	2
351.53	5
351.988	0
352.447	-4
352.905	5
353.364	1
353.823	4
354.282	2
354.74	3
355.199	2
355.658	3
356.117	4
356.576	4
357.035	2
357.494	7
357.953	8
358.412	4
358.871	-1
359.33	4
359.789	7
360.249	3
360.708	7
361.167	2
361.626	5
362.086	1
362.545	7
363.005	6
363.464	3
363.924	5
364.383	7
364.843	3
365.303	8
365.762	4
366.222	7
366.682	6
367.142	8
367.601	7
368.061	5
368.521	9
368.981	5
369.441	9
369.901	10
370.361	8
370.821	3
371.282	11
371.742	12
372.202	11
372.662	14
373.123	8
373.583	8
374.043	10
374.504	5
374.964	5
375.425	6
375.885	14
376.346	10
376.806	9
377.267	9
377.728	16
378.188	10
378.649	13
379.11	10
379.571	13
380.032	12
380.493	14
380.954	15
381.414	11
381.876	14
382.337	19
382.798	20
383.259	18
383.72	13
384.181	15
384.642	14
385.104	22
385.565	27
386.026	17
386.488	17
386.949	21
387.411	23
387.872	19
388.334	25
388.795	22
389.257	27
389.719	26
390.181	24
390.642	30
391.104	25
391.566	24
392.028	33
392.49	28
392.952	30
393.414	28
393.876	24
394.338	29
394.8	28
395.262	34
395.724	33
396.186	38
396.648	37
397.111	37
397.573	35
398.035	40
398.498	35
398.96	34
399.423	34
399.885	41
400.348	37
400.81	45
401.273	39
401.736	45
402.198	41
402.661	47
403.124	45
403.587	49
404.049	49
404.512	49
404.975	53
405.438	50
405.901	51
406.364	53
406.827	54
407.29	56
407.754	51
408.217	55
408.68	51
409.143	53
409.607	61
410.07	56
410.533	54
410.997	60
411.46	55
411.924	60
412.387	61
412.851	61
413.314	63
413.778	63
414.242	66
414.705	66
415.169	69
415.633	67
416.097	73
416.561	71
417.024	74
417.488	77
417.952	73
418.416	79
418.88	73
419.344	78
419.809	74
420.273	76
420.737	77
421.201	74
421.665	80
422.13	82
422.594	83
423.059	86
423.523	88
423.987	89
424.452	89
424.916	95
425.381	92
425.846	95
426.31	99
426.775	99
427.24	101
427.704	95
428.169	101
428.634	99
429.099	99
429.564	100
430.029	108
430.494	107
430.959	108
431.424	102
431.889	104
432.354	109
432.819	107
433.284	110
433.75	111
434.215	117
434.68	120
435.146	129
435.611	144
436.077	146
436.542	146
437.008	143
437.473	140
437.939	144
438.404	144
438.87	150
439.336	145
439.801	143
440.267	147
440.733	158
441.199	156
441.665	151
442.131	160
442.596	159
443.062	156
443.529	165
443.995	170
444.461	173
444.927	181
445.393	183
445.859	191
446.325	194
446.792	218
447.258	215
447.724	214
448.191	220
448.657	225
449.124	235
449.59	228
450.057	243
450.523	245
450.99	247
451.457	251
451.923	256
452.39	253
452.857	260
453.324	250
453.791	259
454.257	258
454.724	264
455.191	268
455.658	265
456.125	283
456.592	271
457.059	277
457.527	281
457.994	296
458.461	295
458.928	307
459.396	299
459.863	307
460.33	307
460.798	309
461.265	311
461.732	315
462.2	324
462.668	317
463.135	328
463.603	320
464.07	325
464.538	319
465.006	332
465.474	328
465.941	322
466.409	329
466.877	326
467.345	335
467.813	331
468.281	333
468.749	338
469.217	341
469.685	345
470.153	346
470.621	349
471.09	352
471.558	371
472.026	372
472.494	381
472.963	386
473.431	402
473.9	410
474.368	425
474.837	429
475.305	427
475.774	448
476.242	459
476.711	454
477.18	466
477.648	466
478.117	467
478.586	471
479.055	466
479.524	476
479.993	476
480.462	475
480.93	472
481.399	477
481.869	481
482.338	476
482.807	488
483.276	488
483.745	495
484.214	499
484.684	510
485.153	509
485.622	514
486.092	533
486.561	520
487.031	538
487.5	553
487.97	563
488.439	578
488.909	597
489.378	620
489.848	617
490.318	628
490.787	650
491.257	673
491.727	669
492.197	687
492.667	677
493.137	680
493.607	694
494.077	704
494.547	697
495.017	698
495.487	708
495.957	720
496.427	705
496.897	705
497.368	720
497.838	710
498.308	733
498.779	734
499.249	751
499.719	759
500.19	759
500.66	765
501.131	768
501.602	783
502.072	779
502.543	795
503.014	825
503.484	831
503.955	854
504.426	884
504.897	890
505.368	904
505.838	925
506.309	948
506.78	976
507.251	997
507.722	1015
508.194	1042
508.665	1062
509.136	1046
509.607	1091
510.078	1105
510.549	1111
511.021	1133
511.492	1141
511.964	1159
512.435	1182
512.906	1175
513.378	1189
513.849	1203
514.321	1218
514.793	1224
515.264	1242
515.736	1250
516.208	1277
516.679	1287
517.151	1296
517.623	1310
518.095	1339
518.567	1350
519.038	1369
519.51	1368
519.982	1403
520.454	1408
520.927	1435
521.399	1457
521.871	1473
522.343	1478
522.815	1498
523.287	1495
523.76	1511
524.232	1532
524.704	1552
525.177	1527
525.649	1541
526.122	1550
526.594	1524
527.067	1560
527.539	1576
528.012	1573
528.484	1561
528.957	1576
529.43	1574
529.903	1563
530.375	1618
530.848	1595
531.321	1611
531.794	1608
532.267	1654
532.74	1627
533.213	1633
533.686	1668
534.159	1658
534.632	1696
535.105	1716
535.578	1745
536.051	1750
536.525	1767
536.998	1762
537.471	1799
537.945	1775
538.418	1818
538.891	1826
539.365	1849
539.838	1857
540.312	1870
540.786	1899
541.259	1890
541.733	1914
542.206	1922
542.68	1897
543.154	1896
543.628	1899
544.101	1951
544.575	1937
545.049	1891
545.523	1928
545.997	1942
546.471	1960
546.945	1923
547.419	1944
547.893	1873
548.367	1922
548.842	1901
549.316	1907
549.79	1930
550.264	1912
550.739	1936
551.213	1923
551.687	1933
552.162	1960
552.636	1943
553.111	1934
553.585	1993
554.06	1974
554.534	2001
555.009	1989
555.484	2027
555.958	2059
556.433	2068
556.908	2095
557.383	2075
557.858	2130
558.333	2138
558.807	2127
559.282	2137
559.757	2205
560.232	2218
560.708	2192
561.183	2171
561.658	2197
562.133	2204
562.608	2188
563.083	2237
563.559	2186
564.034	2206
564.509	2203
564.985	2217
565.46	2191
565.936	2244
566.411	2249
566.887	2213
567.362	2234
567.838	2245
568.313	2263
568.789	2230
569.265	2221
569.74	2245
570.216	2239
570.692	2279
571.168	2271
571.644	2256
572.12	2263
572.596	2291
573.071	2305
573.547	2371
574.024	2401
574.5	2432
574.976	2445
575.452	2477
575.928	2496
576.404	2514
576.881	2599
577.357	2564
577.833	2571
578.31	2640
578.786	2685
579.262	2738
579.739	2696
580.215	2756
580.692	2743
581.169	2731
581.645	2742
582.122	2833
582.598	2817
583.075	2824
583.552	2851
584.029	2844
584.506	2823
584.982	2800
585.459	2858
585.936	2834
586.413	2863
586.89	2921
587.367	2901
587.844	2968
588.321	2949
588.799	2945
589.276	2908
589.753	2946
590.23	2975
590.707	2969
591.185	2969
591.662	2971
592.139	3013
592.617	3066
593.094	3057
593.572	3061
594.049	3102
594.527	3143
595.004	3172
595.482	3239
595.96	3211
596.437	3223
596.915	3319
597.393	3250
597.871	3320
598.349	3280
598.826	3360
599.304	3363
599.782	3435
600.26	3401
600.738	3499
601.216	3486
601.694	3517
602.173	3547
602.651	3541
603.129	3473
603.607	3521
604.085	3543
604.564	3530
605.042	3538
605.52	3517
605.999	3624
606.477	3539
606.956	3550
607.434	3595
607.913	3640
608.391	3628
608.87	3612
609.348	3568
609.827	3600
610.306	3641
610.785	3693
611.263	3707
611.742	3671
612.221	3614
612.7	3638
613.179	3653
613.658	3612
614.137	3673
614.616	3691
615.095	3628
615.574	3693
616.053	3725
616.532	3693
617.011	3705
617.491	3719
617.97	3725
618.449	3792
618.928	3817
619.408	3788
619.887	3828
620.367	3845
620.846	3907
621.326	3883
621.805	3968
622.285	3947
622.764	3972
623.244	3987
623.724	4035
624.203	4050
624.683	3979
625.163	4056
625.643	4057
626.123	4018
626.602	4133
627.082	4044
627.562	4050
628.042	4138
628.522	4102
629.002	4055
629.482	4073
629.963	4064
630.443	4053
630.923	4073
631.403	4090
631.883	4080
632.364	4096
632.844	4061
633.324	4100
633.805	4109
634.285	4070
634.766	4034
635.246	4037
635.727	4033
636.207	4055
636.688	4064
637.168	4079
637.649	4043
638.13	4018
638.611	4057
639.091	4054
639.572	4026
640.053	4000
640.534	4048
641.015	4028
641.496	3989
641.977	4064
642.458	4026
642.939	4053
643.42	4057
643.901	4067
644.382	4112
644.863	4105
645.345	4106
645.826	4114
646.307	4124
646.788	4200
647.27	4120
647.751	4115
648.233	4147
648.714	4055
649.196	4175
649.677	4170
650.159	4171
650.64	4114
651.122	4190
651.603	4139
652.085	4197
652.567	4214
653.049	4163
653.53	4157
654.012	4218
654.494	4143
654.976	4186
655.458	4172
655.94	4163
656.422	4236
656.904	4189
657.386	4143
657.868	4151
658.35	4128
658.833	4170
659.315	4178
659.797	4134
660.279	4125
660.762	4163
661.244	4113
661.726	4062
662.209	4052
662.691	4059
663.174	4004
663.656	4025
664.139	4036
664.621	3981
665.104	3956
665.587	4019
666.069	4049
666.552	4055
667.035	4013
667.517	4027
668	4061
668.483	4066
668.966	4018
669.449	4014
669.932	4018
670.415	4042
670.898	4015
671.381	4039
671.864	4070
672.347	4020
672.83	4030
673.313	4030
673.797	4006
674.28	4090
674.763	4127
675.247	4156
675.73	4131
676.213	4151
676.697	4175
677.18	4171
677.664	4197
678.147	4194
678.631	4204
679.114	4235
679.598	4223
680.082	4271
680.565	4278
681.049	4265
681.533	4254
682.017	4274
682.5	4261
682.984	4283
683.468	4278
683.952	4215
684.436	4294
684.92	4261
685.404	4289
685.888	4321
686.372	4306
686.856	4331
687.341	4377
687.825	4319
688.309	4321
688.793	4308
689.278	4250
689.762	4291
690.246	4276
690.731	4289
691.215	4317
691.7	4203
692.184	4250
692.669	4228
693.153	4272
693.638	4219
694.122	4204
694.607	4221
695.092	4164
695.577	4208
696.061	4129
696.546	4144
697.031	4130
697.516	4151
698.001	4170
698.486	4153
698.971	4222
699.456	4137
699.941	4131
700.426	4131
700.911	4172
701.396	4159
701.881	4205
702.366	4183
702.852	4180
703.337	4197
703.822	4175
704.308	4173
704.793	4199
705.278	4224
705.764	4238
706.249	4202
706.735	4176
707.22	4195
707.706	4125
708.191	4212
708.677	4234
709.163	4195
709.648	4223
710.134	4279
710.62	4228
711.106	4248
711.592	4317
712.077	4291
712.563	4180
713.049	4163
713.535	4236
714.021	4225
714.507	4214
714.993	4190
715.479	4240
715.966	4188
716.452	4176
716.938	4184
717.424	4062
717.91	4141
718.397	4128
718.883	4101
719.369	4126
719.856	4092
720.342	4144
720.829	4090
721.315	4106
721.802	4080
722.288	4097
722.775	3929
723.262	3821
723.748	3991
724.235	3987
724.722	4058
725.208	4003
725.695	4003
726.182	3988
726.669	3904
727.156	3918
727.643	3861
728.13	3845
728.617	3817
729.104	3813
729.591	3799
730.078	3831
730.565	3843
731.052	3796
731.539	3809
732.027	3790
732.514	3728
733.001	3764
733.488	3747
733.976	3731
734.463	3728
734.951	3723
735.438	3764
735.926	3733
736.413	3773
736.901	3739
737.388	3800
737.876	3784
738.364	3760
738.851	3766
739.339	3757
739.827	3796
740.314	3682
740.802	3710
741.29	3720
741.778	3671
742.266	3682
742.754	3691
743.242	3718
743.73	3634
744.218	3623
744.706	3574
745.194	3602
745.682	3585
746.17	3596
746.659	3625
747.147	3538
747.635	3563
748.123	3559
748.612	3511
749.1	3497
749.589	3544
750.077	3514
750.566	3490
751.054	3507
751.543	3527
752.031	3454
752.52	3433
753.008	3377
753.497	3375
753.986	3365
754.474	3353
754.963	3386
755.452	3348
755.941	3332
756.43	3330
756.919	3332
757.408	3300
757.896	3319
758.385	3328
758.875	3290
759.364	3243
759.853	3214
760.342	3155
760.831	3210
761.32	3177
761.809	3134
762.299	3142
762.788	3157
763.277	3153
763.767	3111
764.256	3110
764.745	3048
765.235	3090
765.724	3004
766.214	3053
766.703	3034
767.193	3001
767.683	3019
768.172	2959
768.662	2991
769.152	2965
769.641	2962
770.131	2898
770.621	2942
771.111	2899
771.601	2879
772.09	2843
772.58	2811
773.07	2823
773.56	2863
774.05	2828
774.54	2829
775.031	2814
775.521	2798
776.011	2773
776.501	2789
776.991	2723
777.482	2753
777.972	2691
778.462	2689
778.953	2714
779.443	2696
779.933	2689
780.424	2652
780.914	2685
781.405	2686
781.895	2664
782.386	2666
782.877	2648
783.367	2596
783.858	2566
784.349	2565
784.839	2538
785.33	2546
785.821	2542
786.312	2528
786.803	2541
787.293	2557
787.784	2507
788.275	2462
788.766	2435
789.257	2476
789.748	2421
790.24	2399
790.731	2421
791.222	2382
791.713	2369
792.204	2384
792.696	2318
793.187	2334
793.678	2323
794.169	2250
794.661	2285
795.152	2259
795.644	2236
796.135	2236
796.627	2257
797.118	2217
797.61	2206
798.101	2177
798.593	2200
799.085	2180
799.576	2184
800.068	2140
800.56	2135
801.052	2082
801.544	2083
802.035	2097
802.527	2069
803.019	2042
803.511	2024
804.003	2006
804.495	2022
804.987	1992
805.479	1951
805.971	1973
806.464	1977
806.956	1925
807.448	1931
807.94	1929
808.433	1911
808.925	1909
809.417	1888
809.91	1871
810.402	1816
810.894	1828
811.387	1838
811.879	1812
812.372	1831
812.865	1806
813.357	1797
813.85	1788
814.342	1780
814.835	1789
815.328	1774
815.821	1747
816.313	1738
816.806	1743
817.299	1729
817.792	1727
818.285	1702
818.778	1727
819.271	1725
819.764	1706
820.257	1713
820.75	1725
821.243	1723
821.736	1700
822.229	1710
822.722	1713
823.216	1749
