Data from lamp5helium_sterk_Subt2__72__72.txt Node

Date: Wed Apr 09 11:04:42 CEST 2025
User: fys-lab-0081
Spectrometer: S04999
Trigger mode: 0
Resolution mode: 1024 pixels
Integration Time (sec): 1.000000E-1
Scans to average: 1
Nonlinearity correction enabled: false
Boxcar width: 0
Baseline correction enabled: true
XAxis mode: Wavelengths
Number of Pixels in Spectrum: 1024
>>>>>Begin Spectral Data<<<<<
336.42	-2
336.877	2
337.334	1
337.792	1
338.249	3
338.706	3
339.164	1
339.621	3
340.079	1
340.536	3
340.994	2
341.452	4
341.909	2
342.367	3
342.825	-1
343.283	6
343.741	0
344.198	3
344.656	-3
345.114	0
345.572	1
346.03	1
346.488	0
346.947	1
347.405	2
347.863	2
348.321	-1
348.779	4
349.238	-1
349.696	4
350.154	0
350.613	-1
351.071	-2
351.53	7
351.988	10
352.447	3
352.905	-3
353.364	-4
353.823	2
354.282	2
354.74	-5
355.199	5
355.658	0
356.117	-1
356.576	3
357.035	-3
357.494	-2
357.953	-1
358.412	4
358.871	0
359.33	-2
359.789	-2
360.249	2
360.708	3
361.167	4
361.626	0
362.086	-2
362.545	1
363.005	4
363.464	-3
363.924	1
364.383	2
364.843	1
365.303	3
365.762	6
366.222	-2
366.682	0
367.142	3
367.601	0
368.061	-2
368.521	4
368.981	0
369.441	9
369.901	4
370.361	1
370.821	0
371.282	6
371.742	3
372.202	4
372.662	4
373.123	1
373.583	0
374.043	3
374.504	1
374.964	1
375.425	2
375.885	2
376.346	7
376.806	6
377.267	4
377.728	8
378.188	4
378.649	-1
379.11	4
379.571	0
380.032	3
380.493	-1
380.954	5
381.414	5
381.876	3
382.337	1
382.798	6
383.259	4
383.72	5
384.181	0
384.642	1
385.104	3
385.565	5
386.026	8
386.488	10
386.949	7
387.411	3
387.872	8
388.334	12
388.795	10
389.257	9
389.719	4
390.181	9
390.642	6
391.104	11
391.566	9
392.028	5
392.49	11
392.952	14
393.414	10
393.876	12
394.338	5
394.8	7
395.262	5
395.724	15
396.186	11
396.648	14
397.111	10
397.573	15
398.035	12
398.498	12
398.96	11
399.423	11
399.885	11
400.348	16
400.81	11
401.273	10
401.736	12
402.198	16
402.661	17
403.124	11
403.587	20
404.049	17
404.512	14
404.975	15
405.438	11
405.901	19
406.364	17
406.827	15
407.29	16
407.754	11
408.217	20
408.68	14
409.143	20
409.607	24
410.07	21
410.533	17
410.997	15
411.46	19
411.924	26
412.387	25
412.851	17
413.314	18
413.778	19
414.242	21
414.705	21
415.169	22
415.633	20
416.097	21
416.561	23
417.024	20
417.488	24
417.952	24
418.416	20
418.88	16
419.344	16
419.809	24
420.273	22
420.737	21
421.201	24
421.665	25
422.13	27
422.594	31
423.059	26
423.523	29
423.987	22
424.452	26
424.916	30
425.381	29
425.846	25
426.31	35
426.775	36
427.24	29
427.704	31
428.169	32
428.634	36
429.099	40
429.564	31
430.029	31
430.494	36
430.959	30
431.424	35
431.889	38
432.354	41
432.819	35
433.284	45
433.75	35
434.215	39
434.68	37
435.146	40
435.611	43
436.077	46
436.542	42
437.008	45
437.473	46
437.939	44
438.404	43
438.87	45
439.336	51
439.801	51
440.267	51
440.733	52
441.199	47
441.665	53
442.131	54
442.596	50
443.062	52
443.529	61
443.995	59
444.461	57
444.927	58
445.393	59
445.859	60
446.325	67
446.792	69
447.258	66
447.724	75
448.191	76
448.657	72
449.124	67
449.59	71
450.057	82
450.523	80
450.99	83
451.457	78
451.923	81
452.39	82
452.857	87
453.324	86
453.791	86
454.257	87
454.724	88
455.191	89
455.658	90
456.125	94
456.592	87
457.059	90
457.527	89
457.994	96
458.461	94
458.928	100
459.396	98
459.863	106
460.33	100
460.798	106
461.265	108
461.732	106
462.2	106
462.668	103
463.135	105
463.603	108
464.07	115
464.538	107
465.006	107
465.474	112
465.941	110
466.409	106
466.877	106
467.345	107
467.813	108
468.281	118
468.749	112
469.217	111
469.685	116
470.153	123
470.621	120
471.09	120
471.558	124
472.026	128
472.494	129
472.963	129
473.431	129
473.9	138
474.368	149
474.837	148
475.305	146
475.774	147
476.242	156
476.711	154
477.18	158
477.648	152
478.117	161
478.586	162
479.055	157
479.524	162
479.993	166
480.462	161
480.93	157
481.399	163
481.869	158
482.338	160
482.807	169
483.276	168
483.745	165
484.214	169
484.684	172
485.153	176
485.622	179
486.092	181
486.561	177
487.031	188
487.5	186
487.97	189
488.439	193
488.909	204
489.378	207
489.848	211
490.318	214
490.787	230
491.257	228
491.727	228
492.197	232
492.667	235
493.137	236
493.607	234
494.077	241
494.547	242
495.017	239
495.487	241
495.957	251
496.427	245
496.897	244
497.368	256
497.838	244
498.308	250
498.779	254
499.249	258
499.719	262
500.19	266
500.66	266
501.131	268
501.602	278
502.072	268
502.543	278
503.014	291
503.484	296
503.955	296
504.426	306
504.897	307
505.368	312
505.838	325
506.309	327
506.78	344
507.251	352
507.722	361
508.194	368
508.665	372
509.136	369
509.607	383
510.078	391
510.549	390
511.021	401
511.492	398
511.964	406
512.435	411
512.906	412
513.378	418
513.849	420
514.321	426
514.793	427
515.264	437
515.736	440
516.208	452
516.679	458
517.151	462
517.623	466
518.095	473
518.567	479
519.038	492
519.51	491
519.982	498
520.454	497
520.927	508
521.399	516
521.871	518
522.343	527
522.815	533
523.287	527
523.76	532
524.232	548
524.704	550
525.177	541
525.649	545
526.122	553
526.594	543
527.067	551
527.539	559
528.012	563
528.484	559
528.957	569
529.43	563
529.903	565
530.375	581
530.848	570
531.321	582
531.794	590
532.267	597
532.74	587
533.213	588
533.686	598
534.159	596
534.632	611
535.105	615
535.578	632
536.051	629
536.525	634
536.998	630
537.471	651
537.945	642
538.418	652
538.891	656
539.365	666
539.838	675
540.312	668
540.786	669
541.259	677
541.733	687
542.206	692
542.68	680
543.154	684
543.628	692
544.101	704
544.575	691
545.049	673
545.523	682
545.997	689
546.471	694
546.945	695
547.419	704
547.893	675
548.367	697
548.842	689
549.316	693
549.79	697
550.264	700
550.739	706
551.213	711
551.687	703
552.162	715
552.636	711
553.111	714
553.585	734
554.06	723
554.534	737
555.009	735
555.484	753
555.958	759
556.433	761
556.908	775
557.383	770
557.858	784
558.333	783
558.807	782
559.282	795
559.757	823
560.232	808
560.708	800
561.183	807
561.658	816
562.133	815
562.608	810
563.083	831
563.559	814
564.034	817
564.509	817
564.985	817
565.46	813
565.936	832
566.411	828
566.887	822
567.362	828
567.838	828
568.313	833
568.789	823
569.265	834
569.74	834
570.216	828
570.692	841
571.168	843
571.644	850
572.12	846
572.596	851
573.071	857
573.547	889
574.024	898
574.5	902
574.976	906
575.452	923
575.928	937
576.404	940
576.881	969
577.357	956
577.833	964
578.31	991
578.786	996
579.262	1005
579.739	1001
580.215	1037
580.692	1030
581.169	1020
581.645	1025
582.122	1055
582.598	1061
583.075	1061
583.552	1059
584.029	1056
584.506	1057
584.982	1052
585.459	1069
585.936	1059
586.413	1072
586.89	1100
587.367	1085
587.844	1111
588.321	1100
588.799	1100
589.276	1089
589.753	1106
590.23	1120
590.707	1116
591.185	1118
591.662	1131
592.139	1140
592.617	1164
593.094	1157
593.572	1162
594.049	1178
594.527	1187
595.004	1190
595.482	1228
595.96	1220
596.437	1218
596.915	1245
597.393	1224
597.871	1257
598.349	1244
598.826	1268
599.304	1270
599.782	1301
600.26	1295
600.738	1331
601.216	1320
601.694	1326
602.173	1335
602.651	1345
603.129	1342
603.607	1347
604.085	1348
604.564	1360
605.042	1371
605.52	1368
605.999	1391
606.477	1357
606.956	1371
607.434	1387
607.913	1403
608.391	1395
608.87	1384
609.348	1367
609.827	1381
610.306	1387
610.785	1386
611.263	1391
611.742	1381
612.221	1366
612.7	1390
613.179	1395
613.658	1385
614.137	1401
614.616	1427
615.095	1405
615.574	1423
616.053	1430
616.532	1421
617.011	1427
617.491	1436
617.97	1435
618.449	1450
618.928	1467
619.408	1463
619.887	1475
620.367	1484
620.846	1496
621.326	1487
621.805	1523
622.285	1523
622.764	1543
623.244	1540
623.724	1551
624.203	1565
624.683	1536
625.163	1565
625.643	1555
626.123	1556
626.602	1590
627.082	1556
627.562	1563
628.042	1592
628.522	1585
629.002	1574
629.482	1583
629.963	1592
630.443	1569
630.923	1572
631.403	1595
631.883	1590
632.364	1600
632.844	1589
633.324	1592
633.805	1587
634.285	1570
634.766	1564
635.246	1563
635.727	1576
636.207	1577
636.688	1578
637.168	1564
637.649	1563
638.13	1563
638.611	1580
639.091	1580
639.572	1567
640.053	1551
640.534	1571
641.015	1579
641.496	1553
641.977	1584
642.458	1571
642.939	1581
643.42	1580
643.901	1583
644.382	1606
644.863	1608
645.345	1594
645.826	1601
646.307	1606
646.788	1628
647.27	1603
647.751	1612
648.233	1621
648.714	1587
649.196	1632
649.677	1624
650.159	1617
650.64	1599
651.122	1636
651.603	1608
652.085	1628
652.567	1650
653.049	1628
653.53	1635
654.012	1669
654.494	1638
654.976	1657
655.458	1647
655.94	1645
656.422	1675
656.904	1640
657.386	1616
657.868	1616
658.35	1615
658.833	1629
659.315	1632
659.797	1613
660.279	1611
660.762	1612
661.244	1596
661.726	1584
662.209	1587
662.691	1596
663.174	1563
663.656	1580
664.139	1580
664.621	1568
665.104	1564
665.587	1585
666.069	1599
666.552	1594
667.035	1573
667.517	1585
668	1603
668.483	1603
668.966	1593
669.449	1586
669.932	1585
670.415	1611
670.898	1594
671.381	1598
671.864	1606
672.347	1576
672.83	1585
673.313	1582
673.797	1583
674.28	1618
674.763	1615
675.247	1620
675.73	1608
676.213	1617
676.697	1629
677.18	1641
677.664	1637
678.147	1634
678.631	1656
679.114	1675
679.598	1682
680.082	1700
680.565	1687
681.049	1688
681.533	1685
682.017	1695
682.5	1690
682.984	1696
683.468	1695
683.952	1671
684.436	1716
684.92	1686
685.404	1708
685.888	1710
686.372	1704
686.856	1702
687.341	1724
687.825	1692
688.309	1700
688.793	1709
689.278	1694
689.762	1709
690.246	1694
690.731	1701
691.215	1703
691.7	1665
692.184	1692
692.669	1682
693.153	1684
693.638	1658
694.122	1665
694.607	1692
695.092	1659
695.577	1682
696.061	1657
696.546	1673
697.031	1656
697.516	1679
698.001	1679
698.486	1675
698.971	1696
699.456	1650
699.941	1648
700.426	1650
700.911	1669
701.396	1667
701.881	1682
702.366	1665
702.852	1667
703.337	1661
703.822	1655
704.308	1655
704.793	1669
705.278	1667
705.764	1673
706.249	1664
706.735	1661
707.22	1686
707.706	1661
708.191	1680
708.677	1681
709.163	1667
709.648	1672
710.134	1712
710.62	1700
711.106	1704
711.592	1714
712.077	1699
712.563	1654
713.049	1652
713.535	1699
714.021	1699
714.507	1689
714.993	1667
715.479	1682
715.966	1663
716.452	1668
716.938	1677
717.424	1628
717.91	1663
718.397	1647
718.883	1630
719.369	1639
719.856	1625
720.342	1640
720.829	1619
721.315	1626
721.802	1612
722.288	1622
722.775	1560
723.262	1514
723.748	1591
724.235	1588
724.722	1611
725.208	1566
725.695	1570
726.182	1567
726.669	1556
727.156	1578
727.643	1561
728.13	1554
728.617	1536
729.104	1543
729.591	1525
730.078	1545
730.565	1543
731.052	1524
731.539	1527
732.027	1532
732.514	1499
733.001	1518
733.488	1503
733.976	1510
734.463	1502
734.951	1505
735.438	1515
735.926	1489
736.413	1511
736.901	1499
737.388	1509
737.876	1502
738.364	1500
738.851	1505
739.339	1509
739.827	1523
740.314	1469
740.802	1483
741.29	1487
741.778	1471
742.266	1470
742.754	1485
743.242	1496
743.73	1474
744.218	1462
744.706	1457
745.194	1475
745.682	1475
746.17	1473
746.659	1475
747.147	1444
747.635	1447
748.123	1438
748.612	1424
749.1	1403
749.589	1412
750.077	1415
750.566	1420
751.054	1423
751.543	1425
752.031	1393
752.52	1391
753.008	1363
753.497	1365
753.986	1370
754.474	1361
754.963	1379
755.452	1353
755.941	1336
756.43	1336
756.919	1336
757.408	1319
757.896	1335
758.385	1340
758.875	1327
759.364	1316
759.853	1307
760.342	1276
760.831	1305
761.32	1292
761.809	1276
762.299	1283
762.788	1287
763.277	1287
763.767	1276
764.256	1282
764.745	1270
765.235	1284
765.724	1251
766.214	1277
766.703	1260
767.193	1237
767.683	1237
768.172	1214
768.662	1221
769.152	1218
769.641	1219
770.131	1184
770.621	1207
771.111	1185
771.601	1191
772.09	1173
772.58	1156
773.07	1163
773.56	1166
774.05	1143
774.54	1137
775.031	1121
775.521	1126
776.011	1125
776.501	1136
776.991	1107
777.482	1117
777.972	1096
778.462	1089
778.953	1104
779.443	1087
779.933	1093
780.424	1092
780.914	1102
781.405	1108
781.895	1100
782.386	1102
782.877	1090
783.367	1071
783.858	1067
784.349	1068
784.839	1056
785.33	1057
785.821	1061
786.312	1063
786.803	1061
787.293	1061
787.784	1049
788.275	1034
788.766	1030
789.257	1051
789.748	1027
790.24	1013
790.731	1013
791.222	995
791.713	994
792.204	999
792.696	966
793.187	978
793.678	972
794.169	934
794.661	956
795.152	936
795.644	927
796.135	935
796.627	925
797.118	916
797.61	908
798.101	899
798.593	908
799.085	886
799.576	897
800.068	889
800.56	895
801.052	873
801.544	872
802.035	869
802.527	864
803.019	851
803.511	849
804.003	848
804.495	852
804.987	850
805.479	826
805.971	830
806.464	836
806.956	816
807.448	811
807.94	810
808.433	808
808.925	805
809.417	797
809.91	794
810.402	781
810.894	785
811.387	793
811.879	787
812.372	787
812.865	775
813.357	768
813.85	767
814.342	760
814.835	761
815.328	754
815.821	746
816.313	747
816.806	747
817.299	742
817.792	742
818.285	731
818.778	744
819.271	739
819.764	734
820.257	735
820.75	729
821.243	735
821.736	725
822.229	729
822.722	720
823.216	736
