Data from lamp5helium_sterk_Subt2__35__35.txt Node

Date: Wed Apr 09 11:04:38 CEST 2025
User: fys-lab-0081
Spectrometer: S04999
Trigger mode: 0
Resolution mode: 1024 pixels
Integration Time (sec): 1.000000E-1
Scans to average: 1
Nonlinearity correction enabled: false
Boxcar width: 0
Baseline correction enabled: true
XAxis mode: Wavelengths
Number of Pixels in Spectrum: 1024
>>>>>Begin Spectral Data<<<<<
336.42	0
336.877	1
337.334	4
337.792	0
338.249	2
338.706	1
339.164	0
339.621	3
340.079	2
340.536	4
340.994	1
341.452	4
341.909	6
342.367	1
342.825	0
343.283	5
343.741	1
344.198	0
344.656	2
345.114	4
345.572	2
346.03	-3
346.488	1
346.947	3
347.405	5
347.863	3
348.321	2
348.779	6
349.238	1
349.696	4
350.154	-3
350.613	0
351.071	3
351.53	8
351.988	5
352.447	-2
352.905	-2
353.364	0
353.823	4
354.282	-2
354.74	-7
355.199	2
355.658	2
356.117	1
356.576	1
357.035	-4
357.494	-2
357.953	-2
358.412	-2
358.871	2
359.33	1
359.789	-1
360.249	3
360.708	4
361.167	-2
361.626	2
362.086	4
362.545	1
363.005	-2
363.464	-2
363.924	-2
364.383	2
364.843	-1
365.303	0
365.762	7
366.222	4
366.682	2
367.142	4
367.601	3
368.061	-1
368.521	0
368.981	3
369.441	12
369.901	2
370.361	1
370.821	0
371.282	1
371.742	2
372.202	5
372.662	6
373.123	-3
373.583	3
374.043	2
374.504	4
374.964	5
375.425	4
375.885	-2
376.346	4
376.806	5
377.267	3
377.728	7
378.188	8
378.649	1
379.11	5
379.571	-2
380.032	5
380.493	3
380.954	7
381.414	2
381.876	2
382.337	4
382.798	6
383.259	6
383.72	4
384.181	0
384.642	3
385.104	3
385.565	8
386.026	12
386.488	3
386.949	6
387.411	7
387.872	8
388.334	12
388.795	10
389.257	10
389.719	9
390.181	6
390.642	3
391.104	11
391.566	10
392.028	7
392.49	12
392.952	11
393.414	8
393.876	12
394.338	8
394.8	6
395.262	4
395.724	13
396.186	13
396.648	13
397.111	11
397.573	11
398.035	13
398.498	13
398.96	15
399.423	11
399.885	12
400.348	15
400.81	11
401.273	14
401.736	8
402.198	18
402.661	14
403.124	9
403.587	17
404.049	16
404.512	15
404.975	11
405.438	12
405.901	15
406.364	15
406.827	14
407.29	19
407.754	15
408.217	15
408.68	16
409.143	18
409.607	21
410.07	19
410.533	17
410.997	16
411.46	24
411.924	24
412.387	24
412.851	17
413.314	20
413.778	21
414.242	20
414.705	23
415.169	23
415.633	20
416.097	18
416.561	24
417.024	19
417.488	24
417.952	26
418.416	24
418.88	16
419.344	17
419.809	24
420.273	23
420.737	23
421.201	25
421.665	23
422.13	28
422.594	32
423.059	29
423.523	27
423.987	27
424.452	33
424.916	29
425.381	30
425.846	27
426.31	33
426.775	33
427.24	34
427.704	32
428.169	32
428.634	32
429.099	40
429.564	35
430.029	34
430.494	34
430.959	31
431.424	35
431.889	38
432.354	36
432.819	37
433.284	41
433.75	40
434.215	43
434.68	40
435.146	35
435.611	42
436.077	42
436.542	42
437.008	44
437.473	45
437.939	45
438.404	51
438.87	49
439.336	49
439.801	51
440.267	48
440.733	53
441.199	47
441.665	52
442.131	52
442.596	53
443.062	50
443.529	57
443.995	60
444.461	57
444.927	64
445.393	60
445.859	63
446.325	62
446.792	70
447.258	68
447.724	71
448.191	75
448.657	74
449.124	75
449.59	68
450.057	80
450.523	79
450.99	82
451.457	82
451.923	83
452.39	82
452.857	87
453.324	85
453.791	83
454.257	88
454.724	87
455.191	85
455.658	88
456.125	90
456.592	91
457.059	93
457.527	94
457.994	96
458.461	96
458.928	103
459.396	102
459.863	102
460.33	104
460.798	100
461.265	110
461.732	106
462.2	112
462.668	104
463.135	106
463.603	103
464.07	113
464.538	110
465.006	109
465.474	110
465.941	112
466.409	108
466.877	108
467.345	110
467.813	107
468.281	117
468.749	119
469.217	116
469.685	118
470.153	121
470.621	121
471.09	122
471.558	126
472.026	128
472.494	132
472.963	128
473.431	137
473.9	141
474.368	145
474.837	140
475.305	147
475.774	144
476.242	154
476.711	155
477.18	161
477.648	151
478.117	158
478.586	160
479.055	164
479.524	160
479.993	161
480.462	162
480.93	165
481.399	166
481.869	162
482.338	162
482.807	166
483.276	170
483.745	165
484.214	169
484.684	176
485.153	175
485.622	179
486.092	184
486.561	177
487.031	189
487.5	186
487.97	190
488.439	196
488.909	198
489.378	207
489.848	212
490.318	211
490.787	227
491.257	228
491.727	227
492.197	234
492.667	232
493.137	234
493.607	242
494.077	241
494.547	233
495.017	235
495.487	247
495.957	247
496.427	245
496.897	247
497.368	255
497.838	248
498.308	248
498.779	252
499.249	255
499.719	262
500.19	272
500.66	263
501.131	268
501.602	269
502.072	270
502.543	281
503.014	291
503.484	290
503.955	298
504.426	309
504.897	310
505.368	317
505.838	322
506.309	329
506.78	341
507.251	351
507.722	355
508.194	368
508.665	372
509.136	374
509.607	385
510.078	388
510.549	388
511.021	400
511.492	398
511.964	411
512.435	414
512.906	407
513.378	418
513.849	420
514.321	422
514.793	431
515.264	438
515.736	440
516.208	453
516.679	456
517.151	462
517.623	465
518.095	476
518.567	479
519.038	487
519.51	489
519.982	497
520.454	493
520.927	507
521.399	515
521.871	525
522.343	525
522.815	533
523.287	531
523.76	535
524.232	549
524.704	543
525.177	544
525.649	541
526.122	552
526.594	542
527.067	554
527.539	562
528.012	559
528.484	558
528.957	569
529.43	565
529.903	566
530.375	586
530.848	573
531.321	580
531.794	588
532.267	596
532.74	587
533.213	589
533.686	595
534.159	594
534.632	611
535.105	620
535.578	629
536.051	633
536.525	632
536.998	636
537.471	649
537.945	647
538.418	656
538.891	652
539.365	672
539.838	674
540.312	666
540.786	670
541.259	678
541.733	691
542.206	690
542.68	678
543.154	683
543.628	695
544.101	706
544.575	695
545.049	674
545.523	689
545.997	692
546.471	690
546.945	692
547.419	700
547.893	682
548.367	696
548.842	691
549.316	694
549.79	705
550.264	695
550.739	701
551.213	717
551.687	711
552.162	714
552.636	714
553.111	713
553.585	738
554.06	727
554.534	738
555.009	734
555.484	751
555.958	760
556.433	760
556.908	775
557.383	773
557.858	782
558.333	788
558.807	789
559.282	796
559.757	820
560.232	809
560.708	800
561.183	799
561.658	814
562.133	815
562.608	805
563.083	830
563.559	816
564.034	816
564.509	815
564.985	821
565.46	815
565.936	828
566.411	828
566.887	822
567.362	831
567.838	829
568.313	833
568.789	829
569.265	832
569.74	835
570.216	825
570.692	846
571.168	842
571.644	845
572.12	840
572.596	857
573.071	857
573.547	888
574.024	899
574.5	901
574.976	908
575.452	925
575.928	936
576.404	941
576.881	972
577.357	957
577.833	961
578.31	988
578.786	991
579.262	1009
579.739	1000
580.215	1031
580.692	1038
581.169	1015
581.645	1027
582.122	1061
582.598	1066
583.075	1056
583.552	1067
584.029	1059
584.506	1060
584.982	1050
585.459	1070
585.936	1050
586.413	1071
586.89	1099
587.367	1097
587.844	1113
588.321	1105
588.799	1101
589.276	1089
589.753	1104
590.23	1120
590.707	1118
591.185	1121
591.662	1137
592.139	1144
592.617	1162
593.094	1162
593.572	1168
594.049	1175
594.527	1188
595.004	1191
595.482	1226
595.96	1217
596.437	1212
596.915	1244
597.393	1233
597.871	1262
598.349	1249
598.826	1272
599.304	1275
599.782	1304
600.26	1294
600.738	1322
601.216	1312
601.694	1329
602.173	1331
602.651	1347
603.129	1342
603.607	1355
604.085	1360
604.564	1360
605.042	1372
605.52	1361
605.999	1396
606.477	1360
606.956	1371
607.434	1387
607.913	1403
608.391	1402
608.87	1385
609.348	1366
609.827	1375
610.306	1392
610.785	1392
611.263	1384
611.742	1382
612.221	1366
612.7	1398
613.179	1395
613.658	1382
614.137	1404
614.616	1424
615.095	1408
615.574	1420
616.053	1428
616.532	1422
617.011	1430
617.491	1438
617.97	1433
618.449	1446
618.928	1470
619.408	1466
619.887	1478
620.367	1489
620.846	1495
621.326	1485
621.805	1526
622.285	1524
622.764	1542
623.244	1541
623.724	1546
624.203	1567
624.683	1531
625.163	1561
625.643	1562
626.123	1555
626.602	1589
627.082	1563
627.562	1559
628.042	1589
628.522	1584
629.002	1574
629.482	1588
629.963	1587
630.443	1573
630.923	1571
631.403	1596
631.883	1588
632.364	1599
632.844	1592
633.324	1594
633.805	1595
634.285	1572
634.766	1566
635.246	1567
635.727	1581
636.207	1586
636.688	1573
637.168	1574
637.649	1569
638.13	1566
638.611	1587
639.091	1577
639.572	1567
640.053	1558
640.534	1570
641.015	1578
641.496	1554
641.977	1587
642.458	1569
642.939	1580
643.42	1582
643.901	1584
644.382	1609
644.863	1607
645.345	1596
645.826	1598
646.307	1604
646.788	1629
647.27	1612
647.751	1607
648.233	1631
648.714	1591
649.196	1632
649.677	1616
650.159	1623
650.64	1607
651.122	1634
651.603	1615
652.085	1627
652.567	1640
653.049	1632
653.53	1638
654.012	1669
654.494	1636
654.976	1659
655.458	1649
655.94	1647
656.422	1673
656.904	1643
657.386	1618
657.868	1626
658.35	1612
658.833	1628
659.315	1640
659.797	1616
660.279	1612
660.762	1619
661.244	1594
661.726	1587
662.209	1589
662.691	1592
663.174	1565
663.656	1576
664.139	1586
664.621	1575
665.104	1563
665.587	1583
666.069	1598
666.552	1595
667.035	1572
667.517	1583
668	1598
668.483	1607
668.966	1594
669.449	1583
669.932	1583
670.415	1602
670.898	1597
671.381	1602
671.864	1610
672.347	1577
672.83	1585
673.313	1591
673.797	1585
674.28	1622
674.763	1616
675.247	1626
675.73	1613
676.213	1623
676.697	1640
677.18	1639
677.664	1639
678.147	1643
678.631	1653
679.114	1677
679.598	1681
680.082	1693
680.565	1689
681.049	1683
681.533	1682
682.017	1701
682.5	1691
682.984	1699
683.468	1703
683.952	1674
684.436	1716
684.92	1689
685.404	1709
685.888	1719
686.372	1695
686.856	1697
687.341	1723
687.825	1701
688.309	1696
688.793	1710
689.278	1690
689.762	1716
690.246	1701
690.731	1697
691.215	1703
691.7	1661
692.184	1688
692.669	1684
693.153	1690
693.638	1661
694.122	1665
694.607	1689
695.092	1660
695.577	1688
696.061	1657
696.546	1671
697.031	1658
697.516	1676
698.001	1682
698.486	1676
698.971	1701
699.456	1652
699.941	1653
700.426	1645
700.911	1664
701.396	1671
701.881	1676
702.366	1664
702.852	1673
703.337	1662
703.822	1656
704.308	1656
704.793	1669
705.278	1668
705.764	1676
706.249	1661
706.735	1662
707.22	1683
707.706	1658
708.191	1685
708.677	1683
709.163	1672
709.648	1677
710.134	1707
710.62	1704
711.106	1703
711.592	1716
712.077	1702
712.563	1659
713.049	1657
713.535	1690
714.021	1703
714.507	1686
714.993	1677
715.479	1685
715.966	1663
716.452	1678
716.938	1681
717.424	1625
717.91	1664
718.397	1648
718.883	1645
719.369	1644
719.856	1625
720.342	1645
720.829	1623
721.315	1635
721.802	1612
722.288	1621
722.775	1561
723.262	1527
723.748	1593
724.235	1588
724.722	1609
725.208	1568
725.695	1574
726.182	1562
726.669	1554
727.156	1584
727.643	1564
728.13	1561
728.617	1537
729.104	1543
729.591	1532
730.078	1551
730.565	1548
731.052	1528
731.539	1533
732.027	1530
732.514	1506
733.001	1519
733.488	1506
733.976	1508
734.463	1503
734.951	1503
735.438	1516
735.926	1492
736.413	1511
736.901	1503
737.388	1512
737.876	1502
738.364	1496
738.851	1506
739.339	1513
739.827	1532
740.314	1474
740.802	1479
741.29	1482
741.778	1466
742.266	1472
742.754	1479
743.242	1500
743.73	1472
744.218	1463
744.706	1452
745.194	1477
745.682	1472
746.17	1485
746.659	1473
747.147	1440
747.635	1446
748.123	1439
748.612	1424
749.1	1404
749.589	1412
750.077	1420
750.566	1410
751.054	1422
751.543	1435
752.031	1397
752.52	1392
753.008	1362
753.497	1369
753.986	1368
754.474	1366
754.963	1385
755.452	1350
755.941	1343
756.43	1339
756.919	1332
757.408	1319
757.896	1330
758.385	1339
758.875	1322
759.364	1317
759.853	1303
760.342	1278
760.831	1305
761.32	1296
761.809	1275
762.299	1286
762.788	1291
763.277	1296
763.767	1281
764.256	1279
764.745	1266
765.235	1281
765.724	1252
766.214	1274
766.703	1258
767.193	1236
767.683	1240
768.172	1215
768.662	1220
769.152	1214
769.641	1219
770.131	1184
770.621	1205
771.111	1183
771.601	1191
772.09	1171
772.58	1160
773.07	1166
773.56	1161
774.05	1144
774.54	1134
775.031	1127
775.521	1123
776.011	1125
776.501	1136
776.991	1109
777.482	1117
777.972	1095
778.462	1100
778.953	1101
779.443	1098
779.933	1099
780.424	1083
780.914	1101
781.405	1104
781.895	1101
782.386	1102
782.877	1090
783.367	1069
783.858	1067
784.349	1070
784.839	1054
785.33	1060
785.821	1060
786.312	1059
786.803	1065
787.293	1062
787.784	1049
788.275	1037
788.766	1026
789.257	1045
789.748	1029
790.24	1017
790.731	1021
791.222	998
791.713	1001
792.204	1002
792.696	971
793.187	981
793.678	965
794.169	939
794.661	956
795.152	939
795.644	928
796.135	934
796.627	928
797.118	922
797.61	908
798.101	895
798.593	904
799.085	889
799.576	895
800.068	892
800.56	897
801.052	875
801.544	876
802.035	873
802.527	865
803.019	853
803.511	844
804.003	843
804.495	850
804.987	848
805.479	828
805.971	836
806.464	836
806.956	820
807.448	810
807.94	806
808.433	818
808.925	803
809.417	796
809.91	801
810.402	780
810.894	787
811.387	792
811.879	783
812.372	787
812.865	776
813.357	771
813.85	763
814.342	760
814.835	759
815.328	760
815.821	748
816.313	746
816.806	753
817.299	737
817.792	746
818.285	732
818.778	744
819.271	737
819.764	727
820.257	735
820.75	728
821.243	731
821.736	720
822.229	731
822.722	720
823.216	742
