Data from lamp5helium_sterk_Subt2__36__36.txt Node

Date: Wed Apr 09 11:04:38 CEST 2025
User: fys-lab-0081
Spectrometer: S04999
Trigger mode: 0
Resolution mode: 1024 pixels
Integration Time (sec): 1.000000E-1
Scans to average: 1
Nonlinearity correction enabled: false
Boxcar width: 0
Baseline correction enabled: true
XAxis mode: Wavelengths
Number of Pixels in Spectrum: 1024
>>>>>Begin Spectral Data<<<<<
336.42	1
336.877	3
337.334	-1
337.792	1
338.249	5
338.706	4
339.164	-1
339.621	-1
340.079	4
340.536	2
340.994	1
341.452	2
341.909	4
342.367	6
342.825	0
343.283	2
343.741	1
344.198	3
344.656	-1
345.114	-2
345.572	5
346.03	1
346.488	7
346.947	2
347.405	2
347.863	0
348.321	0
348.779	6
349.238	0
349.696	1
350.154	-1
350.613	0
351.071	3
351.53	5
351.988	0
352.447	-1
352.905	2
353.364	1
353.823	2
354.282	1
354.74	-5
355.199	2
355.658	6
356.117	-2
356.576	2
357.035	0
357.494	4
357.953	-1
358.412	2
358.871	5
359.33	3
359.789	1
360.249	-1
360.708	1
361.167	-3
361.626	0
362.086	2
362.545	1
363.005	4
363.464	-1
363.924	1
364.383	0
364.843	7
365.303	0
365.762	2
366.222	7
366.682	0
367.142	2
367.601	3
368.061	5
368.521	2
368.981	0
369.441	2
369.901	4
370.361	-4
370.821	0
371.282	1
371.742	3
372.202	4
372.662	3
373.123	2
373.583	1
374.043	6
374.504	0
374.964	4
375.425	2
375.885	1
376.346	9
376.806	8
377.267	0
377.728	6
378.188	6
378.649	5
379.11	6
379.571	-3
380.032	2
380.493	3
380.954	5
381.414	2
381.876	2
382.337	1
382.798	5
383.259	7
383.72	4
384.181	2
384.642	3
385.104	8
385.565	7
386.026	7
386.488	6
386.949	6
387.411	4
387.872	9
388.334	9
388.795	8
389.257	9
389.719	11
390.181	9
390.642	8
391.104	10
391.566	7
392.028	9
392.49	15
392.952	14
393.414	8
393.876	13
394.338	6
394.8	7
395.262	5
395.724	13
396.186	12
396.648	7
397.111	13
397.573	13
398.035	10
398.498	11
398.96	12
399.423	12
399.885	11
400.348	14
400.81	8
401.273	9
401.736	9
402.198	22
402.661	10
403.124	8
403.587	19
404.049	16
404.512	13
404.975	16
405.438	14
405.901	17
406.364	15
406.827	17
407.29	17
407.754	15
408.217	18
408.68	18
409.143	19
409.607	21
410.07	18
410.533	18
410.997	22
411.46	23
411.924	23
412.387	24
412.851	22
413.314	18
413.778	19
414.242	16
414.705	23
415.169	25
415.633	19
416.097	18
416.561	21
417.024	22
417.488	25
417.952	24
418.416	21
418.88	20
419.344	10
419.809	25
420.273	19
420.737	23
421.201	24
421.665	26
422.13	30
422.594	30
423.059	30
423.523	29
423.987	22
424.452	31
424.916	27
425.381	29
425.846	27
426.31	34
426.775	31
427.24	30
427.704	32
428.169	35
428.634	40
429.099	36
429.564	36
430.029	35
430.494	34
430.959	35
431.424	30
431.889	40
432.354	44
432.819	35
433.284	40
433.75	37
434.215	41
434.68	39
435.146	38
435.611	38
436.077	40
436.542	46
437.008	44
437.473	47
437.939	45
438.404	45
438.87	48
439.336	50
439.801	51
440.267	49
440.733	49
441.199	51
441.665	54
442.131	54
442.596	51
443.062	56
443.529	60
443.995	56
444.461	55
444.927	58
445.393	56
445.859	61
446.325	62
446.792	69
447.258	68
447.724	71
448.191	74
448.657	72
449.124	71
449.59	73
450.057	78
450.523	82
450.99	79
451.457	81
451.923	85
452.39	86
452.857	89
453.324	78
453.791	87
454.257	90
454.724	90
455.191	86
455.658	89
456.125	94
456.592	90
457.059	95
457.527	89
457.994	96
458.461	101
458.928	100
459.396	101
459.863	103
460.33	101
460.798	101
461.265	108
461.732	105
462.2	108
462.668	107
463.135	107
463.603	104
464.07	113
464.538	109
465.006	111
465.474	113
465.941	112
466.409	109
466.877	110
467.345	111
467.813	105
468.281	112
468.749	114
469.217	116
469.685	121
470.153	122
470.621	121
471.09	126
471.558	126
472.026	125
472.494	130
472.963	132
473.431	138
473.9	139
474.368	142
474.837	143
475.305	146
475.774	149
476.242	155
476.711	152
477.18	158
477.648	155
478.117	159
478.586	163
479.055	156
479.524	161
479.993	165
480.462	157
480.93	164
481.399	160
481.869	160
482.338	160
482.807	167
483.276	168
483.745	167
484.214	165
484.684	174
485.153	176
485.622	173
486.092	184
486.561	175
487.031	189
487.5	184
487.97	191
488.439	197
488.909	203
489.378	212
489.848	212
490.318	214
490.787	231
491.257	232
491.727	231
492.197	236
492.667	236
493.137	241
493.607	239
494.077	237
494.547	240
495.017	242
495.487	242
495.957	249
496.427	247
496.897	242
497.368	253
497.838	251
498.308	250
498.779	254
499.249	259
499.719	260
500.19	270
500.66	260
501.131	269
501.602	274
502.072	272
502.543	279
503.014	291
503.484	293
503.955	294
504.426	308
504.897	304
505.368	314
505.838	325
506.309	330
506.78	342
507.251	348
507.722	352
508.194	367
508.665	370
509.136	372
509.607	386
510.078	387
510.549	393
511.021	407
511.492	401
511.964	408
512.435	414
512.906	411
513.378	423
513.849	424
514.321	424
514.793	430
515.264	443
515.736	443
516.208	451
516.679	455
517.151	459
517.623	467
518.095	474
518.567	482
519.038	485
519.51	490
519.982	493
520.454	496
520.927	507
521.399	514
521.871	522
522.343	528
522.815	531
523.287	531
523.76	535
524.232	544
524.704	542
525.177	544
525.649	545
526.122	549
526.594	539
527.067	556
527.539	559
528.012	563
528.484	563
528.957	563
529.43	571
529.903	564
530.375	585
530.848	569
531.321	584
531.794	591
532.267	599
532.74	583
533.213	590
533.686	599
534.159	596
534.632	612
535.105	617
535.578	628
536.051	628
536.525	633
536.998	634
537.471	652
537.945	643
538.418	649
538.891	654
539.365	665
539.838	667
540.312	668
540.786	672
541.259	679
541.733	692
542.206	695
542.68	681
543.154	686
543.628	691
544.101	702
544.575	692
545.049	676
545.523	692
545.997	691
546.471	695
546.945	690
547.419	700
547.893	679
548.367	696
548.842	688
549.316	687
549.79	702
550.264	697
550.739	706
551.213	710
551.687	706
552.162	715
552.636	708
553.111	706
553.585	736
554.06	732
554.534	737
555.009	737
555.484	750
555.958	761
556.433	760
556.908	775
557.383	767
557.858	788
558.333	785
558.807	786
559.282	793
559.757	822
560.232	807
560.708	797
561.183	801
561.658	816
562.133	813
562.608	805
563.083	830
563.559	816
564.034	814
564.509	825
564.985	824
565.46	818
565.936	833
566.411	827
566.887	820
567.362	826
567.838	832
568.313	838
568.789	826
569.265	833
569.74	837
570.216	832
570.692	847
571.168	840
571.644	849
572.12	847
572.596	850
573.071	859
573.547	891
574.024	905
574.5	906
574.976	907
575.452	930
575.928	935
576.404	938
576.881	969
577.357	956
577.833	958
578.31	988
578.786	993
579.262	1010
579.739	1001
580.215	1037
580.692	1039
581.169	1022
581.645	1027
582.122	1058
582.598	1062
583.075	1056
583.552	1062
584.029	1065
584.506	1056
584.982	1054
585.459	1074
585.936	1057
586.413	1069
586.89	1095
587.367	1090
587.844	1112
588.321	1100
588.799	1100
589.276	1087
589.753	1108
590.23	1119
590.707	1119
591.185	1124
591.662	1131
592.139	1141
592.617	1157
593.094	1153
593.572	1163
594.049	1172
594.527	1176
595.004	1191
595.482	1223
595.96	1217
596.437	1213
596.915	1245
597.393	1230
597.871	1259
598.349	1249
598.826	1272
599.304	1269
599.782	1304
600.26	1296
600.738	1321
601.216	1317
601.694	1326
602.173	1334
602.651	1341
603.129	1339
603.607	1348
604.085	1352
604.564	1363
605.042	1374
605.52	1366
605.999	1391
606.477	1351
606.956	1369
607.434	1389.5
607.913	1410
608.391	1398
608.87	1381
609.348	1367
609.827	1374
610.306	1390
610.785	1391
611.263	1392
611.742	1390
612.221	1368
612.7	1389
613.179	1398
613.658	1386
614.137	1406
614.616	1426
615.095	1403
615.574	1425
616.053	1436
616.532	1424
617.011	1429
617.491	1436
617.97	1434
618.449	1453
618.928	1466
619.408	1465
619.887	1477
620.367	1490
620.846	1500
621.326	1484
621.805	1517
622.285	1523
622.764	1539
623.244	1539
623.724	1548
624.203	1564
624.683	1538
625.163	1569
625.643	1553
626.123	1555
626.602	1590
627.082	1561
627.562	1567
628.042	1584
628.522	1583
629.002	1575
629.482	1583
629.963	1586
630.443	1579
630.923	1576
631.403	1591
631.883	1592
632.364	1605
632.844	1589
633.324	1593
633.805	1590
634.285	1568
634.766	1563
635.246	1570
635.727	1576
636.207	1581
636.688	1572
637.168	1570
637.649	1567
638.13	1570
638.611	1588
639.091	1575
639.572	1565
640.053	1555
640.534	1578
641.015	1578
641.496	1551
641.977	1579
642.458	1562
642.939	1579
643.42	1585
643.901	1582
644.382	1606
644.863	1608
645.345	1600
645.826	1597
646.307	1599
646.788	1625
647.27	1606
647.751	1615
648.233	1632
648.714	1588
649.196	1630
649.677	1617
650.159	1619
650.64	1607
651.122	1637
651.603	1615
652.085	1623
652.567	1644
653.049	1638
653.53	1637
654.012	1669
654.494	1641
654.976	1661
655.458	1651
655.94	1643
656.422	1669
656.904	1641
657.386	1624
657.868	1621
658.35	1609
658.833	1631
659.315	1636
659.797	1612
660.279	1606
660.762	1621
661.244	1598
661.726	1589
662.209	1594
662.691	1597
663.174	1568
663.656	1576
664.139	1579
664.621	1569
665.104	1567
665.587	1580
666.069	1598
666.552	1594
667.035	1579
667.517	1584
668	1602
668.483	1613
668.966	1587
669.449	1586
669.932	1581
670.415	1605
670.898	1595
671.381	1605
671.864	1605
672.347	1572
672.83	1590
673.313	1594
673.797	1593
674.28	1615
674.763	1618
675.247	1626
675.73	1609
676.213	1620
676.697	1636
677.18	1636
677.664	1637
678.147	1642
678.631	1654
679.114	1678
679.598	1677
680.082	1694
680.565	1690
681.049	1682
681.533	1677
682.017	1695
682.5	1690
682.984	1691
683.468	1699
683.952	1670
684.436	1711
684.92	1691
685.404	1703
685.888	1716
686.372	1700
686.856	1703
687.341	1720
687.825	1700
688.309	1700
688.793	1709
689.278	1694
689.762	1713
690.246	1702
690.731	1698
691.215	1707
691.7	1664
692.184	1694
692.669	1685
693.153	1680
693.638	1665
694.122	1664
694.607	1688
695.092	1664
695.577	1687
696.061	1657
696.546	1665
697.031	1658
697.516	1676
698.001	1680
698.486	1677
698.971	1698
699.456	1652
699.941	1647
700.426	1648
700.911	1677
701.396	1671
701.881	1685
702.366	1669
702.852	1673
703.337	1669
703.822	1663
704.308	1655
704.793	1665
705.278	1671
705.764	1680
706.249	1656
706.735	1662
707.22	1681
707.706	1659
708.191	1682
708.677	1687
709.163	1669
709.648	1682
710.134	1711
710.62	1699
711.106	1706
711.592	1716
712.077	1698
712.563	1654
713.049	1658
713.535	1704
714.021	1701
714.507	1687
714.993	1667
715.479	1684
715.966	1668
716.452	1671
716.938	1682
717.424	1634
717.91	1668
718.397	1649
718.883	1636
719.369	1646
719.856	1624
720.342	1651
720.829	1625
721.315	1628
721.802	1621
722.288	1630
722.775	1561
723.262	1523
723.748	1592
724.235	1584
724.722	1612
725.208	1569
725.695	1567
726.182	1571
726.669	1561
727.156	1579
727.643	1562
728.13	1554
728.617	1540
729.104	1541
729.591	1527
730.078	1547
730.565	1545
731.052	1526
731.539	1531
732.027	1527
732.514	1507
733.001	1521
733.488	1502
733.976	1509
734.463	1505
734.951	1504
735.438	1513
735.926	1492
736.413	1512
736.901	1498
737.388	1507
737.876	1508
738.364	1502
738.851	1507
739.339	1512
739.827	1532
740.314	1469
740.802	1482
741.29	1490
741.778	1468
742.266	1472
742.754	1479
743.242	1492
743.73	1471
744.218	1472
744.706	1454
745.194	1479
745.682	1472
746.17	1476
746.659	1478
747.147	1441
747.635	1444
748.123	1444
748.612	1417
749.1	1399
749.589	1414
750.077	1414
750.566	1412
751.054	1420
751.543	1426
752.031	1398
752.52	1393
753.008	1362
753.497	1367
753.986	1363
754.474	1369
754.963	1374
755.452	1348
755.941	1336
756.43	1339
756.919	1339
757.408	1319
757.896	1333
758.385	1339
758.875	1327
759.364	1311
759.853	1300
760.342	1280
760.831	1307
761.32	1298
761.809	1275
762.299	1282
762.788	1291
763.277	1292
763.767	1281
764.256	1286
764.745	1265
765.235	1283
765.724	1252
766.214	1275
766.703	1262
767.193	1235
767.683	1235
768.172	1211
768.662	1225
769.152	1220
769.641	1221
770.131	1189
770.621	1198
771.111	1185
771.601	1184
772.09	1174
772.58	1152
773.07	1159
773.56	1167
774.05	1143
774.54	1134
775.031	1125
775.521	1121
776.011	1117
776.501	1139
776.991	1112
777.482	1118
777.972	1097
778.462	1096
778.953	1101
779.443	1097
779.933	1098
780.424	1079
780.914	1097
781.405	1106
781.895	1100
782.386	1099
782.877	1092
783.367	1073
783.858	1069
784.349	1065
784.839	1054
785.33	1061
785.821	1066
786.312	1056
786.803	1062
787.293	1061
787.784	1047
788.275	1035
788.766	1035
789.257	1042
789.748	1024
790.24	1011
790.731	1018
791.222	1000
791.713	993
792.204	996
792.696	971
793.187	978
793.678	970
794.169	941
794.661	952
795.152	934
795.644	928
796.135	933
796.627	927
797.118	918
797.61	908
798.101	896
798.593	905
799.085	887
799.576	895
800.068	890
800.56	898
801.052	877
801.544	873
802.035	871
802.527	866
803.019	855
803.511	847
804.003	844
804.495	848
804.987	845
805.479	831
805.971	827
806.464	837
806.956	818
807.448	813
807.94	807
808.433	816
808.925	803
809.417	799
809.91	797
810.402	780
810.894	786
811.387	799
811.879	785
812.372	784
812.865	778
813.357	771
813.85	765
814.342	763
814.835	760
815.328	754
815.821	748
816.313	744
816.806	748
817.299	744
817.792	746
818.285	727
818.778	739
819.271	738
819.764	730
820.257	734
820.75	731
821.243	736
821.736	725
822.229	729
822.722	727
823.216	739
