Data from lamp5helium_sterk_Subt2__57__57.txt Node

Date: Wed Apr 09 11:04:41 CEST 2025
User: fys-lab-0081
Spectrometer: S04999
Trigger mode: 0
Resolution mode: 1024 pixels
Integration Time (sec): 1.000000E-1
Scans to average: 1
Nonlinearity correction enabled: false
Boxcar width: 0
Baseline correction enabled: true
XAxis mode: Wavelengths
Number of Pixels in Spectrum: 1024
>>>>>Begin Spectral Data<<<<<
336.42	-2
336.877	1
337.334	-1
337.792	2
338.249	6
338.706	1
339.164	3
339.621	2
340.079	5
340.536	3
340.994	4
341.452	0
341.909	2
342.367	0
342.825	1
343.283	6
343.741	0
344.198	0
344.656	0
345.114	3
345.572	3
346.03	-2
346.488	2
346.947	4
347.405	6
347.863	3
348.321	-1
348.779	4
349.238	0
349.696	1
350.154	-2
350.613	-5
351.071	3
351.53	8
351.988	3
352.447	-2
352.905	-4
353.364	0
353.823	6
354.282	0
354.74	-6
355.199	4
355.658	4
356.117	1
356.576	-1
357.035	-5
357.494	2
357.953	3
358.412	3
358.871	3
359.33	0
359.789	0
360.249	-2
360.708	4
361.167	2
361.626	0
362.086	1
362.545	0
363.005	0
363.464	-2
363.924	4
364.383	1
364.843	-3
365.303	3
365.762	5
366.222	1
366.682	0
367.142	3
367.601	-1
368.061	0
368.521	0
368.981	0
369.441	4
369.901	6
370.361	5
370.821	4
371.282	-2
371.742	3
372.202	10
372.662	3
373.123	1
373.583	2
374.043	10
374.504	1
374.964	-4
375.425	-1
375.885	3
376.346	6
376.806	7
377.267	4
377.728	8
378.188	3
378.649	3
379.11	6
379.571	0
380.032	6
380.493	10
380.954	7
381.414	3
381.876	3
382.337	2
382.798	5
383.259	7
383.72	3
384.181	3
384.642	4
385.104	1
385.565	8
386.026	11
386.488	5
386.949	6
387.411	6
387.872	11
388.334	11
388.795	6
389.257	10
389.719	10
390.181	12
390.642	5
391.104	4
391.566	13
392.028	10
392.49	16
392.952	10
393.414	6
393.876	11
394.338	12
394.8	9
395.262	4
395.724	12
396.186	10
396.648	10
397.111	13
397.573	17
398.035	10
398.498	11
398.96	14
399.423	11
399.885	12
400.348	14
400.81	12
401.273	11
401.736	10
402.198	20
402.661	19
403.124	10
403.587	19
404.049	17.5
404.512	16
404.975	11
405.438	19
405.901	18
406.364	19
406.827	15
407.29	11
407.754	14
408.217	18
408.68	22
409.143	23
409.607	23
410.07	16
410.533	19
410.997	19
411.46	18
411.924	23
412.387	25
412.851	19
413.314	19
413.778	18
414.242	22
414.705	23
415.169	24
415.633	22
416.097	20
416.561	25
417.024	25
417.488	22
417.952	23
418.416	21
418.88	16
419.344	18
419.809	26
420.273	24
420.737	24
421.201	26
421.665	25
422.13	30
422.594	29
423.059	29
423.523	29
423.987	25
424.452	30
424.916	24
425.381	32
425.846	26
426.31	36
426.775	33
427.24	33
427.704	36
428.169	34
428.634	37
429.099	33
429.564	33
430.029	30
430.494	36
430.959	33
431.424	35
431.889	42
432.354	42
432.819	34
433.284	44
433.75	38
434.215	39
434.68	38
435.146	36
435.611	40
436.077	43
436.542	41
437.008	46
437.473	45
437.939	42
438.404	45
438.87	50
439.336	47
439.801	45
440.267	48
440.733	54
441.199	49
441.665	52
442.131	54
442.596	53
443.062	56
443.529	62
443.995	55
444.461	56
444.927	65
445.393	58
445.859	58
446.325	65
446.792	68
447.258	68
447.724	72
448.191	76
448.657	76
449.124	67
449.59	74
450.057	78
450.523	80
450.99	83
451.457	79
451.923	86
452.39	83
452.857	88
453.324	82
453.791	85
454.257	90
454.724	89
455.191	87
455.658	87
456.125	96
456.592	93
457.059	92
457.527	89
457.994	96
458.461	99
458.928	100
459.396	101
459.863	99
460.33	102
460.798	106
461.265	107
461.732	109
462.2	105
462.668	108
463.135	111
463.603	106
464.07	115
464.538	110
465.006	109
465.474	110
465.941	108
466.409	108
466.877	114
467.345	114
467.813	110
468.281	113
468.749	115
469.217	118
469.685	120
470.153	121
470.621	120
471.09	122
471.558	130
472.026	131
472.494	129
472.963	128
473.431	137
473.9	138
474.368	143
474.837	144
475.305	143
475.774	148
476.242	150
476.711	155
477.18	156
477.648	156
478.117	157
478.586	161
479.055	160
479.524	162
479.993	161
480.462	162
480.93	163
481.399	159
481.869	162
482.338	164
482.807	166
483.276	166
483.745	170
484.214	173
484.684	171
485.153	176
485.622	173
486.092	182
486.561	177
487.031	193
487.5	191
487.97	188
488.439	196
488.909	203
489.378	210
489.848	216
490.318	219
490.787	231
491.257	228
491.727	228
492.197	233
492.667	235
493.137	234
493.607	236
494.077	245
494.547	237
495.017	239
495.487	246
495.957	245
496.427	243
496.897	243
497.368	256
497.838	246
498.308	251
498.779	254
499.249	258
499.719	263
500.19	268
500.66	264
501.131	269
501.602	276
502.072	269
502.543	278
503.014	294
503.484	293
503.955	296
504.426	305
504.897	312
505.368	316
505.838	326
506.309	328
506.78	342
507.251	351
507.722	356
508.194	365
508.665	373
509.136	374
509.607	389
510.078	387
510.549	394
511.021	401
511.492	400
511.964	406
512.435	414
512.906	410
513.378	416
513.849	425
514.321	426
514.793	428
515.264	444
515.736	440
516.208	457
516.679	458
517.151	461
517.623	461
518.095	473
518.567	481
519.038	493
519.51	495
519.982	491
520.454	496
520.927	513
521.399	519
521.871	527
522.343	522
522.815	529
523.287	530
523.76	534
524.232	549
524.704	544
525.177	542
525.649	537
526.122	553
526.594	541
527.067	551
527.539	560
528.012	560
528.484	561
528.957	570
529.43	568
529.903	567
530.375	586
530.848	575
531.321	587
531.794	589
532.267	597
532.74	585
533.213	588
533.686	598
534.159	598
534.632	614
535.105	616
535.578	631
536.051	630
536.525	629
536.998	631
537.471	653
537.945	645
538.418	656
538.891	654
539.365	669
539.838	668
540.312	668
540.786	671
541.259	679
541.733	690
542.206	691
542.68	679
543.154	682
543.628	692
544.101	705
544.575	692
545.049	676
545.523	688
545.997	691
546.471	702
546.945	692
547.419	704
547.893	677
548.367	694
548.842	685
549.316	696
549.79	707
550.264	699
550.739	707
551.213	710
551.687	708
552.162	714
552.636	713
553.111	709
553.585	738
554.06	726
554.534	740
555.009	736
555.484	754
555.958	760
556.433	761
556.908	773
557.383	764
557.858	784
558.333	789
558.807	783
559.282	798
559.757	822
560.232	813
560.708	799
561.183	807
561.658	817
562.133	814
562.608	810
563.083	829
563.559	812
564.034	810
564.509	821
564.985	822
565.46	817
565.936	831
566.411	831
566.887	824
567.362	826
567.838	832
568.313	838
568.789	829
569.265	831
569.74	836
570.216	835
570.692	841
571.168	841
571.644	850
572.12	842
572.596	848
573.071	861
573.547	891
574.024	898
574.5	906
574.976	909
575.452	925
575.928	938
576.404	940
576.881	970
577.357	958
577.833	962
578.31	983
578.786	999
579.262	1014
579.739	1006
580.215	1035
580.692	1036
581.169	1022
581.645	1029
582.122	1061
582.598	1064
583.075	1056
583.552	1060
584.029	1059
584.506	1057
584.982	1052
585.459	1072
585.936	1059
586.413	1072
586.89	1097
587.367	1089
587.844	1109
588.321	1106
588.799	1100
589.276	1095
589.753	1107
590.23	1126
590.707	1124
591.185	1124
591.662	1133
592.139	1144
592.617	1163
593.094	1155
593.572	1164
594.049	1177
594.527	1184
595.004	1189
595.482	1228
595.96	1219
596.437	1215
596.915	1247
597.393	1226
597.871	1259
598.349	1251
598.826	1271
599.304	1273
599.782	1306
600.26	1293
600.738	1327
601.216	1319
601.694	1330
602.173	1335
602.651	1349
603.129	1342
603.607	1354
604.085	1353
604.564	1364
605.042	1373
605.52	1368
605.999	1399
606.477	1355
606.956	1367
607.434	1383.5
607.913	1400
608.391	1399
608.87	1380
609.348	1369
609.827	1384
610.306	1394
610.785	1393
611.263	1390
611.742	1385
612.221	1362
612.7	1395
613.179	1397
613.658	1385
614.137	1405
614.616	1425
615.095	1411
615.574	1428
616.053	1433
616.532	1426
617.011	1425
617.491	1436
617.97	1436
618.449	1448
618.928	1468
619.408	1461
619.887	1477
620.367	1483
620.846	1502
621.326	1487
621.805	1517
622.285	1519
622.764	1541
623.244	1544
623.724	1552
624.203	1562
624.683	1534
625.163	1563
625.643	1563
626.123	1557
626.602	1592
627.082	1554
627.562	1566
628.042	1596
628.522	1587
629.002	1580
629.482	1587
629.963	1589
630.443	1577
630.923	1570
631.403	1589
631.883	1593
632.364	1599
632.844	1589
633.324	1588
633.805	1590
634.285	1578
634.766	1563
635.246	1572
635.727	1585
636.207	1584
636.688	1573
637.168	1569
637.649	1568
638.13	1567
638.611	1590
639.091	1576
639.572	1570
640.053	1560
640.534	1574
641.015	1581
641.496	1554
641.977	1588
642.458	1571
642.939	1579
643.42	1579
643.901	1584
644.382	1611
644.863	1605
645.345	1599
645.826	1601
646.307	1602
646.788	1633
647.27	1609
647.751	1612
648.233	1630
648.714	1592
649.196	1627
649.677	1625
650.159	1619
650.64	1603
651.122	1637
651.603	1619
652.085	1626
652.567	1648
653.049	1637
653.53	1638
654.012	1663
654.494	1638
654.976	1661
655.458	1657
655.94	1643
656.422	1669
656.904	1644
657.386	1624
657.868	1621
658.35	1616
658.833	1636
659.315	1640
659.797	1612
660.279	1613
660.762	1619
661.244	1599
661.726	1589
662.209	1597
662.691	1596
663.174	1569
663.656	1575
664.139	1590
664.621	1571
665.104	1570
665.587	1580
666.069	1595
666.552	1594
667.035	1571
667.517	1585
668	1605
668.483	1605
668.966	1595
669.449	1592
669.932	1587
670.415	1600
670.898	1597
671.381	1599
671.864	1611
672.347	1580
672.83	1587
673.313	1591
673.797	1589
674.28	1614
674.763	1621
675.247	1620
675.73	1604
676.213	1615
676.697	1637
677.18	1637
677.664	1641
678.147	1642
678.631	1652
679.114	1678
679.598	1678
680.082	1697
680.565	1695
681.049	1688
681.533	1683
682.017	1695
682.5	1686
682.984	1695
683.468	1695
683.952	1680
684.436	1715
684.92	1696
685.404	1711
685.888	1719
686.372	1703
686.856	1705
687.341	1723
687.825	1704
688.309	1699
688.793	1713
689.278	1697
689.762	1711
690.246	1701
690.731	1701
691.215	1703
691.7	1670
692.184	1698
692.669	1684
693.153	1690
693.638	1659
694.122	1672
694.607	1687
695.092	1666
695.577	1677
696.061	1657
696.546	1668
697.031	1653
697.516	1681
698.001	1681
698.486	1679
698.971	1699
699.456	1647
699.941	1651
700.426	1653
700.911	1673
701.396	1666
701.881	1688
702.366	1670
702.852	1670
703.337	1666
703.822	1655
704.308	1656
704.793	1669
705.278	1670
705.764	1674
706.249	1666
706.735	1660
707.22	1686
707.706	1657
708.191	1680
708.677	1684
709.163	1669
709.648	1680
710.134	1709
710.62	1703
711.106	1707
711.592	1720
712.077	1701
712.563	1660
713.049	1659
713.535	1700
714.021	1704
714.507	1693
714.993	1671
715.479	1687
715.966	1664
716.452	1674
716.938	1682
717.424	1629
717.91	1663
718.397	1652
718.883	1636
719.369	1651
719.856	1622
720.342	1644
720.829	1630
721.315	1628
721.802	1619
722.288	1628
722.775	1561
723.262	1522
723.748	1593
724.235	1586
724.722	1613
725.208	1575
725.695	1571
726.182	1573
726.669	1556
727.156	1580
727.643	1563
728.13	1561
728.617	1542
729.104	1545
729.591	1531
730.078	1551
730.565	1548
731.052	1523
731.539	1532
732.027	1523
732.514	1504
733.001	1520
733.488	1510
733.976	1512
734.463	1506
734.951	1510
735.438	1513
735.926	1493
736.413	1508
736.901	1502
737.388	1515
737.876	1506
738.364	1503
738.851	1509
739.339	1512
739.827	1528
740.314	1469
740.802	1480
741.29	1488
741.778	1469
742.266	1473
742.754	1479
743.242	1498
743.73	1473
744.218	1468
744.706	1451
745.194	1475
745.682	1471
746.17	1482
746.659	1474
747.147	1446
747.635	1448
748.123	1444
748.612	1421
749.1	1409
749.589	1414
750.077	1414
750.566	1409
751.054	1423
751.543	1427
752.031	1400
752.52	1392
753.008	1360
753.497	1366
753.986	1367
754.474	1370
754.963	1377
755.452	1354
755.941	1340
756.43	1341
756.919	1334
757.408	1316
757.896	1337
758.385	1342
758.875	1323
759.364	1316
759.853	1303
760.342	1277
760.831	1308
761.32	1297
761.809	1276
762.299	1286
762.788	1290
763.277	1295
763.767	1281
764.256	1279
764.745	1269
765.235	1284
765.724	1254
766.214	1271
766.703	1260
767.193	1234
767.683	1241
768.172	1211
768.662	1220
769.152	1216
769.641	1216
770.131	1187
770.621	1205
771.111	1183
771.601	1189
772.09	1177
772.58	1161
773.07	1166
773.56	1164
774.05	1145
774.54	1137
775.031	1129
775.521	1122
776.011	1132
776.501	1142
776.991	1109
777.482	1120
777.972	1092
778.462	1098
778.953	1102
779.443	1098
779.933	1090
780.424	1091
780.914	1108
781.405	1107
781.895	1101
782.386	1102
782.877	1091
783.367	1067
783.858	1066
784.349	1072
784.839	1056
785.33	1063
785.821	1063
786.312	1064
786.803	1068
787.293	1064
787.784	1053
788.275	1038
788.766	1033
789.257	1050
789.748	1022
790.24	1015
790.731	1013
791.222	1000
791.713	997
792.204	997
792.696	969
793.187	978
793.678	964
794.169	937
794.661	956
795.152	936
795.644	925
796.135	934
796.627	928
797.118	919
797.61	907
798.101	898
798.593	905
799.085	887
799.576	899
800.068	893
800.56	894
801.052	875
801.544	877
802.035	874
802.527	864
803.019	854
803.511	850
804.003	844
804.495	852
804.987	845
805.479	827
805.971	834
806.464	837
806.956	817
807.448	811
807.94	811
808.433	809
808.925	807
809.417	803
809.91	798
810.402	783
810.894	785
811.387	792
811.879	788
812.372	789
812.865	781
813.357	773
813.85	770
814.342	756
814.835	762
815.328	756
815.821	744
816.313	746
816.806	750
817.299	743
817.792	748
818.285	731
818.778	742
819.271	741
819.764	731
820.257	731
820.75	729
821.243	733
821.736	727
822.229	728
822.722	718
823.216	734
