Data from lamp5helium_sterk_Subt2__27__27.txt Node

Date: Wed Apr 09 11:04:37 CEST 2025
User: fys-lab-0081
Spectrometer: S04999
Trigger mode: 0
Resolution mode: 1024 pixels
Integration Time (sec): 1.000000E-1
Scans to average: 1
Nonlinearity correction enabled: false
Boxcar width: 0
Baseline correction enabled: true
XAxis mode: Wavelengths
Number of Pixels in Spectrum: 1024
>>>>>Begin Spectral Data<<<<<
336.42	2
336.877	1
337.334	0
337.792	0
338.249	1
338.706	0
339.164	0
339.621	3
340.079	5
340.536	5
340.994	3
341.452	2
341.909	6
342.367	0
342.825	-1
343.283	5
343.741	0
344.198	2
344.656	3
345.114	2
345.572	5
346.03	2
346.488	-1
346.947	0
347.405	1
347.863	2
348.321	0
348.779	4
349.238	1
349.696	1
350.154	1
350.613	-3
351.071	4
351.53	4
351.988	1
352.447	3
352.905	-5
353.364	-3
353.823	1
354.282	1
354.74	-2
355.199	4
355.658	5
356.117	-1
356.576	0
357.035	1
357.494	3
357.953	-6
358.412	3
358.871	2
359.33	5
359.789	-2
360.249	4
360.708	3
361.167	-1
361.626	-2
362.086	-1
362.545	-2
363.005	3
363.464	-3
363.924	1
364.383	-1
364.843	2
365.303	2
365.762	3
366.222	3
366.682	-4
367.142	2
367.601	0
368.061	-5
368.521	1
368.981	1
369.441	10
369.901	3
370.361	0
370.821	-2
371.282	2
371.742	3
372.202	4
372.662	5
373.123	0
373.583	3
374.043	3
374.504	-3
374.964	-3
375.425	4
375.885	-1
376.346	1
376.806	5
377.267	3
377.728	5
378.188	7
378.649	2
379.11	3
379.571	-2
380.032	9
380.493	4
380.954	9
381.414	2
381.876	4
382.337	4
382.798	2
383.259	3
383.72	6
384.181	6
384.642	3
385.104	3
385.565	9
386.026	10
386.488	7
386.949	5
387.411	7
387.872	12
388.334	9
388.795	7
389.257	8
389.719	6
390.181	9
390.642	6
391.104	10
391.566	13
392.028	10
392.49	11
392.952	12
393.414	13
393.876	13
394.338	6
394.8	8
395.262	5
395.724	15
396.186	13
396.648	10
397.111	15
397.573	16
398.035	14
398.498	7
398.96	16
399.423	9
399.885	10
400.348	12
400.81	9
401.273	14
401.736	14
402.198	18
402.661	13
403.124	12
403.587	20
404.049	16.5
404.512	13
404.975	11
405.438	18
405.901	18
406.364	18
406.827	15
407.29	17
407.754	17
408.217	22
408.68	16
409.143	21
409.607	24
410.07	22
410.533	17
410.997	20
411.46	16
411.924	26
412.387	22
412.851	17
413.314	23
413.778	18
414.242	19
414.705	24
415.169	25
415.633	20
416.097	22
416.561	25
417.024	23
417.488	22
417.952	21
418.416	23
418.88	18
419.344	19
419.809	20
420.273	23
420.737	27
421.201	23
421.665	24
422.13	30
422.594	32
423.059	27
423.523	28
423.987	23
424.452	33
424.916	28
425.381	32
425.846	26
426.31	36
426.775	34
427.24	35
427.704	34
428.169	33
428.634	35
429.099	35
429.564	37
430.029	33
430.494	33
430.959	33
431.424	37
431.889	40
432.354	39
432.819	35
433.284	39
433.75	37
434.215	44
434.68	37
435.146	36
435.611	37
436.077	45
436.542	39
437.008	44
437.473	48
437.939	41
438.404	48
438.87	46
439.336	50
439.801	52
440.267	51
440.733	52
441.199	53
441.665	53
442.131	54
442.596	52
443.062	52
443.529	59
443.995	57
444.461	57
444.927	63
445.393	59
445.859	63
446.325	65
446.792	73
447.258	71
447.724	72
448.191	74
448.657	73
449.124	70
449.59	71
450.057	79
450.523	81
450.99	83
451.457	84
451.923	83
452.39	86
452.857	87
453.324	84
453.791	86
454.257	91
454.724	88
455.191	88
455.658	95
456.125	92
456.592	90
457.059	92
457.527	94
457.994	99
458.461	98
458.928	99
459.396	99
459.863	101
460.33	100
460.798	104
461.265	108
461.732	105
462.2	107
462.668	104
463.135	106
463.603	105
464.07	115
464.538	104
465.006	108
465.474	109
465.941	111
466.409	111
466.877	105
467.345	108
467.813	105
468.281	116
468.749	118
469.217	115
469.685	120
470.153	120
470.621	122
471.09	122
471.558	128
472.026	131
472.494	129
472.963	131
473.431	137
473.9	142
474.368	143
474.837	144
475.305	143
475.774	147
476.242	156
476.711	154
477.18	161
477.648	158
478.117	158
478.586	164
479.055	156
479.524	160
479.993	163
480.462	162
480.93	157
481.399	162
481.869	162
482.338	163
482.807	168
483.276	165
483.745	165
484.214	172
484.684	176
485.153	177
485.622	178
486.092	181
486.561	177
487.031	187
487.5	187
487.97	192
488.439	198
488.909	198
489.378	209
489.848	213
490.318	218
490.787	229
491.257	227
491.727	229
492.197	232
492.667	238
493.137	238
493.607	241
494.077	240
494.547	238
495.017	241
495.487	242
495.957	251
496.427	247
496.897	244
497.368	254
497.838	252
498.308	251
498.779	256
499.249	261
499.719	259
500.19	271
500.66	265
501.131	271
501.602	276
502.072	269
502.543	276
503.014	291
503.484	290
503.955	292
504.426	305
504.897	309
505.368	316
505.838	326
506.309	330
506.78	341
507.251	348
507.722	358
508.194	368
508.665	375
509.136	368
509.607	391
510.078	390
510.549	394
511.021	399
511.492	401
511.964	409
512.435	415
512.906	413
513.378	417
513.849	428
514.321	430
514.793	430
515.264	440
515.736	440
516.208	454
516.679	458
517.151	460
517.623	466
518.095	475
518.567	478
519.038	492
519.51	488
519.982	491
520.454	498
520.927	513
521.399	518
521.871	522
522.343	526
522.815	531
523.287	530
523.76	535
524.232	547
524.704	545
525.177	543
525.649	544
526.122	556
526.594	539
527.067	558
527.539	566
528.012	562
528.484	563
528.957	566
529.43	568
529.903	567
530.375	581
530.848	571
531.321	583
531.794	591
532.267	600
532.74	582
533.213	586
533.686	600
534.159	600
534.632	613
535.105	618
535.578	630
536.051	634
536.525	633
536.998	632
537.471	648
537.945	646
538.418	653
538.891	655
539.365	670
539.838	677
540.312	672
540.786	672
541.259	679
541.733	693
542.206	691
542.68	681
543.154	681
543.628	694
544.101	707
544.575	694
545.049	676
545.523	689
545.997	689
546.471	699
546.945	691
547.419	703
547.893	673
548.367	697
548.842	692
549.316	695
549.79	696
550.264	699
550.739	703
551.213	713
551.687	707
552.162	718
552.636	713
553.111	713
553.585	737
554.06	727
554.534	737
555.009	740
555.484	750
555.958	759
556.433	759
556.908	778
557.383	765
557.858	786
558.333	789
558.807	785
559.282	797
559.757	818
560.232	814
560.708	803
561.183	800
561.658	817
562.133	819
562.608	808
563.083	829
563.559	815
564.034	813
564.509	827
564.985	821
565.46	815
565.936	831
566.411	829
566.887	826
567.362	828
567.838	832
568.313	840
568.789	828
569.265	832
569.74	842
570.216	829
570.692	846
571.168	848
571.644	851
572.12	847
572.596	852
573.071	863
573.547	884
574.024	901
574.5	905
574.976	912
575.452	927
575.928	937
576.404	939
576.881	969
577.357	955
577.833	964
578.31	989
578.786	998
579.262	1006
579.739	1006
580.215	1037
580.692	1036
581.169	1018
581.645	1025
582.122	1065
582.598	1059
583.075	1058
583.552	1058
584.029	1064
584.506	1062
584.982	1057
585.459	1068
585.936	1054
586.413	1072
586.89	1097
587.367	1089
587.844	1107
588.321	1098
588.799	1103
589.276	1091
589.753	1107
590.23	1120
590.707	1125
591.185	1126
591.662	1132
592.139	1144
592.617	1163
593.094	1156
593.572	1168
594.049	1177
594.527	1184
595.004	1190
595.482	1227
595.96	1221
596.437	1217
596.915	1247
597.393	1230
597.871	1259
598.349	1254
598.826	1271
599.304	1273
599.782	1314
600.26	1300
600.738	1324
601.216	1314
601.694	1326
602.173	1340
602.651	1347
603.129	1341
603.607	1352
604.085	1358
604.564	1369
605.042	1370
605.52	1368
605.999	1395
606.477	1358
606.956	1369
607.434	1387.5
607.913	1406
608.391	1400
608.87	1385
609.348	1363
609.827	1381
610.306	1390
610.785	1396
611.263	1397
611.742	1381
612.221	1369
612.7	1384
613.179	1399
613.658	1386
614.137	1408
614.616	1427
615.095	1405
615.574	1427
616.053	1429
616.532	1423
617.011	1433
617.491	1441
617.97	1430
618.449	1452
618.928	1471
619.408	1462
619.887	1479
620.367	1486
620.846	1500
621.326	1491
621.805	1521
622.285	1528
622.764	1545
623.244	1546
623.724	1555
624.203	1564
624.683	1535
625.163	1561
625.643	1559
626.123	1559
626.602	1597
627.082	1558
627.562	1571
628.042	1592
628.522	1587
629.002	1578
629.482	1582
629.963	1588
630.443	1581
630.923	1581
631.403	1592
631.883	1597
632.364	1603
632.844	1593
633.324	1600
633.805	1593
634.285	1568
634.766	1565
635.246	1575
635.727	1580
636.207	1586
636.688	1577
637.168	1567
637.649	1568
638.13	1571
638.611	1589
639.091	1573
639.572	1571
640.053	1564
640.534	1574
641.015	1575
641.496	1559
641.977	1587
642.458	1576
642.939	1581
643.42	1583
643.901	1588
644.382	1606
644.863	1608
645.345	1600
645.826	1602
646.307	1604
646.788	1634
647.27	1614
647.751	1611
648.233	1632
648.714	1586
649.196	1633
649.677	1624
650.159	1622
650.64	1605
651.122	1640
651.603	1608
652.085	1629
652.567	1645
653.049	1636
653.53	1641
654.012	1670
654.494	1642
654.976	1658
655.458	1656
655.94	1647
656.422	1676
656.904	1643
657.386	1623
657.868	1630
658.35	1618
658.833	1631
659.315	1637
659.797	1619
660.279	1614
660.762	1615
661.244	1600
661.726	1590
662.209	1596
662.691	1598
663.174	1570
663.656	1579
664.139	1589
664.621	1567
665.104	1565
665.587	1582
666.069	1597
666.552	1590
667.035	1581
667.517	1586
668	1606
668.483	1611
668.966	1591
669.449	1589
669.932	1588
670.415	1603
670.898	1604
671.381	1602
671.864	1610
672.347	1579
672.83	1589
673.313	1590
673.797	1595
674.28	1615
674.763	1613
675.247	1625
675.73	1611
676.213	1624
676.697	1634
677.18	1640
677.664	1638
678.147	1637
678.631	1662
679.114	1681
679.598	1677
680.082	1702
680.565	1692
681.049	1691
681.533	1680
682.017	1697
682.5	1693
682.984	1695
683.468	1693
683.952	1674
684.436	1718
684.92	1694
685.404	1709
685.888	1719
686.372	1703
686.856	1707
687.341	1720
687.825	1698
688.309	1704
688.793	1717
689.278	1696
689.762	1715
690.246	1700
690.731	1702
691.215	1710
691.7	1667
692.184	1692
692.669	1690
693.153	1687
693.638	1660
694.122	1660
694.607	1687
695.092	1664
695.577	1688
696.061	1657
696.546	1671
697.031	1662
697.516	1675
698.001	1681
698.486	1681
698.971	1701
699.456	1658
699.941	1655
700.426	1648
700.911	1678
701.396	1672
701.881	1682
702.366	1670
702.852	1666
703.337	1667
703.822	1656
704.308	1661
704.793	1668
705.278	1672
705.764	1677
706.249	1661
706.735	1664
707.22	1679
707.706	1667
708.191	1686
708.677	1681
709.163	1667
709.648	1682
710.134	1710
710.62	1700
711.106	1705
711.592	1715
712.077	1710
712.563	1658
713.049	1658
713.535	1704
714.021	1694
714.507	1691
714.993	1672
715.479	1691
715.966	1670
716.452	1679
716.938	1683
717.424	1629
717.91	1661
718.397	1645
718.883	1635
719.369	1648
719.856	1631
720.342	1649
720.829	1626
721.315	1633
721.802	1620
722.288	1632
722.775	1560
723.262	1528
723.748	1593
724.235	1591
724.722	1610
725.208	1568
725.695	1574
726.182	1571
726.669	1557
727.156	1588
727.643	1571
728.13	1560
728.617	1542
729.104	1547
729.591	1536
730.078	1550
730.565	1546
731.052	1528
731.539	1532
732.027	1528
732.514	1504
733.001	1521
733.488	1510
733.976	1513
734.463	1505
734.951	1505
735.438	1517
735.926	1492
736.413	1508
736.901	1504
737.388	1516
737.876	1506
738.364	1500
738.851	1506
739.339	1516
739.827	1528
740.314	1467
740.802	1481
741.29	1492
741.778	1471
742.266	1473
742.754	1485
743.242	1500
743.73	1472
744.218	1465
744.706	1457
745.194	1480
745.682	1470
746.17	1481
746.659	1476
747.147	1443
747.635	1456
748.123	1446
748.612	1426
749.1	1406
749.589	1417
750.077	1413
750.566	1402
751.054	1425
751.543	1433
752.031	1397
752.52	1392
753.008	1366
753.497	1369
753.986	1370
754.474	1373
754.963	1382
755.452	1350
755.941	1346
756.43	1333
756.919	1336
757.408	1326
757.896	1337
758.385	1341
758.875	1328
759.364	1314
759.853	1305
760.342	1283
760.831	1305
761.32	1294
761.809	1272
762.299	1290
762.788	1286
763.277	1292
763.767	1280
764.256	1280
764.745	1270
765.235	1283
765.724	1246
766.214	1282
766.703	1263
767.193	1241
767.683	1245
768.172	1216
768.662	1229
769.152	1211
769.641	1224
770.131	1186
770.621	1205
771.111	1191
771.601	1183
772.09	1175
772.58	1159
773.07	1161
773.56	1167
774.05	1148
774.54	1134
775.031	1125
775.521	1117
776.011	1128
776.501	1143
776.991	1117
777.482	1120
777.972	1094
778.462	1102
778.953	1098
779.443	1097
779.933	1093
780.424	1086
780.914	1106
781.405	1109
781.895	1098
782.386	1099
782.877	1094
783.367	1078
783.858	1066
784.349	1069
784.839	1054
785.33	1062
785.821	1068
786.312	1063
786.803	1066
787.293	1067
787.784	1056
788.275	1035
788.766	1031
789.257	1046
789.748	1025
790.24	1013
790.731	1013
791.222	1003
791.713	1000
792.204	1003
792.696	972
793.187	979
793.678	970
794.169	938
794.661	960
795.152	938
795.644	925
796.135	938
796.627	935
797.118	920
797.61	907
798.101	897
798.593	911
799.085	890
799.576	898
800.068	892
800.56	893
801.052	876
801.544	875
802.035	870
802.527	862
803.019	847
803.511	844
804.003	845
804.495	851
804.987	851
805.479	833
805.971	830
806.464	837
806.956	815
807.448	820
807.94	815
808.433	811
808.925	811
809.417	801
809.91	797
810.402	778
810.894	787
811.387	801
811.879	786
812.372	792
812.865	779
813.357	771
813.85	767
814.342	765
814.835	759
815.328	754
815.821	744
816.313	745
816.806	747
817.299	743
817.792	741
818.285	731
818.778	743
819.271	738
819.764	727
820.257	737
820.75	733
821.243	731
821.736	728
822.229	727
822.722	719
823.216	742
