Data from lamp5helium_sterk_Subt2__59__59.txt Node

Date: Wed Apr 09 11:04:41 CEST 2025
User: fys-lab-0081
Spectrometer: S04999
Trigger mode: 0
Resolution mode: 1024 pixels
Integration Time (sec): 1.000000E-1
Scans to average: 1
Nonlinearity correction enabled: false
Boxcar width: 0
Baseline correction enabled: true
XAxis mode: Wavelengths
Number of Pixels in Spectrum: 1024
>>>>>Begin Spectral Data<<<<<
336.42	3
336.877	3
337.334	2
337.792	0
338.249	3
338.706	4
339.164	1
339.621	3
340.079	4
340.536	3
340.994	2
341.452	7
341.909	4
342.367	0
342.825	-6
343.283	7
343.741	4
344.198	-3
344.656	2
345.114	-1
345.572	3
346.03	0
346.488	2
346.947	4
347.405	2
347.863	-2
348.321	-2
348.779	4
349.238	-2
349.696	5
350.154	-1
350.613	2
351.071	3
351.53	7
351.988	7
352.447	-5
352.905	0
353.364	-2
353.823	3
354.282	-4
354.74	-5
355.199	0
355.658	1
356.117	-3
356.576	1
357.035	-3
357.494	2
357.953	1
358.412	5
358.871	3
359.33	0
359.789	-2
360.249	1
360.708	4
361.167	2
361.626	2
362.086	-4
362.545	-1
363.005	5
363.464	1
363.924	-3
364.383	-1
364.843	1
365.303	2
365.762	3
366.222	2
366.682	1
367.142	8
367.601	0
368.061	1
368.521	1
368.981	-1
369.441	8
369.901	2
370.361	2
370.821	1
371.282	-1
371.742	0
372.202	0
372.662	5
373.123	-4
373.583	2
374.043	5
374.504	-1
374.964	2
375.425	6
375.885	3
376.346	4
376.806	5
377.267	5
377.728	4
378.188	4
378.649	0
379.11	2
379.571	4
380.032	6
380.493	4
380.954	7
381.414	4
381.876	2
382.337	2
382.798	6
383.259	7
383.72	5
384.181	-1
384.642	3
385.104	8
385.565	5
386.026	9
386.488	8
386.949	9
387.411	8
387.872	10
388.334	8
388.795	6
389.257	11
389.719	6
390.181	5
390.642	5
391.104	7
391.566	10
392.028	6
392.49	13
392.952	13
393.414	8
393.876	11
394.338	8
394.8	7
395.262	5
395.724	13
396.186	12
396.648	12
397.111	8
397.573	12
398.035	11
398.498	11
398.96	16
399.423	10
399.885	10
400.348	17
400.81	11
401.273	9
401.736	9
402.198	16
402.661	17
403.124	10
403.587	15
404.049	16
404.512	17
404.975	15
405.438	19
405.901	15
406.364	18
406.827	15
407.29	16
407.754	14
408.217	18
408.68	20
409.143	20
409.607	22
410.07	15
410.533	15
410.997	21
411.46	21
411.924	22
412.387	20
412.851	20
413.314	16
413.778	18
414.242	19
414.705	22
415.169	25
415.633	22
416.097	22
416.561	24
417.024	24
417.488	19
417.952	26
418.416	18
418.88	22
419.344	16
419.809	27
420.273	22
420.737	23
421.201	24
421.665	25
422.13	32
422.594	28
423.059	27
423.523	23
423.987	22
424.452	36
424.916	27
425.381	30
425.846	25
426.31	37
426.775	35
427.24	33
427.704	34
428.169	32
428.634	32
429.099	39
429.564	35
430.029	34
430.494	34
430.959	30
431.424	33
431.889	38
432.354	43
432.819	39
433.284	40
433.75	39
434.215	44
434.68	43
435.146	40
435.611	40
436.077	41
436.542	40
437.008	47
437.473	44
437.939	45
438.404	43
438.87	44
439.336	47
439.801	49
440.267	49
440.733	52
441.199	48
441.665	52
442.131	59
442.596	50
443.062	53
443.529	62
443.995	56
444.461	59
444.927	61
445.393	57
445.859	58
446.325	63
446.792	69
447.258	68
447.724	69
448.191	77
448.657	72
449.124	70
449.59	71
450.057	81
450.523	78
450.99	83
451.457	82
451.923	83
452.39	86
452.857	90
453.324	81
453.791	86
454.257	89
454.724	93
455.191	87
455.658	87
456.125	89
456.592	90
457.059	91
457.527	91
457.994	97
458.461	99
458.928	101
459.396	100
459.863	105
460.33	99
460.798	101
461.265	107
461.732	105
462.2	111
462.668	102
463.135	104
463.603	105
464.07	115
464.538	107
465.006	108
465.474	109
465.941	110
466.409	106
466.877	109
467.345	111
467.813	107
468.281	114
468.749	116
469.217	112
469.685	121
470.153	124
470.621	124
471.09	122
471.558	125
472.026	127
472.494	127
472.963	127
473.431	140
473.9	139
474.368	145
474.837	143
475.305	145
475.774	143
476.242	156
476.711	151
477.18	160
477.648	151
478.117	157
478.586	163
479.055	157
479.524	162
479.993	162
480.462	162
480.93	161
481.399	162
481.869	161
482.338	161
482.807	165
483.276	164
483.745	167
484.214	166
484.684	174
485.153	176
485.622	177
486.092	181
486.561	179
487.031	188
487.5	182
487.97	194
488.439	197
488.909	200
489.378	211
489.848	212
490.318	217
490.787	227
491.257	231
491.727	231
492.197	235
492.667	233
493.137	236
493.607	238
494.077	239
494.547	240
495.017	236
495.487	244
495.957	248
496.427	248
496.897	243
497.368	249
497.838	245
498.308	250
498.779	252
499.249	257
499.719	260
500.19	265
500.66	260
501.131	269
501.602	272
502.072	267
502.543	281
503.014	293
503.484	289
503.955	296
504.426	302
504.897	312
505.368	315
505.838	329
506.309	326
506.78	343
507.251	349
507.722	355
508.194	366
508.665	374
509.136	368
509.607	385
510.078	391
510.549	392
511.021	402
511.492	402
511.964	411
512.435	411
512.906	408
513.378	414
513.849	424
514.321	426
514.793	430
515.264	437
515.736	439
516.208	453
516.679	455
517.151	463
517.623	464
518.095	473
518.567	481
519.038	488
519.51	492
519.982	493
520.454	499
520.927	514
521.399	520
521.871	522
522.343	524
522.815	532
523.287	531
523.76	537
524.232	545
524.704	546
525.177	538
525.649	540
526.122	555
526.594	544
527.067	557
527.539	563
528.012	561
528.484	559
528.957	564
529.43	566
529.903	563
530.375	578
530.848	575
531.321	584
531.794	584
532.267	603
532.74	585
533.213	594
533.686	600
534.159	599
534.632	610
535.105	620
535.578	634
536.051	629
536.525	633
536.998	635
537.471	652
537.945	644
538.418	658
538.891	656
539.365	667
539.838	673
540.312	669
540.786	673
541.259	681
541.733	690
542.206	693
542.68	679
543.154	681
543.628	692
544.101	703
544.575	692
545.049	671
545.523	692
545.997	694
546.471	694
546.945	691
547.419	703
547.893	679
548.367	697
548.842	688
549.316	696
549.79	703
550.264	700
550.739	704
551.213	711
551.687	705
552.162	714
552.636	714
553.111	710
553.585	729
554.06	729
554.534	733
555.009	740
555.484	751
555.958	761
556.433	756
556.908	775
557.383	768
557.858	786
558.333	783
558.807	782
559.282	798
559.757	825
560.232	817
560.708	796
561.183	800
561.658	814
562.133	816
562.608	808
563.083	828
563.559	815
564.034	815
564.509	826
564.985	821
565.46	810
565.936	833
566.411	823
566.887	820
567.362	829
567.838	833
568.313	838
568.789	824
569.265	834
569.74	836
570.216	828
570.692	843
571.168	838
571.644	850
572.12	845
572.596	851
573.071	864
573.547	886
574.024	896
574.5	908
574.976	912
575.452	925
575.928	936
576.404	944
576.881	966
577.357	954
577.833	960
578.31	986
578.786	995
579.262	1014
579.739	1000
580.215	1036
580.692	1034
581.169	1021
581.645	1028
582.122	1051
582.598	1063
583.075	1058
583.552	1062
584.029	1054
584.506	1055
584.982	1048
585.459	1080
585.936	1054
586.413	1077
586.89	1100
587.367	1087
587.844	1114
588.321	1095
588.799	1100
589.276	1091
589.753	1114
590.23	1122
590.707	1122
591.185	1126
591.662	1135
592.139	1148
592.617	1163
593.094	1156
593.572	1162
594.049	1174
594.527	1190
595.004	1197
595.482	1231
595.96	1220
596.437	1212
596.915	1243
597.393	1229
597.871	1259
598.349	1253
598.826	1270
599.304	1271
599.782	1311
600.26	1294
600.738	1330
601.216	1319
601.694	1329
602.173	1342
602.651	1346
603.129	1336
603.607	1355
604.085	1354
604.564	1363
605.042	1373
605.52	1363
605.999	1388
606.477	1359
606.956	1362
607.434	1386
607.913	1410
608.391	1408
608.87	1385
609.348	1370
609.827	1380
610.306	1396
610.785	1388
611.263	1390
611.742	1383
612.221	1369
612.7	1390
613.179	1398
613.658	1384
614.137	1408
614.616	1426
615.095	1406
615.574	1426
616.053	1434
616.532	1420
617.011	1431
617.491	1440
617.97	1432
618.449	1451
618.928	1470
619.408	1461
619.887	1473
620.367	1484
620.846	1495
621.326	1489
621.805	1519
622.285	1523
622.764	1538
623.244	1541
623.724	1553
624.203	1563
624.683	1530
625.163	1565
625.643	1557
626.123	1558
626.602	1593
627.082	1556
627.562	1561
628.042	1590
628.522	1588
629.002	1576
629.482	1585
629.963	1588
630.443	1577
630.923	1577
631.403	1586
631.883	1597
632.364	1593
632.844	1590
633.324	1598
633.805	1588
634.285	1566
634.766	1569
635.246	1566
635.727	1579
636.207	1584
636.688	1575
637.168	1568
637.649	1569
638.13	1568
638.611	1585
639.091	1580
639.572	1570
640.053	1554
640.534	1574
641.015	1578
641.496	1554
641.977	1588
642.458	1572
642.939	1575
643.42	1587
643.901	1585
644.382	1611
644.863	1611
645.345	1596
645.826	1603
646.307	1602
646.788	1632
647.27	1611
647.751	1609
648.233	1632
648.714	1589
649.196	1626
649.677	1616
650.159	1625
650.64	1611
651.122	1637
651.603	1609
652.085	1630
652.567	1645
653.049	1630
653.53	1635
654.012	1668
654.494	1643
654.976	1660
655.458	1650
655.94	1643
656.422	1673
656.904	1644
657.386	1621
657.868	1626
658.35	1617
658.833	1632
659.315	1634
659.797	1610
660.279	1616
660.762	1612
661.244	1596
661.726	1597
662.209	1595
662.691	1596
663.174	1566
663.656	1576
664.139	1581
664.621	1569
665.104	1560
665.587	1582
666.069	1597
666.552	1599
667.035	1578
667.517	1588
668	1605
668.483	1600
668.966	1589
669.449	1586
669.932	1583
670.415	1604
670.898	1600
671.381	1600
671.864	1609
672.347	1585
672.83	1591
673.313	1591
673.797	1583
674.28	1616
674.763	1615
675.247	1627
675.73	1606
676.213	1616
676.697	1640
677.18	1638
677.664	1645
678.147	1637
678.631	1654
679.114	1678
679.598	1680
680.082	1698
680.565	1694
681.049	1688
681.533	1683
682.017	1698
682.5	1686
682.984	1692
683.468	1702
683.952	1683
684.436	1713
684.92	1687
685.404	1702
685.888	1718
686.372	1698
686.856	1704
687.341	1720
687.825	1700
688.309	1707
688.793	1713
689.278	1688
689.762	1714
690.246	1699
690.731	1700
691.215	1705
691.7	1665
692.184	1695
692.669	1687
693.153	1687
693.638	1661
694.122	1668
694.607	1687
695.092	1663
695.577	1681
696.061	1654
696.546	1671
697.031	1666
697.516	1675
698.001	1680
698.486	1678
698.971	1704
699.456	1654
699.941	1651
700.426	1650
700.911	1669
701.396	1670
701.881	1675
702.366	1667
702.852	1667
703.337	1665
703.822	1655
704.308	1653
704.793	1670
705.278	1670
705.764	1677
706.249	1661
706.735	1662
707.22	1680
707.706	1663
708.191	1684
708.677	1681
709.163	1665
709.648	1679
710.134	1715
710.62	1702
711.106	1704
711.592	1718
712.077	1702
712.563	1658
713.049	1657
713.535	1700
714.021	1693
714.507	1690
714.993	1671
715.479	1681
715.966	1659
716.452	1670
716.938	1675
717.424	1631
717.91	1660
718.397	1648
718.883	1636
719.369	1648
719.856	1624
720.342	1651
720.829	1628
721.315	1633
721.802	1621
722.288	1631
722.775	1562
723.262	1525
723.748	1589
724.235	1586
724.722	1608
725.208	1571
725.695	1569
726.182	1575
726.669	1557
727.156	1582
727.643	1563
728.13	1559
728.617	1536
729.104	1540
729.591	1534
730.078	1550
730.565	1550
731.052	1525
731.539	1534
732.027	1524
732.514	1500
733.001	1519
733.488	1508
733.976	1507
734.463	1504
734.951	1505
735.438	1516
735.926	1495
736.413	1506
736.901	1501
737.388	1515
737.876	1504
738.364	1500
738.851	1514
739.339	1512
739.827	1529
740.314	1470
740.802	1481
741.29	1490
741.778	1475
742.266	1473
742.754	1485
743.242	1498
743.73	1473
744.218	1464
744.706	1451
745.194	1478
745.682	1472
746.17	1485
746.659	1473
747.147	1444
747.635	1450
748.123	1439
748.612	1426
749.1	1401
749.589	1412
750.077	1411
750.566	1408
751.054	1421
751.543	1433
752.031	1397
752.52	1394
753.008	1361
753.497	1367
753.986	1369
754.474	1369
754.963	1382
755.452	1354
755.941	1340
756.43	1342
756.919	1331
757.408	1324
757.896	1334
758.385	1337
758.875	1328
759.364	1320
759.853	1301
760.342	1278
760.831	1303
761.32	1292
761.809	1276
762.299	1281
762.788	1291
763.277	1292
763.767	1282
764.256	1287
764.745	1269
765.235	1288
765.724	1248
766.214	1273
766.703	1265
767.193	1242
767.683	1241
768.172	1211
768.662	1226
769.152	1214
769.641	1221
770.131	1186
770.621	1211
771.111	1182
771.601	1188
772.09	1175
772.58	1160
773.07	1161
773.56	1167
774.05	1144
774.54	1134
775.031	1127
775.521	1123
776.011	1125
776.501	1136
776.991	1110
777.482	1117
777.972	1092
778.462	1099
778.953	1104
779.443	1098
779.933	1093
780.424	1087
780.914	1103
781.405	1109
781.895	1098
782.386	1104
782.877	1091
783.367	1072
783.858	1066
784.349	1068
784.839	1054
785.33	1061
785.821	1058
786.312	1061
786.803	1064
787.293	1061
787.784	1050
788.275	1034
788.766	1035
789.257	1045
789.748	1025
790.24	1013
790.731	1015
791.222	995
791.713	995
792.204	998
792.696	965
793.187	979
793.678	968
794.169	939
794.661	962
795.152	942
795.644	929
796.135	933
796.627	931
797.118	916
797.61	905
798.101	890
798.593	907
799.085	887
799.576	898
800.068	894
800.56	898
801.052	881
801.544	876
802.035	876
802.527	867
803.019	853
803.511	848
804.003	842
804.495	854
804.987	849
805.479	832
805.971	834
806.464	832
806.956	815
807.448	815
807.94	810
808.433	811
808.925	805
809.417	797
809.91	797
810.402	775
810.894	784
811.387	798
811.879	783
812.372	789
812.865	779
813.357	768
813.85	767
814.342	764
814.835	757
815.328	754
815.821	745
816.313	745
816.806	753
817.299	744
817.792	745
818.285	731
818.778	740
819.271	744
819.764	729
820.257	729
820.75	730
821.243	730
821.736	726
822.229	733
822.722	724
823.216	740
