Data from lamp5helium_sterk_Subt2__4__4.txt Node

Date: Wed Apr 09 11:04:34 CEST 2025
User: fys-lab-0081
Spectrometer: S04999
Trigger mode: 0
Resolution mode: 1024 pixels
Integration Time (sec): 1.000000E-1
Scans to average: 1
Nonlinearity correction enabled: false
Boxcar width: 0
Baseline correction enabled: true
XAxis mode: Wavelengths
Number of Pixels in Spectrum: 1024
>>>>>Begin Spectral Data<<<<<
336.42	2
336.877	1
337.334	1
337.792	3
338.249	1
338.706	-3
339.164	4
339.621	4
340.079	2
340.536	4
340.994	0
341.452	4
341.909	4
342.367	0
342.825	-3
343.283	2
343.741	-2
344.198	0
344.656	-2
345.114	1
345.572	3
346.03	0
346.488	0
346.947	-1
347.405	0
347.863	0
348.321	-1
348.779	3
349.238	2
349.696	1
350.154	-2
350.613	2
351.071	-2
351.53	6
351.988	4
352.447	-1
352.905	-2
353.364	-4
353.823	-1
354.282	3
354.74	-2
355.199	5
355.658	1
356.117	2
356.576	4
357.035	-4
357.494	2
357.953	3
358.412	1
358.871	2
359.33	3
359.789	-2
360.249	-3
360.708	1
361.167	0
361.626	4
362.086	1
362.545	6
363.005	3
363.464	-1
363.924	1
364.383	0
364.843	4
365.303	5
365.762	3
366.222	0
366.682	-3
367.142	3
367.601	2
368.061	1
368.521	1
368.981	0
369.441	7
369.901	7
370.361	3
370.821	-2
371.282	0
371.742	4
372.202	2
372.662	2
373.123	-1
373.583	5
374.043	7
374.504	2
374.964	-3
375.425	1
375.885	5
376.346	5
376.806	9
377.267	0
377.728	7
378.188	5
378.649	1
379.11	6
379.571	1
380.032	2
380.493	5
380.954	7
381.414	5
381.876	4
382.337	3
382.798	6
383.259	9
383.72	6
384.181	3
384.642	5
385.104	6
385.565	12
386.026	10
386.488	3
386.949	7
387.411	8
387.872	12
388.334	9
388.795	8
389.257	9
389.719	4
390.181	7
390.642	7
391.104	7
391.566	11
392.028	10
392.49	14
392.952	6
393.414	8
393.876	15
394.338	7
394.8	9
395.262	4
395.724	11
396.186	11
396.648	13
397.111	13
397.573	14
398.035	13
398.498	12
398.96	12
399.423	12
399.885	12
400.348	15
400.81	10
401.273	12
401.736	10
402.198	19
402.661	16
403.124	9
403.587	17
404.049	16
404.512	15
404.975	12
405.438	21
405.901	19
406.364	18
406.827	14
407.29	16
407.754	16
408.217	12
408.68	18
409.143	22
409.607	23
410.07	20
410.533	18
410.997	21
411.46	21
411.924	24
412.387	26
412.851	17
413.314	18
413.778	21
414.242	21
414.705	26
415.169	21
415.633	21
416.097	20
416.561	25
417.024	22
417.488	22
417.952	21
418.416	21
418.88	19
419.344	20
419.809	23
420.273	21
420.737	21
421.201	25
421.665	28
422.13	25
422.594	32
423.059	28
423.523	28
423.987	27
424.452	29
424.916	24
425.381	29
425.846	28
426.31	41
426.775	36
427.24	34
427.704	34
428.169	35
428.634	40
429.099	36
429.564	35
430.029	36
430.494	35
430.959	33
431.424	35
431.889	38
432.354	42
432.819	34
433.284	43
433.75	42
434.215	40
434.68	42
435.146	41
435.611	35
436.077	45
436.542	41
437.008	49
437.473	44
437.939	44
438.404	46
438.87	50
439.336	47
439.801	49
440.267	49
440.733	50
441.199	53
441.665	55
442.131	57
442.596	49
443.062	54
443.529	59
443.995	58
444.461	58
444.927	62
445.393	58
445.859	61
446.325	62
446.792	68
447.258	71
447.724	77
448.191	80
448.657	73
449.124	71
449.59	72
450.057	83
450.523	78
450.99	85
451.457	82
451.923	85
452.39	86
452.857	88
453.324	83
453.791	88
454.257	92
454.724	90
455.191	88
455.658	87
456.125	90
456.592	94
457.059	96
457.527	89
457.994	99
458.461	98
458.928	107
459.396	103
459.863	103
460.33	104
460.798	106
461.265	105
461.732	104
462.2	107
462.668	110
463.135	111
463.603	105
464.07	112
464.538	109
465.006	110
465.474	113
465.941	112
466.409	109
466.877	113
467.345	111
467.813	108
468.281	112
468.749	119
469.217	113
469.685	126
470.153	121
470.621	124
471.09	127
471.558	130
472.026	130
472.494	135
472.963	128
473.431	137
473.9	142
474.368	148
474.837	147
475.305	147
475.774	146
476.242	155
476.711	158
477.18	159
477.648	155
478.117	162
478.586	167
479.055	161
479.524	165
479.993	166
480.462	163
480.93	160
481.399	167
481.869	166
482.338	162
482.807	168
483.276	170
483.745	166
484.214	168
484.684	173
485.153	180
485.622	184
486.092	180
486.561	178
487.031	195
487.5	190
487.97	196
488.439	202
488.909	203
489.378	207
489.848	216
490.318	219
490.787	231
491.257	226
491.727	234
492.197	235
492.667	232
493.137	240
493.607	243
494.077	246
494.547	243
495.017	243
495.487	245
495.957	253
496.427	249
496.897	244
497.368	251
497.838	251
498.308	257
498.779	263
499.249	262
499.719	261
500.19	274
500.66	269
501.131	275
501.602	276
502.072	276
502.543	285
503.014	296
503.484	298
503.955	300
504.426	309
504.897	313
505.368	317
505.838	329
506.309	337
506.78	349
507.251	350
507.722	359
508.194	373
508.665	382
509.136	377
509.607	392
510.078	395
510.549	398
511.021	410
511.492	405
511.964	415
512.435	419
512.906	418
513.378	422
513.849	427
514.321	434
514.793	433
515.264	444
515.736	448
516.208	457
516.679	463
517.151	467
517.623	472
518.095	479
518.567	485
519.038	496
519.51	498
519.982	500
520.454	507
520.927	515
521.399	526
521.871	528
522.343	535
522.815	540
523.287	537
523.76	546
524.232	551
524.704	548
525.177	545
525.649	548
526.122	562
526.594	552
527.067	560
527.539	567
528.012	564
528.484	569
528.957	574
529.43	577
529.903	570
530.375	589
530.848	579
531.321	585
531.794	593
532.267	611
532.74	595
533.213	598
533.686	606
534.159	604
534.632	623
535.105	622
535.578	639
536.051	641
536.525	640
536.998	646
537.471	665
537.945	649
538.418	661
538.891	661
539.365	676
539.838	681
540.312	676
540.786	677
541.259	687
541.733	698
542.206	701
542.68	688
543.154	694
543.628	699
544.101	713
544.575	701
545.049	687
545.523	697
545.997	698
546.471	704
546.945	705
547.419	710
547.893	685
548.367	706
548.842	695
549.316	707
549.79	712
550.264	709
550.739	717
551.213	721
551.687	714
552.162	723
552.636	719
553.111	722
553.585	742
554.06	733
554.534	748
555.009	743
555.484	759
555.958	766
556.433	770
556.908	785
557.383	780
557.858	795
558.333	804
558.807	793
559.282	809
559.757	833
560.232	820
560.708	815
561.183	815
561.658	826
562.133	822
562.608	819
563.083	842
563.559	825
564.034	828
564.509	830
564.985	833
565.46	825
565.936	844
566.411	841
566.887	829
567.362	841
567.838	838
568.313	851
568.789	838
569.265	837
569.74	844
570.216	841
570.692	854
571.168	849
571.644	859
572.12	857
572.596	865
573.071	866
573.547	897
574.024	910
574.5	916
574.976	921
575.452	937
575.928	953
576.404	955
576.881	984
577.357	966
577.833	976
578.31	1002
578.786	1005
579.262	1023
579.739	1010
580.215	1047
580.692	1044
581.169	1031
581.645	1036
582.122	1066
582.598	1071
583.075	1070
583.552	1082
584.029	1071
584.506	1069
584.982	1070
585.459	1086
585.936	1071
586.413	1086
586.89	1110
587.367	1104
587.844	1120
588.321	1111
588.799	1120
589.276	1105
589.753	1121
590.23	1128
590.707	1135
591.185	1133
591.662	1141
592.139	1154
592.617	1173
593.094	1171
593.572	1175
594.049	1181
594.527	1197
595.004	1202
595.482	1242
595.96	1238
596.437	1231
596.915	1258
597.393	1244
597.871	1269
598.349	1263
598.826	1285
599.304	1292
599.782	1320
600.26	1313
600.738	1336
601.216	1330
601.694	1342
602.173	1350
602.651	1361
603.129	1355
603.607	1365
604.085	1371
604.564	1378
605.042	1386
605.52	1381
605.999	1404
606.477	1370
606.956	1387
607.434	1403
607.913	1419
608.391	1412
608.87	1399
609.348	1384
609.827	1397
610.306	1406
610.785	1406
611.263	1405
611.742	1398
612.221	1378
612.7	1407
613.179	1409
613.658	1394
614.137	1420
614.616	1442
615.095	1423
615.574	1440
616.053	1446
616.532	1441
617.011	1447
617.491	1454
617.97	1448
618.449	1462
618.928	1486
619.408	1482
619.887	1490
620.367	1495
620.846	1516
621.326	1507
621.805	1538
622.285	1539
622.764	1556
623.244	1557
623.724	1562
624.203	1582
624.683	1551
625.163	1578
625.643	1575
626.123	1576
626.602	1603
627.082	1579
627.562	1580
628.042	1609
628.522	1602
629.002	1594
629.482	1597
629.963	1604
630.443	1591
630.923	1598
631.403	1606
631.883	1613
632.364	1619
632.844	1605
633.324	1613
633.805	1612
634.285	1592
634.766	1582
635.246	1589
635.727	1595
636.207	1600
636.688	1591
637.168	1589
637.649	1583
638.13	1585
638.611	1607
639.091	1592
639.572	1586
640.053	1575
640.534	1590
641.015	1599
641.496	1570
641.977	1601
642.458	1590
642.939	1594
643.42	1604
643.901	1605
644.382	1625
644.863	1623
645.345	1620
645.826	1620
646.307	1622
646.788	1647
647.27	1626
647.751	1633
648.233	1644
648.714	1611
649.196	1651
649.677	1640
650.159	1635
650.64	1624
651.122	1655
651.603	1626
652.085	1645
652.567	1666
653.049	1651
653.53	1656
654.012	1678
654.494	1656
654.976	1681
655.458	1665
655.94	1659
656.422	1693
656.904	1661
657.386	1643
657.868	1641
658.35	1639
658.833	1646
659.315	1656
659.797	1632
660.279	1627
660.762	1637
661.244	1610
661.726	1609
662.209	1609
662.691	1620
663.174	1580
663.656	1592
664.139	1601
664.621	1588
665.104	1583
665.587	1600
666.069	1611
666.552	1609
667.035	1587
667.517	1589
668	1614
668.483	1622
668.966	1604
669.449	1602
669.932	1600
670.415	1618
670.898	1618
671.381	1619
671.864	1622
672.347	1592
672.83	1605
673.313	1606
673.797	1604
674.28	1643
674.763	1635
675.247	1637
675.73	1619
676.213	1631
676.697	1651
677.18	1657
677.664	1654
678.147	1652
678.631	1673
679.114	1704
679.598	1693
680.082	1713
680.565	1707
681.049	1697
681.533	1698
682.017	1709
682.5	1705
682.984	1707
683.468	1712
683.952	1692
684.436	1732
684.92	1704
685.404	1722
685.888	1738
686.372	1720
686.856	1719
687.341	1742
687.825	1714
688.309	1719
688.793	1731
689.278	1707
689.762	1729
690.246	1721
690.731	1717
691.215	1722
691.7	1674
692.184	1710
692.669	1697
693.153	1704
693.638	1675
694.122	1685
694.607	1702
695.092	1676
695.577	1703
696.061	1680
696.546	1683
697.031	1672
697.516	1696
698.001	1699
698.486	1698
698.971	1709
699.456	1671
699.941	1666
700.426	1672
700.911	1689
701.396	1685
701.881	1693
702.366	1679
702.852	1681
703.337	1688
703.822	1675
704.308	1670
704.793	1684
705.278	1687
705.764	1693
706.249	1678
706.735	1682
707.22	1695
707.706	1678
708.191	1697
708.677	1699
709.163	1684
709.648	1697
710.134	1726
710.62	1720
711.106	1720
711.592	1729
712.077	1716
712.563	1674
713.049	1673
713.535	1715
714.021	1713
714.507	1709
714.993	1686
715.479	1696
715.966	1683
716.452	1692
716.938	1694
717.424	1648
717.91	1680
718.397	1656
718.883	1648
719.369	1660
719.856	1647
720.342	1659
720.829	1637
721.315	1644
721.802	1637
722.288	1644
722.775	1578
723.262	1535
723.748	1609
724.235	1602
724.722	1620
725.208	1587
725.695	1582
726.182	1588
726.669	1574
727.156	1595
727.643	1574
728.13	1572
728.617	1553
729.104	1554
729.591	1547
730.078	1559
730.565	1560
731.052	1542
731.539	1547
732.027	1539
732.514	1522
733.001	1532
733.488	1520
733.976	1517
734.463	1517
734.951	1515
735.438	1526
735.926	1509
736.413	1529
736.901	1515
737.388	1527
737.876	1522
738.364	1508
738.851	1521
739.339	1529
739.827	1543
740.314	1486
740.802	1495
741.29	1500
741.778	1488
742.266	1484
742.754	1489
743.242	1510
743.73	1484
744.218	1480
744.706	1470
745.194	1492
745.682	1485
746.17	1492
746.659	1484
747.147	1456
747.635	1463
748.123	1458
748.612	1431
749.1	1418
749.589	1427
750.077	1430
750.566	1423
751.054	1437
751.543	1445
752.031	1407
752.52	1408
753.008	1372
753.497	1383
753.986	1379
754.474	1384
754.963	1390
755.452	1366
755.941	1351
756.43	1343
756.919	1343
757.408	1331
757.896	1343
758.385	1356
758.875	1338
759.364	1330
759.853	1309
760.342	1289
760.831	1311
761.32	1311
761.809	1287
762.299	1297
762.788	1305
763.277	1305
763.767	1292
764.256	1298
764.745	1276
765.235	1294
765.724	1265
766.214	1287
766.703	1268
767.193	1246
767.683	1257
768.172	1228
768.662	1237
769.152	1222
769.641	1235
770.131	1198
770.621	1217
771.111	1198
771.601	1197
772.09	1185
772.58	1174
773.07	1172
773.56	1179
774.05	1152
774.54	1142
775.031	1138
775.521	1128
776.011	1138
776.501	1144
776.991	1116
777.482	1126
777.972	1104
778.462	1099
778.953	1109
779.443	1107
779.933	1101
780.424	1094
780.914	1115
781.405	1120
781.895	1108
782.386	1112
782.877	1101
783.367	1082
783.858	1077
784.349	1072
784.839	1062
785.33	1068
785.821	1074
786.312	1070
786.803	1076
787.293	1068
787.784	1062
788.275	1047
788.766	1040
789.257	1055
789.748	1035
790.24	1017
790.731	1023
791.222	1005
791.713	1007
792.204	1012
792.696	979
793.187	986
793.678	976
794.169	943
794.661	963
795.152	945
795.644	939
796.135	943
796.627	934
797.118	924
797.61	917
798.101	902
798.593	908
799.085	896
799.576	906
800.068	903
800.56	908
801.052	883
801.544	881
802.035	879
802.527	871
803.019	864
803.511	851
804.003	852
804.495	858
804.987	854
805.479	839
805.971	838
806.464	844
806.956	825
807.448	820
807.94	819
808.433	816
808.925	811
809.417	811
809.91	806
810.402	783
810.894	796
811.387	800
811.879	788
812.372	793
812.865	785
813.357	777
813.85	776
814.342	768
814.835	764
815.328	764
815.821	753
816.313	753
816.806	754
817.299	748
817.792	754
818.285	738
818.778	749
819.271	747
819.764	733
820.257	744
820.75	737
821.243	738
821.736	734
822.229	736
822.722	726
823.216	739
