Data from lamp5helium_sterk_Subt2__96__96.txt Node

Date: Wed Apr 09 11:04:45 CEST 2025
User: fys-lab-0081
Spectrometer: S04999
Trigger mode: 0
Resolution mode: 1024 pixels
Integration Time (sec): 1.000000E-1
Scans to average: 1
Nonlinearity correction enabled: false
Boxcar width: 0
Baseline correction enabled: true
XAxis mode: Wavelengths
Number of Pixels in Spectrum: 1024
>>>>>Begin Spectral Data<<<<<
336.42	2
336.877	2
337.334	-4
337.792	1
338.249	3
338.706	6
339.164	1
339.621	-1
340.079	5
340.536	5
340.994	2
341.452	2
341.909	6
342.367	5
342.825	-2
343.283	1
343.741	-1
344.198	3
344.656	-2
345.114	-2
345.572	4
346.03	-1
346.488	1
346.947	5
347.405	4
347.863	-5
348.321	0
348.779	3
349.238	-1
349.696	3
350.154	-2
350.613	-2
351.071	1
351.53	6
351.988	7
352.447	2
352.905	-2
353.364	2
353.823	0
354.282	1
354.74	-2
355.199	1
355.658	4
356.117	0
356.576	-2
357.035	-3
357.494	0
357.953	-3
358.412	4
358.871	1
359.33	-1
359.789	1
360.249	1
360.708	0
361.167	5
361.626	-2
362.086	0
362.545	2
363.005	3
363.464	2
363.924	4
364.383	-1
364.843	3
365.303	7
365.762	7
366.222	1
366.682	-2
367.142	5
367.601	1
368.061	-1
368.521	1
368.981	-1
369.441	4
369.901	8
370.361	0
370.821	-2
371.282	5
371.742	5
372.202	3
372.662	4
373.123	-4
373.583	5
374.043	7
374.504	0
374.964	-6
375.425	0
375.885	2
376.346	6
376.806	3
377.267	-5
377.728	5
378.188	5
378.649	3
379.11	0
379.571	0
380.032	6
380.493	5
380.954	5
381.414	2
381.876	2
382.337	2
382.798	9
383.259	8
383.72	5
384.181	1
384.642	5
385.104	5
385.565	3
386.026	7
386.488	8
386.949	7
387.411	7
387.872	7
388.334	11
388.795	13
389.257	8
389.719	6
390.181	5
390.642	6
391.104	8
391.566	9
392.028	7
392.49	12
392.952	11
393.414	9
393.876	11
394.338	7
394.8	11
395.262	4
395.724	10
396.186	11
396.648	8
397.111	12
397.573	16
398.035	15
398.498	9
398.96	9
399.423	10
399.885	11
400.348	9
400.81	11
401.273	8
401.736	11
402.198	21
402.661	8
403.124	7
403.587	15
404.049	14
404.512	13
404.975	13
405.438	15
405.901	16
406.364	18
406.827	13
407.29	13
407.754	13
408.217	19
408.68	16
409.143	17
409.607	20
410.07	18
410.533	15
410.997	19
411.46	18
411.924	24
412.387	25
412.851	19
413.314	16
413.778	21
414.242	17
414.705	23
415.169	23
415.633	17
416.097	17
416.561	22
417.024	23
417.488	24
417.952	21
418.416	23
418.88	20
419.344	14
419.809	21
420.273	20
420.737	22
421.201	26
421.665	24
422.13	22
422.594	27
423.059	24
423.523	26
423.987	22
424.452	28
424.916	24
425.381	26
425.846	23
426.31	39
426.775	31
427.24	29
427.704	30
428.169	30
428.634	33
429.099	34
429.564	33
430.029	31
430.494	30
430.959	32
431.424	30
431.889	38
432.354	33
432.819	33
433.284	35
433.75	36
434.215	42
434.68	34
435.146	32
435.611	33
436.077	39
436.542	34
437.008	38
437.473	40
437.939	45
438.404	46
438.87	41
439.336	44
439.801	44
440.267	44
440.733	53
441.199	48
441.665	46
442.131	53
442.596	45
443.062	49
443.529	52
443.995	55
444.461	55
444.927	56
445.393	55
445.859	56
446.325	57
446.792	66
447.258	65
447.724	67
448.191	65
448.657	70
449.124	62
449.59	66
450.057	75
450.523	73
450.99	77
451.457	73
451.923	77
452.39	75
452.857	80
453.324	74
453.791	77
454.257	83
454.724	82
455.191	81
455.658	82
456.125	87
456.592	85
457.059	88
457.527	83
457.994	84
458.461	94
458.928	94
459.396	93
459.863	93
460.33	97
460.798	99
461.265	100
461.732	100
462.2	103
462.668	96
463.135	100
463.603	98
464.07	104
464.538	99
465.006	101
465.474	104
465.941	101
466.409	100
466.877	101
467.345	97
467.813	99
468.281	106
468.749	107
469.217	105
469.685	107
470.153	114
470.621	111
471.09	114
471.558	118
472.026	120
472.494	124
472.963	124
473.431	128
473.9	130
474.368	136
474.837	134
475.305	134
475.774	133
476.242	145
476.711	141
477.18	147
477.648	145
478.117	149
478.586	146
479.055	147
479.524	152
479.993	151
480.462	148
480.93	151
481.399	147
481.869	154
482.338	153
482.807	157
483.276	153
483.745	156
484.214	158
484.684	159
485.153	164
485.622	164
486.092	166
486.561	165
487.031	181
487.5	170
487.97	176
488.439	179
488.909	182
489.378	194
489.848	194
490.318	197
490.787	213
491.257	211
491.727	209
492.197	216
492.667	220
493.137	222
493.607	225
494.077	226
494.547	225
495.017	224
495.487	226
495.957	235
496.427	229
496.897	230
497.368	233
497.838	236
498.308	232
498.779	242
499.249	239
499.719	241
500.19	254
500.66	244
501.131	255
501.602	258
502.072	253
502.543	262
503.014	275
503.484	269
503.955	275
504.426	289
504.897	290
505.368	291
505.838	304
506.309	305
506.78	319
507.251	323
507.722	332
508.194	342
508.665	349
509.136	341
509.607	361
510.078	366
510.549	366
511.021	375
511.492	368
511.964	383
512.435	387
512.906	382
513.378	388
513.849	399
514.321	398
514.793	403
515.264	414
515.736	412
516.208	424
516.679	426
517.151	434
517.623	433
518.095	437
518.567	447
519.038	453
519.51	458
519.982	463
520.454	463
520.927	479
521.399	486
521.871	491
522.343	492
522.815	496
523.287	497
523.76	503
524.232	513
524.704	511
525.177	502
525.649	508
526.122	519
526.594	507
527.067	513
527.539	524
528.012	524
528.484	524
528.957	533
529.43	532
529.903	527
530.375	545
530.848	537
531.321	546
531.794	551
532.267	559
532.74	552
533.213	552
533.686	564
534.159	560
534.632	576
535.105	575
535.578	589
536.051	595
536.525	589
536.998	597
537.471	606
537.945	605
538.418	609
538.891	615
539.365	626
539.838	631
540.312	627
540.786	630
541.259	635
541.733	650
542.206	651
542.68	638
543.154	644
543.628	654
544.101	662
544.575	651
545.049	635
545.523	647
545.997	645
546.471	653
546.945	655
547.419	660
547.893	636
548.367	651
548.842	644
549.316	648
549.79	661
550.264	655
550.739	663
551.213	664
551.687	665
552.162	672
552.636	668
553.111	670
553.585	687
554.06	687
554.534	695
555.009	691
555.484	709
555.958	714
556.433	717
556.908	721
557.383	720
557.858	737
558.333	741
558.807	741
559.282	748
559.757	775
560.232	753
560.708	750
561.183	750
561.658	765
562.133	771
562.608	764
563.083	787
563.559	769
564.034	765
564.509	770
564.985	770
565.46	770
565.936	781
566.411	781
566.887	772
567.362	776
567.838	777
568.313	786
568.789	777
569.265	785
569.74	788
570.216	778
570.692	790
571.168	789
571.644	797
572.12	792
572.596	805
573.071	807
573.547	834
574.024	843
574.5	849
574.976	856
575.452	867
575.928	880
576.404	890
576.881	914
577.357	896
577.833	908
578.31	930
578.786	936
579.262	949
579.739	941
580.215	972
580.692	981
581.169	958
581.645	962
582.122	995
582.598	994
583.075	993
583.552	1001
584.029	999
584.506	998
584.982	991
585.459	1011
585.936	994
586.413	1009
586.89	1031
587.367	1024
587.844	1044
588.321	1037
588.799	1039
589.276	1028
589.753	1049
590.23	1053
590.707	1059
591.185	1060
591.662	1068
592.139	1077
592.617	1095
593.094	1090
593.572	1101
594.049	1105
594.527	1117
595.004	1119
595.482	1157
595.96	1156
596.437	1148
596.915	1174
597.393	1157
597.871	1180
598.349	1180
598.826	1201
599.304	1199
599.782	1235
600.26	1222
600.738	1249
601.216	1249
601.694	1250
602.173	1262
602.651	1267
603.129	1272
603.607	1281
604.085	1283
604.564	1287
605.042	1302
605.52	1290
605.999	1320
606.477	1278
606.956	1292
607.434	1310
607.913	1328
608.391	1322
608.87	1308
609.348	1296
609.827	1301
610.306	1311
610.785	1312
611.263	1317
611.742	1303
612.221	1284
612.7	1317
613.179	1316
613.658	1306
614.137	1331
614.616	1346
615.095	1331
615.574	1343
616.053	1351
616.532	1345
617.011	1350
617.491	1360
617.97	1351
618.449	1361
618.928	1393
619.408	1391
619.887	1393
620.367	1401
620.846	1414
621.326	1403
621.805	1437
622.285	1442
622.764	1458
623.244	1458
623.724	1465
624.203	1479
624.683	1450
625.163	1477
625.643	1481
626.123	1472
626.602	1503
627.082	1480
627.562	1477
628.042	1503
628.522	1497
629.002	1490
629.482	1496
629.963	1499
630.443	1490
630.923	1485
631.403	1508
631.883	1505
632.364	1512
632.844	1511
633.324	1511
633.805	1503
634.285	1488
634.766	1483
635.246	1485
635.727	1493
636.207	1501
636.688	1488
637.168	1482
637.649	1481
638.13	1483
638.611	1500
639.091	1499
639.572	1482
640.053	1481
640.534	1488
641.015	1493
641.496	1471
641.977	1499
642.458	1490
642.939	1489
643.42	1497
643.901	1501
644.382	1523
644.863	1517
645.345	1514
645.826	1523
646.307	1515
646.788	1541
647.27	1523
647.751	1524
648.233	1542
648.714	1506
649.196	1545
649.677	1539
650.159	1537
650.64	1526
651.122	1552
651.603	1529
652.085	1549
652.567	1559
653.049	1552
653.53	1553
654.012	1576
654.494	1548
654.976	1576
655.458	1569
655.94	1561
656.422	1585
656.904	1557
657.386	1537
657.868	1535
658.35	1527
658.833	1542
659.315	1552
659.797	1529
660.279	1523
660.762	1535
661.244	1518
661.726	1505
662.209	1514
662.691	1520
663.174	1489
663.656	1498
664.139	1501
664.621	1484
665.104	1483
665.587	1507
666.069	1515
666.552	1518
667.035	1491
667.517	1502
668	1520
668.483	1524
668.966	1509
669.449	1513
669.932	1502
670.415	1527
670.898	1515
671.381	1525
671.864	1522
672.347	1495
672.83	1506
673.313	1513
673.797	1502
674.28	1534
674.763	1538
675.247	1545
675.73	1526
676.213	1537
676.697	1556
677.18	1556
677.664	1560
678.147	1560
678.631	1571
679.114	1591
679.598	1594
680.082	1613
680.565	1604
681.049	1603
681.533	1594
682.017	1613
682.5	1600
682.984	1608
683.468	1618
683.952	1589
684.436	1631
684.92	1605
685.404	1618
685.888	1627
686.372	1617
686.856	1617
687.341	1640
687.825	1614
688.309	1615
688.793	1627
689.278	1614
689.762	1631
690.246	1614
690.731	1610
691.215	1624
691.7	1581
692.184	1609
692.669	1604
693.153	1608
693.638	1573
694.122	1584
694.607	1605
695.092	1585
695.577	1602
696.061	1577
696.546	1585
697.031	1577
697.516	1593
698.001	1601
698.486	1599
698.971	1607
699.456	1573
699.941	1570
700.426	1566
700.911	1587
701.396	1585
701.881	1596
702.366	1585
702.852	1587
703.337	1586
703.822	1577
704.308	1573
704.793	1582
705.278	1588
705.764	1594
706.249	1580
706.735	1583
707.22	1604
707.706	1580
708.191	1601
708.677	1604
709.163	1586
709.648	1601
710.134	1624
710.62	1619
711.106	1620
711.592	1637
712.077	1625
712.563	1584
713.049	1577
713.535	1617
714.021	1620
714.507	1610
714.993	1591
715.479	1604
715.966	1584
716.452	1597
716.938	1599
717.424	1554
717.91	1587
718.397	1571
718.883	1550
719.369	1565
719.856	1546
720.342	1566
720.829	1547
721.315	1555
721.802	1537
722.288	1549
722.775	1488
723.262	1448
723.748	1515
724.235	1510
724.722	1528
725.208	1495
725.695	1501
726.182	1495
726.669	1481
727.156	1511
727.643	1496
728.13	1481
728.617	1464
729.104	1474
729.591	1464
730.078	1475
730.565	1474
731.052	1453
731.539	1459
732.027	1454
732.514	1431
733.001	1446
733.488	1434
733.976	1441
734.463	1433
734.951	1433
735.438	1440
735.926	1425
736.413	1443
736.901	1432
737.388	1442
737.876	1435
738.364	1433
738.851	1436
739.339	1437
739.827	1455
740.314	1404
740.802	1414
741.29	1427
741.778	1396
742.266	1403
742.754	1414
743.242	1424
743.73	1410
744.218	1402
744.706	1389
745.194	1410
745.682	1401
746.17	1416
746.659	1408
747.147	1382
747.635	1379
748.123	1376
748.612	1352
749.1	1338
749.589	1345
750.077	1346
750.566	1344
751.054	1359
751.543	1367
752.031	1334
752.52	1326
753.008	1300
753.497	1306
753.986	1305
754.474	1308
754.963	1315
755.452	1283
755.941	1275
756.43	1276
756.919	1272
757.408	1254
757.896	1274
758.385	1282
758.875	1266
759.364	1248
759.853	1238
760.342	1220
760.831	1253
761.32	1234
761.809	1214
762.299	1224
762.788	1233
763.277	1234
763.767	1222
764.256	1228
764.745	1210
765.235	1226
765.724	1197
766.214	1216
766.703	1207
767.193	1187
767.683	1185
768.172	1160
768.662	1165
769.152	1157
769.641	1165
770.131	1131
770.621	1149
771.111	1127
771.601	1132
772.09	1121
772.58	1105
773.07	1103
773.56	1109
774.05	1096
774.54	1081
775.031	1074
775.521	1073
776.011	1074
776.501	1088
776.991	1056
777.482	1066
777.972	1044
778.462	1049
778.953	1051
779.443	1043
779.933	1045
780.424	1042
780.914	1056
781.405	1057
781.895	1051
782.386	1050
782.877	1040
783.367	1029
783.858	1017
784.349	1023
784.839	1010
785.33	1011
785.821	1019
786.312	1020
786.803	1016
787.293	1015
787.784	1007
788.275	994
788.766	986
789.257	999
789.748	977
790.24	966
790.731	973
791.222	955
791.713	948
792.204	953
792.696	929
793.187	931
793.678	923
794.169	896
794.661	918
795.152	897
795.644	882
796.135	895
796.627	886
797.118	878
797.61	869
798.101	855
798.593	866
799.085	854
799.576	862
800.068	853
800.56	863
801.052	837
801.544	842
802.035	836
802.527	825
803.019	820
803.511	815
804.003	805
804.495	816
804.987	805
805.479	798
805.971	795
806.464	807
806.956	782
807.448	778
807.94	778
808.433	774
808.925	768
809.417	767
809.91	763
810.402	751
810.894	754
811.387	761
811.879	751
812.372	756
812.865	744
813.357	738
813.85	732
814.342	724
814.835	728
815.328	724
815.821	714
816.313	715
816.806	720
817.299	706
817.792	712
818.285	702
818.778	713
819.271	714
819.764	701
820.257	705
820.75	698
821.243	705
821.736	695
822.229	706
822.722	693
823.216	708
