Data from lamp5helium_sterk_Subt4__6__461.txt Node

Date: Wed Apr 09 10:18:29 CEST 2025
User: fys-lab-0081
Spectrometer: S04999
Trigger mode: 0
Resolution mode: 1024 pixels
Integration Time (sec): 1.000000E-1
Scans to average: 1
Nonlinearity correction enabled: false
Boxcar width: 0
Baseline correction enabled: true
XAxis mode: Wavelengths
Number of Pixels in Spectrum: 1024
>>>>>Begin Spectral Data<<<<<
336.42	1
336.877	3
337.334	1
337.792	-1
338.249	4
338.706	2
339.164	0
339.621	0
340.079	3
340.536	7
340.994	7
341.452	-1
341.909	-2
342.367	-3
342.825	0
343.283	2
343.741	-3
344.198	-1
344.656	0
345.114	1
345.572	4
346.03	1
346.488	2
346.947	3
347.405	3
347.863	1
348.321	5
348.779	-3
349.238	4
349.696	5
350.154	2
350.613	3
351.071	0
351.53	4
351.988	7
352.447	2
352.905	6
353.364	1
353.823	3
354.282	4
354.74	1
355.199	2
355.658	3
356.117	6
356.576	7
357.035	5
357.494	6
357.953	9
358.412	9
358.871	-4
359.33	5
359.789	5
360.249	-2
360.708	5
361.167	2
361.626	8
362.086	2
362.545	5
363.005	5
363.464	3
363.924	2
364.383	7
364.843	3
365.303	8
365.762	8
366.222	0
366.682	4
367.142	8
367.601	7
368.061	9
368.521	10
368.981	7
369.441	13
369.901	15
370.361	3
370.821	9
371.282	11
371.742	12
372.202	8
372.662	14
373.123	7
373.583	8
374.043	13
374.504	3
374.964	9
375.425	11
375.885	9
376.346	11
376.806	9
377.267	13
377.728	16
378.188	15
378.649	13
379.11	10
379.571	9
380.032	16
380.493	8
380.954	16
381.414	11
381.876	15
382.337	14
382.798	20
383.259	19
383.72	17
384.181	16
384.642	18
385.104	21
385.565	28
386.026	20
386.488	21
386.949	25
387.411	22
387.872	21
388.334	24
388.795	24
389.257	28
389.719	25
390.181	22
390.642	27
391.104	24
391.566	25
392.028	30
392.49	29
392.952	30
393.414	29
393.876	27
394.338	31
394.8	28
395.262	31
395.724	34
396.186	33
396.648	33
397.111	37
397.573	38
398.035	36
398.498	38
398.96	35
399.423	40
399.885	41
400.348	38
400.81	47
401.273	38
401.736	44
402.198	42
402.661	46
403.124	45
403.587	47
404.049	49.5
404.512	52
404.975	54
405.438	48
405.901	50
406.364	53
406.827	55
407.29	54
407.754	56
408.217	54
408.68	56
409.143	55
409.607	60
410.07	56
410.533	55
410.997	60
411.46	56
411.924	60
412.387	61
412.851	65
413.314	67
413.778	65
414.242	70
414.705	70
415.169	66
415.633	66
416.097	69
416.561	68
417.024	76
417.488	76
417.952	75
418.416	76
418.88	70
419.344	76
419.809	71
420.273	75
420.737	73
421.201	70
421.665	80
422.13	81
422.594	84
423.059	89
423.523	88
423.987	85
424.452	91
424.916	96
425.381	92
425.846	96
426.31	97
426.775	96
427.24	101
427.704	90
428.169	103
428.634	102
429.099	100
429.564	101
430.029	109
430.494	107
430.959	110
431.424	103
431.889	106
432.354	112
432.819	113
433.284	113
433.75	107
434.215	117
434.68	127
435.146	128
435.611	144
436.077	152
436.542	146
437.008	143
437.473	138
437.939	144
438.404	147
438.87	149
439.336	148
439.801	145
440.267	151
440.733	152
441.199	155
441.665	151
442.131	158
442.596	156
443.062	157
443.529	169
443.995	165
444.461	173
444.927	186
445.393	183
445.859	195
446.325	194
446.792	216
447.258	211
447.724	218
448.191	222
448.657	224
449.124	234
449.59	225
450.057	243
450.523	246
450.99	247
451.457	248
451.923	253
452.39	254
452.857	261
453.324	255
453.791	261
454.257	264
454.724	264
455.191	268
455.658	267
456.125	282
456.592	276
457.059	281
457.527	286
457.994	294
458.461	297
458.928	307
459.396	305
459.863	308
460.33	308
460.798	313
461.265	313
461.732	311
462.2	325
462.668	323
463.135	330
463.603	316
464.07	322
464.538	324
465.006	335
465.474	325
465.941	329
466.409	334
466.877	318
467.345	337
467.813	338
468.281	333
468.749	341
469.217	343
469.685	344
470.153	349
470.621	349
471.09	356
471.558	373
472.026	374
472.494	383
472.963	390
473.431	408
473.9	413
474.368	423
474.837	431
475.305	435
475.774	450
476.242	459
476.711	456
477.18	467
477.648	465
478.117	475
478.586	473
479.055	470
479.524	477
479.993	480
480.462	474
480.93	477
481.399	475
481.869	483
482.338	483
482.807	487
483.276	491
483.745	495
484.214	505
484.684	511
485.153	512
485.622	519
486.092	539
486.561	530
487.031	539
487.5	557
487.97	571
488.439	582
488.909	600
489.378	616
489.848	620
490.318	636
490.787	657
491.257	667
491.727	667
492.197	684
492.667	681
493.137	685
493.607	698
494.077	707
494.547	698
495.017	700
495.487	709
495.957	726
496.427	709
496.897	714
497.368	721
497.838	722
498.308	729
498.779	739
499.249	752
499.719	755
500.19	763
500.66	767
501.131	776
501.602	788
502.072	778
502.543	796
503.014	828
503.484	826
503.955	859
504.426	884
504.897	892
505.368	914
505.838	931
506.309	943
506.78	980
507.251	1004
507.722	1019
508.194	1048
508.665	1060
509.136	1053
509.607	1095
510.078	1108
510.549	1109
511.021	1137
511.492	1142
511.964	1166
512.435	1187
512.906	1170
513.378	1189
513.849	1207
514.321	1216
514.793	1228
515.264	1245
515.736	1255
516.208	1281
516.679	1291
517.151	1303
517.623	1315
518.095	1337
518.567	1355
519.038	1375
519.51	1374
519.982	1403
520.454	1417
520.927	1439
521.399	1464
521.871	1480
522.343	1483
522.815	1500
523.287	1497
523.76	1516
524.232	1540
524.704	1552
525.177	1527
525.649	1539
526.122	1558
526.594	1524
527.067	1569
527.539	1591
528.012	1578
528.484	1571
528.957	1571
529.43	1575
529.903	1571
530.375	1634
530.848	1606
531.321	1622
531.794	1619
532.267	1651
532.74	1631
533.213	1636
533.686	1668
534.159	1656
534.632	1703
535.105	1714
535.578	1748
536.051	1762
536.525	1769
536.998	1771
537.471	1804
537.945	1789
538.418	1830
538.891	1832
539.365	1857
539.838	1875
540.312	1873
540.786	1900
541.259	1892
541.733	1912
542.206	1933
542.68	1897
543.154	1901
543.628	1907
544.101	1961
544.575	1939
545.049	1892
545.523	1933
545.997	1942
546.471	1966
546.945	1932
547.419	1963
547.893	1887
548.367	1933
548.842	1914
549.316	1918
549.79	1932
550.264	1918
550.739	1942
551.213	1929
551.687	1942
552.162	1972
552.636	1948
553.111	1942
553.585	1999
554.06	1977
554.534	2008
555.009	1995
555.484	2036
555.958	2060
556.433	2081
556.908	2099
557.383	2079
557.858	2142
558.333	2147
558.807	2126
559.282	2147
559.757	2208
560.232	2228
560.708	2192
561.183	2175
561.658	2207
562.133	2215
562.608	2191
563.083	2242
563.559	2191
564.034	2209
564.509	2216
564.985	2227
565.46	2202
565.936	2243
566.411	2249
566.887	2223
567.362	2236
567.838	2241
568.313	2264
568.789	2234
569.265	2227
569.74	2254
570.216	2241
570.692	2282
571.168	2286
571.644	2263
572.12	2260
572.596	2297
573.071	2314
573.547	2378
574.024	2401
574.5	2444
574.976	2449
575.452	2487
575.928	2496
576.404	2516
576.881	2610
577.357	2565
577.833	2574
578.31	2647
578.786	2689
579.262	2743
579.739	2705
580.215	2767
580.692	2746
581.169	2740
581.645	2748
582.122	2836
582.598	2830
583.075	2829
583.552	2861
584.029	2855
584.506	2833
584.982	2807
585.459	2871
585.936	2847
586.413	2874
586.89	2917
587.367	2904
587.844	2977
588.321	2964
588.799	2958
589.276	2917
589.753	2957
590.23	2987
590.707	2974
591.185	2968
591.662	2962
592.139	3023
592.617	3074
593.094	3057
593.572	3072
594.049	3108
594.527	3147
595.004	3172
595.482	3246
595.96	3214
596.437	3233
596.915	3320
597.393	3257
597.871	3329
598.349	3294
598.826	3371
599.304	3368
599.782	3449
600.26	3404
600.738	3500
601.216	3504
601.694	3532
602.173	3551
602.651	3549
603.129	3490
603.607	3526
604.085	3537
604.564	3542
605.042	3548
605.52	3536
605.999	3641
606.477	3556
606.956	3566
607.434	3604.5
607.913	3643
608.391	3633
608.87	3620
609.348	3572
609.827	3608
610.306	3652
610.785	3702
611.263	3716
611.742	3682
612.221	3625
612.7	3644
613.179	3667
613.658	3630
614.137	3684
614.616	3697
615.095	3634
615.574	3704
616.053	3740
616.532	3708
617.011	3717
617.491	3729
617.97	3741
618.449	3806
618.928	3831
619.408	3783
619.887	3836
620.367	3856
620.846	3917
621.326	3890
621.805	3970
622.285	3953
622.764	3993
623.244	3999
623.724	4041
624.203	4059
624.683	3979
625.163	4073
625.643	4065
626.123	4030
626.602	4134
627.082	4065
627.562	4061
628.042	4157
628.522	4101
629.002	4065
629.482	4087
629.963	4079
630.443	4058
630.923	4076
631.403	4102
631.883	4095
632.364	4106
632.844	4063
633.324	4105
633.805	4121
634.285	4075
634.766	4055
635.246	4057
635.727	4051
636.207	4069
636.688	4085
637.168	4089
637.649	4038
638.13	4036
638.611	4063
639.091	4060
639.572	4031
640.053	4014
640.534	4051
641.015	4042
641.496	3990
641.977	4077
642.458	4029
642.939	4057
643.42	4074
643.901	4064
644.382	4128
644.863	4109
645.345	4127
645.826	4111
646.307	4129
646.788	4195
647.27	4118
647.751	4123
648.233	4149
648.714	4075
649.196	4191
649.677	4189
650.159	4187
650.64	4117
651.122	4197
651.603	4152
652.085	4212
652.567	4214
653.049	4168
653.53	4176
654.012	4222
654.494	4161
654.976	4201
655.458	4179
655.94	4175
656.422	4247
656.904	4201
657.386	4155
657.868	4164
658.35	4146
658.833	4171
659.315	4185
659.797	4133
660.279	4140
660.762	4173
661.244	4123
661.726	4069
662.209	4057
662.691	4061
663.174	4002
663.656	4032
664.139	4032
664.621	3992
665.104	3962
665.587	4022
666.069	4061
666.552	4069
667.035	4021
667.517	4038
668	4072
668.483	4074
668.966	4022
669.449	4021
669.932	4014
670.415	4062
670.898	4024
671.381	4040
671.864	4071
672.347	4033
672.83	4036
673.313	4029
673.797	4011
674.28	4094
674.763	4134
675.247	4163
675.73	4137
676.213	4157
676.697	4187
677.18	4192
677.664	4209
678.147	4201
678.631	4214
679.114	4244
679.598	4241
680.082	4277
680.565	4285
681.049	4270
681.533	4267
682.017	4278
682.5	4279
682.984	4288
683.468	4296
683.952	4224
684.436	4303
684.92	4258
685.404	4293
685.888	4338
686.372	4313
686.856	4341
687.341	4388
687.825	4321
688.309	4332
688.793	4318
689.278	4266
689.762	4308
690.246	4293
690.731	4300
691.215	4313
691.7	4201
692.184	4258
692.669	4239
693.153	4279
693.638	4225
694.122	4221
694.607	4239
695.092	4179
695.577	4221
696.061	4139
696.546	4147
697.031	4135
697.516	4162
698.001	4179
698.486	4167
698.971	4229
699.456	4146
699.941	4142
700.426	4136
700.911	4179
701.396	4162
701.881	4208
702.366	4192
702.852	4179
703.337	4205
703.822	4182
704.308	4180
704.793	4203
705.278	4224
705.764	4248
706.249	4199
706.735	4180
707.22	4196
707.706	4134
708.191	4219
708.677	4236
709.163	4209
709.648	4234
710.134	4285
710.62	4246
711.106	4253
711.592	4313
712.077	4301
712.563	4176
713.049	4159
713.535	4240
714.021	4230
714.507	4226
714.993	4185
715.479	4248
715.966	4189
716.452	4187
716.938	4184
717.424	4069
717.91	4153
718.397	4129
718.883	4118
719.369	4139
719.856	4093
720.342	4137
720.829	4082
721.315	4110
721.802	4078
722.288	4114
722.775	3940
723.262	3830
723.748	3996
724.235	3990
724.722	4071
725.208	3999
725.695	4008
726.182	3986
726.669	3914
727.156	3916
727.643	3869
728.13	3856
728.617	3817
729.104	3828
729.591	3793
730.078	3835
730.565	3854
731.052	3792
731.539	3819
732.027	3791
732.514	3726
733.001	3772
733.488	3754
733.976	3747
734.463	3735
734.951	3714
735.438	3765
735.926	3730
736.413	3775
736.901	3744
737.388	3800
737.876	3790
738.364	3770
738.851	3773
739.339	3761
739.827	3794
740.314	3696
740.802	3717
741.29	3736
741.778	3681
742.266	3680
742.754	3696
743.242	3726
743.73	3638
744.218	3623
744.706	3583
745.194	3603
745.682	3588
746.17	3607
746.659	3623
747.147	3548
747.635	3559
748.123	3556
748.612	3514
749.1	3510
749.589	3551
750.077	3520
750.566	3499
751.054	3510
751.543	3525
752.031	3460
752.52	3448
753.008	3379
753.497	3382
753.986	3369
754.474	3346
754.963	3391
755.452	3350
755.941	3341
756.43	3336
756.919	3323
757.408	3314
757.896	3327
758.385	3329
758.875	3302
759.364	3253
759.853	3217
760.342	3154
760.831	3221
761.32	3186
761.809	3134
762.299	3151
762.788	3160
763.277	3157
763.767	3104
764.256	3103
764.745	3056
765.235	3096
765.724	3000
766.214	3050
766.703	3031
767.193	3005
767.683	3016
768.172	2960
768.662	2986
769.152	2969
769.641	2970
770.131	2910
770.621	2950
771.111	2891
771.601	2874
772.09	2845
772.58	2814
773.07	2828
773.56	2866
774.05	2831
774.54	2838
775.031	2817
775.521	2797
776.011	2779
776.501	2789
776.991	2733
777.482	2755
777.972	2691
778.462	2698
778.953	2711
779.443	2696
779.933	2689
780.424	2664
780.914	2688
781.405	2696
781.895	2667
782.386	2658
782.877	2643
783.367	2601
783.858	2573
784.349	2571
784.839	2543
785.33	2542
785.821	2547
786.312	2535
786.803	2542
787.293	2546
787.784	2512
788.275	2468
788.766	2433
789.257	2478
789.748	2421
790.24	2402
790.731	2421
791.222	2389
791.713	2376
792.204	2378
792.696	2316
793.187	2343
793.678	2321
794.169	2259
794.661	2289
795.152	2266
795.644	2241
796.135	2239
796.627	2264
797.118	2219
797.61	2214
798.101	2185
798.593	2203
799.085	2180
799.576	2183
800.068	2143
800.56	2135
801.052	2087
801.544	2082
802.035	2095
802.527	2064
803.019	2047
803.511	2021
804.003	2014
804.495	2025
804.987	1998
805.479	1948
805.971	1973
806.464	1978
806.956	1930
807.448	1934
807.94	1927
808.433	1912
808.925	1914
809.417	1894
809.91	1873
810.402	1819
810.894	1826
811.387	1844
811.879	1813
812.372	1832
812.865	1801
813.357	1807
813.85	1785
814.342	1781
814.835	1786
815.328	1779
815.821	1752
816.313	1744
816.806	1744
817.299	1725
817.792	1726
818.285	1704
818.778	1726
819.271	1727
819.764	1707
820.257	1713
820.75	1727
821.243	1721
821.736	1704
822.229	1716
822.722	1715
823.216	1747
