Data from lamp5helium_sterk_Subt2__62__62.txt Node

Date: Wed Apr 09 11:04:41 CEST 2025
User: fys-lab-0081
Spectrometer: S04999
Trigger mode: 0
Resolution mode: 1024 pixels
Integration Time (sec): 1.000000E-1
Scans to average: 1
Nonlinearity correction enabled: false
Boxcar width: 0
Baseline correction enabled: true
XAxis mode: Wavelengths
Number of Pixels in Spectrum: 1024
>>>>>Begin Spectral Data<<<<<
336.42	-2
336.877	-1
337.334	3
337.792	4
338.249	1
338.706	1
339.164	-2
339.621	5
340.079	3
340.536	1
340.994	1
341.452	6
341.909	8
342.367	1
342.825	-3
343.283	6
343.741	0
344.198	1
344.656	-2
345.114	1
345.572	4
346.03	1
346.488	-2
346.947	-2
347.405	3
347.863	0
348.321	-1
348.779	3
349.238	-2
349.696	0
350.154	1
350.613	-3
351.071	0
351.53	5
351.988	1
352.447	2
352.905	-2
353.364	-1
353.823	1
354.282	0
354.74	-5
355.199	0
355.658	3
356.117	-2
356.576	1
357.035	-4
357.494	0
357.953	-3
358.412	7
358.871	-1
359.33	0
359.789	-2
360.249	4
360.708	0
361.167	2
361.626	3
362.086	-7
362.545	2
363.005	1
363.464	-1
363.924	2
364.383	2
364.843	1
365.303	3
365.762	5
366.222	3
366.682	-3
367.142	3
367.601	2
368.061	1
368.521	6
368.981	1
369.441	6
369.901	9
370.361	-2
370.821	0
371.282	2
371.742	2
372.202	4
372.662	7
373.123	-2
373.583	2
374.043	-1
374.504	-3
374.964	0
375.425	-3
375.885	4
376.346	4
376.806	5
377.267	3
377.728	6
378.188	3
378.649	5
379.11	1
379.571	-2
380.032	1
380.493	1
380.954	9
381.414	1
381.876	3
382.337	0
382.798	5
383.259	7
383.72	9
384.181	0
384.642	2
385.104	3
385.565	7
386.026	9
386.488	7
386.949	8
387.411	4
387.872	10
388.334	9
388.795	7
389.257	8
389.719	9
390.181	10
390.642	6
391.104	9
391.566	11
392.028	9
392.49	12
392.952	8
393.414	10
393.876	13
394.338	9
394.8	7
395.262	5
395.724	12
396.186	14
396.648	10
397.111	15
397.573	12
398.035	10
398.498	9
398.96	13
399.423	10
399.885	15
400.348	10
400.81	12
401.273	10
401.736	13
402.198	15
402.661	17
403.124	7
403.587	16
404.049	13
404.512	10
404.975	12
405.438	20
405.901	22
406.364	18
406.827	16
407.29	11
407.754	18
408.217	17
408.68	15
409.143	16
409.607	22
410.07	18
410.533	15
410.997	24
411.46	19
411.924	23
412.387	22
412.851	15
413.314	17
413.778	20
414.242	23
414.705	25
415.169	24
415.633	19
416.097	21
416.561	25
417.024	21
417.488	21
417.952	25
418.416	22
418.88	24
419.344	17
419.809	21
420.273	21
420.737	24
421.201	24
421.665	28
422.13	27
422.594	35
423.059	29
423.523	31
423.987	24
424.452	31
424.916	27
425.381	33
425.846	27
426.31	35
426.775	38
427.24	35
427.704	33
428.169	33
428.634	39
429.099	35
429.564	32
430.029	34
430.494	32
430.959	32
431.424	32
431.889	42
432.354	40
432.819	35
433.284	44
433.75	39
434.215	41
434.68	38
435.146	35
435.611	38
436.077	44
436.542	42
437.008	46
437.473	48
437.939	39
438.404	45
438.87	51
439.336	48
439.801	52
440.267	50
440.733	53
441.199	51
441.665	51
442.131	55
442.596	48
443.062	54
443.529	57
443.995	58
444.461	57
444.927	63
445.393	57
445.859	59
446.325	66
446.792	69
447.258	65
447.724	74
448.191	76
448.657	75
449.124	70
449.59	69
450.057	78
450.523	81
450.99	83
451.457	77
451.923	82
452.39	84
452.857	90
453.324	86
453.791	89
454.257	88
454.724	86
455.191	86
455.658	92
456.125	90
456.592	90
457.059	94
457.527	92
457.994	94
458.461	102
458.928	102
459.396	100
459.863	104
460.33	99
460.798	104
461.265	110
461.732	105
462.2	107
462.668	109
463.135	107
463.603	104
464.07	116
464.538	111
465.006	108
465.474	111
465.941	110
466.409	108
466.877	110
467.345	109
467.813	108
468.281	115
468.749	112
469.217	112
469.685	118
470.153	124
470.621	123
471.09	120
471.558	127
472.026	129
472.494	128
472.963	132
473.431	132
473.9	138
474.368	147
474.837	144
475.305	146
475.774	144
476.242	156
476.711	152
477.18	158
477.648	157
478.117	156
478.586	161
479.055	158
479.524	165
479.993	162
480.462	164
480.93	159
481.399	162
481.869	160
482.338	159
482.807	170
483.276	166
483.745	168
484.214	174
484.684	176
485.153	173
485.622	176
486.092	183
486.561	178
487.031	188
487.5	185
487.97	193
488.439	195
488.909	198
489.378	212
489.848	217
490.318	216
490.787	227
491.257	228
491.727	228
492.197	232
492.667	237
493.137	237
493.607	237
494.077	241
494.547	235
495.017	241
495.487	241
495.957	251
496.427	250
496.897	245
497.368	247
497.838	247
498.308	252
498.779	251
499.249	252
499.719	258
500.19	267
500.66	265
501.131	270
501.602	269
502.072	267
502.543	281
503.014	295
503.484	291
503.955	293
504.426	307
504.897	308
505.368	311
505.838	324
506.309	325
506.78	345
507.251	351
507.722	358
508.194	365
508.665	370
509.136	372
509.607	391
510.078	391
510.549	391
511.021	402
511.492	402
511.964	406
512.435	413
512.906	411
513.378	416
513.849	426
514.321	428
514.793	430
515.264	444
515.736	443
516.208	451
516.679	457
517.151	461
517.623	465
518.095	473
518.567	481
519.038	489
519.51	495
519.982	493
520.454	497
520.927	509
521.399	518
521.871	525
522.343	524
522.815	532
523.287	526
523.76	536
524.232	545
524.704	545
525.177	539
525.649	550
526.122	557
526.594	541
527.067	552
527.539	560
528.012	565
528.484	559
528.957	567
529.43	566
529.903	569
530.375	585
530.848	571
531.321	579
531.794	588
532.267	598
532.74	593
533.213	591
533.686	600
534.159	596
534.632	612
535.105	619
535.578	633
536.051	633
536.525	631
536.998	635
537.471	653
537.945	640
538.418	657
538.891	656
539.365	668
539.838	675
540.312	670
540.786	673
541.259	678
541.733	688
542.206	693
542.68	684
543.154	687
543.628	689
544.101	702
544.575	690
545.049	675
545.523	688
545.997	690
546.471	697
546.945	693
547.419	708
547.893	682
548.367	693
548.842	688
549.316	695
549.79	697
550.264	700
550.739	706
551.213	714
551.687	705
552.162	717
552.636	711
553.111	710
553.585	736
554.06	723
554.534	737
555.009	737
555.484	753
555.958	761
556.433	761
556.908	776
557.383	771
557.858	785
558.333	789
558.807	782
559.282	801
559.757	818
560.232	812
560.708	800
561.183	801
561.658	820
562.133	815
562.608	807
563.083	830
563.559	817
564.034	813
564.509	824
564.985	820
565.46	815
565.936	833
566.411	828
566.887	820
567.362	828
567.838	830
568.313	842
568.789	829
569.265	833
569.74	837
570.216	829
570.692	847
571.168	845
571.644	849
572.12	844
572.596	853
573.071	857
573.547	890
574.024	897
574.5	904
574.976	913
575.452	925
575.928	940
576.404	942
576.881	967
577.357	959
577.833	968
578.31	983
578.786	993
579.262	1007
579.739	1000
580.215	1040
580.692	1036
581.169	1021
581.645	1028
582.122	1061
582.598	1059
583.075	1058
583.552	1063
584.029	1065
584.506	1059
584.982	1055
585.459	1069
585.936	1054
586.413	1081
586.89	1104
587.367	1085
587.844	1109
588.321	1102
588.799	1109
589.276	1094
589.753	1111
590.23	1122
590.707	1122
591.185	1126
591.662	1136
592.139	1144
592.617	1164
593.094	1164
593.572	1168
594.049	1178
594.527	1191
595.004	1195
595.482	1227
595.96	1222
596.437	1221
596.915	1245
597.393	1225
597.871	1261
598.349	1252
598.826	1272
599.304	1276
599.782	1304
600.26	1296
600.738	1327
601.216	1324
601.694	1331
602.173	1338
602.651	1352
603.129	1344
603.607	1351
604.085	1361
604.564	1359
605.042	1380
605.52	1368
605.999	1393
606.477	1356
606.956	1365
607.434	1387
607.913	1409
608.391	1401
608.87	1383
609.348	1367
609.827	1382
610.306	1392
610.785	1390
611.263	1390
611.742	1387
612.221	1364
612.7	1394
613.179	1391
613.658	1389
614.137	1405
614.616	1427
615.095	1414
615.574	1425
616.053	1433
616.532	1424
617.011	1441
617.491	1435
617.97	1434
618.449	1453
618.928	1471
619.408	1464
619.887	1474
620.367	1488
620.846	1495
621.326	1485
621.805	1521
622.285	1530
622.764	1536
623.244	1543
623.724	1554
624.203	1566
624.683	1547
625.163	1562
625.643	1563
626.123	1562
626.602	1590
627.082	1562
627.562	1560
628.042	1592
628.522	1593
629.002	1574
629.482	1584
629.963	1595
630.443	1578
630.923	1577
631.403	1589
631.883	1587
632.364	1601
632.844	1590
633.324	1597
633.805	1593
634.285	1566
634.766	1567
635.246	1573
635.727	1580
636.207	1583
636.688	1574
637.168	1570
637.649	1568
638.13	1568
638.611	1586
639.091	1579
639.572	1569
640.053	1558
640.534	1576
641.015	1577
641.496	1557
641.977	1587
642.458	1572
642.939	1577
643.42	1586
643.901	1584
644.382	1612
644.863	1606
645.345	1598
645.826	1607
646.307	1605
646.788	1634
647.27	1613
647.751	1615
648.233	1631
648.714	1590
649.196	1632
649.677	1616
650.159	1617
650.64	1604
651.122	1639
651.603	1607
652.085	1625
652.567	1645
653.049	1636
653.53	1641
654.012	1668
654.494	1639
654.976	1656
655.458	1655
655.94	1653
656.422	1675
656.904	1640
657.386	1614
657.868	1626
658.35	1616
658.833	1632
659.315	1637
659.797	1613
660.279	1608
660.762	1611
661.244	1599
661.726	1591
662.209	1597
662.691	1598
663.174	1567
663.656	1574
664.139	1584
664.621	1573
665.104	1561
665.587	1587
666.069	1604
666.552	1595
667.035	1581
667.517	1588
668	1608
668.483	1606
668.966	1592
669.449	1592
669.932	1583
670.415	1604
670.898	1602
671.381	1604
671.864	1604
672.347	1580
672.83	1589
673.313	1590
673.797	1585
674.28	1621
674.763	1618
675.247	1628
675.73	1603
676.213	1623
676.697	1641
677.18	1643
677.664	1641
678.147	1645
678.631	1661
679.114	1681
679.598	1678
680.082	1696
680.565	1691
681.049	1690
681.533	1683
682.017	1691
682.5	1692
682.984	1696
683.468	1697
683.952	1672
684.436	1713
684.92	1694
685.404	1706
685.888	1718
686.372	1698
686.856	1698
687.341	1725
687.825	1698
688.309	1708
688.793	1718
689.278	1693
689.762	1719
690.246	1702
690.731	1699
691.215	1705
691.7	1662
692.184	1698
692.669	1683
693.153	1687
693.638	1662
694.122	1672
694.607	1690
695.092	1666
695.577	1690
696.061	1659
696.546	1672
697.031	1659
697.516	1683
698.001	1682
698.486	1672
698.971	1694
699.456	1650
699.941	1656
700.426	1651
700.911	1668
701.396	1670
701.881	1680
702.366	1667
702.852	1672
703.337	1664
703.822	1656
704.308	1657
704.793	1670
705.278	1666
705.764	1678
706.249	1662
706.735	1657
707.22	1682
707.706	1657
708.191	1682
708.677	1681
709.163	1673
709.648	1687
710.134	1710
710.62	1700
711.106	1704
711.592	1724
712.077	1704
712.563	1658
713.049	1662
713.535	1700
714.021	1696
714.507	1694
714.993	1670
715.479	1683
715.966	1668
716.452	1678
716.938	1680
717.424	1624
717.91	1663
718.397	1652
718.883	1640
719.369	1655
719.856	1624
720.342	1646
720.829	1621
721.315	1629
721.802	1616
722.288	1627
722.775	1567
723.262	1522
723.748	1597
724.235	1588
724.722	1614
725.208	1569
725.695	1578
726.182	1570
726.669	1562
727.156	1585
727.643	1567
728.13	1566
728.617	1541
729.104	1550
729.591	1534
730.078	1545
730.565	1549
731.052	1527
731.539	1535
732.027	1522
732.514	1506
733.001	1520
733.488	1509
733.976	1508
734.463	1504
734.951	1507
735.438	1513
735.926	1494
736.413	1510
736.901	1501
737.388	1512
737.876	1506
738.364	1493
738.851	1511
739.339	1520
739.827	1528
740.314	1478
740.802	1485
741.29	1487
741.778	1475
742.266	1469
742.754	1481
743.242	1495
743.73	1473
744.218	1466
744.706	1448
745.194	1475
745.682	1469
746.17	1478
746.659	1479
747.147	1444
747.635	1447
748.123	1442
748.612	1421
749.1	1410
749.589	1417
750.077	1416
750.566	1407
751.054	1427
751.543	1434
752.031	1399
752.52	1391
753.008	1365
753.497	1363
753.986	1371
754.474	1370
754.963	1385
755.452	1349
755.941	1338
756.43	1343
756.919	1334
757.408	1318
757.896	1332
758.385	1341
758.875	1329
759.364	1314
759.853	1300
760.342	1284
760.831	1306
761.32	1302
761.809	1278
762.299	1287
762.788	1285
763.277	1290
763.767	1280
764.256	1287
764.745	1269
765.235	1282
765.724	1248
766.214	1271
766.703	1257
767.193	1238
767.683	1238
768.172	1217
768.662	1224
769.152	1220
769.641	1222
770.131	1184
770.621	1213
771.111	1187
771.601	1183
772.09	1173
772.58	1159
773.07	1168
773.56	1166
774.05	1150
774.54	1131
775.031	1130
775.521	1125
776.011	1127
776.501	1140
776.991	1106
777.482	1119
777.972	1093
778.462	1096
778.953	1104
779.443	1101
779.933	1101
780.424	1086
780.914	1099
781.405	1107
781.895	1100
782.386	1108
782.877	1090
783.367	1071
783.858	1070
784.349	1069
784.839	1058
785.33	1061
785.821	1061
786.312	1061
786.803	1064
787.293	1058
787.784	1050
788.275	1039
788.766	1033
789.257	1047
789.748	1022
790.24	1012
790.731	1018
791.222	997
791.713	1006
792.204	995
792.696	970
793.187	979
793.678	971
794.169	940
794.661	958
795.152	938
795.644	927
796.135	935
796.627	928
797.118	918
797.61	908
798.101	898
798.593	903
799.085	885
799.576	899
800.068	890
800.56	896
801.052	871
801.544	876
802.035	874
802.527	866
803.019	858
803.511	849
804.003	842
804.495	850
804.987	847
805.479	832
805.971	835
806.464	839
806.956	820
807.448	810
807.94	811
808.433	813
808.925	807
809.417	800
809.91	794
810.402	781
810.894	790
811.387	796
811.879	784
812.372	786
812.865	774
813.357	772
813.85	767
814.342	761
814.835	762
815.328	754
815.821	746
816.313	745
816.806	748
817.299	736
817.792	750
818.285	733
818.778	742
819.271	738
819.764	727
820.257	730
820.75	732
821.243	731
821.736	725
822.229	727
822.722	725
823.216	743
