Data from lamp5helium_sterk_Subt2__92__92.txt Node

Date: Wed Apr 09 11:04:45 CEST 2025
User: fys-lab-0081
Spectrometer: S04999
Trigger mode: 0
Resolution mode: 1024 pixels
Integration Time (sec): 1.000000E-1
Scans to average: 1
Nonlinearity correction enabled: false
Boxcar width: 0
Baseline correction enabled: true
XAxis mode: Wavelengths
Number of Pixels in Spectrum: 1024
>>>>>Begin Spectral Data<<<<<
336.42	-1
336.877	5
337.334	3
337.792	3
338.249	-1
338.706	1
339.164	0
339.621	5
340.079	6
340.536	4
340.994	1
341.452	1
341.909	5
342.367	2
342.825	-3
343.283	6
343.741	-1
344.198	-3
344.656	-3
345.114	0
345.572	5
346.03	-3
346.488	1
346.947	-1
347.405	5
347.863	3
348.321	-1
348.779	4
349.238	1
349.696	0
350.154	-1
350.613	0
351.071	0
351.53	7
351.988	3
352.447	3
352.905	-1
353.364	0
353.823	0
354.282	1
354.74	0
355.199	3
355.658	3
356.117	-2
356.576	1
357.035	-1
357.494	2
357.953	0
358.412	3
358.871	5
359.33	1
359.789	-1
360.249	4
360.708	6
361.167	-1
361.626	2
362.086	-1
362.545	2
363.005	-1
363.464	-1
363.924	2
364.383	-3
364.843	0
365.303	4
365.762	4
366.222	3
366.682	2
367.142	-1
367.601	0
368.061	-2
368.521	0
368.981	0
369.441	2
369.901	6
370.361	1
370.821	1
371.282	-1
371.742	1
372.202	0
372.662	2
373.123	-3
373.583	-1
374.043	7
374.504	1
374.964	0
375.425	6
375.885	-1
376.346	3
376.806	6
377.267	3
377.728	6
378.188	5
378.649	2
379.11	4
379.571	-1
380.032	3
380.493	0
380.954	6
381.414	2
381.876	1
382.337	-1
382.798	6
383.259	8
383.72	-3
384.181	3
384.642	6
385.104	1
385.565	7
386.026	9
386.488	7
386.949	11
387.411	3
387.872	3
388.334	7
388.795	11
389.257	7
389.719	7
390.181	8
390.642	4
391.104	11
391.566	4
392.028	4
392.49	12
392.952	13
393.414	11
393.876	10
394.338	4
394.8	5
395.262	7
395.724	13
396.186	10
396.648	9
397.111	10
397.573	13
398.035	8
398.498	9
398.96	11
399.423	12
399.885	11
400.348	13
400.81	11
401.273	11
401.736	11
402.198	18
402.661	14
403.124	3
403.587	17
404.049	15.5
404.512	14
404.975	8
405.438	13
405.901	19
406.364	16
406.827	14
407.29	13
407.754	13
408.217	15
408.68	15
409.143	19
409.607	26
410.07	19
410.533	17
410.997	13
411.46	17
411.924	25
412.387	21
412.851	15
413.314	16
413.778	15
414.242	20
414.705	23
415.169	21
415.633	21
416.097	16
416.561	21
417.024	21
417.488	21
417.952	20
418.416	18
418.88	18
419.344	14
419.809	24
420.273	22
420.737	19
421.201	23
421.665	24
422.13	23
422.594	28
423.059	24
423.523	23
423.987	22
424.452	30
424.916	23
425.381	29
425.846	22
426.31	34
426.775	28
427.24	32
427.704	35
428.169	29
428.634	34
429.099	30
429.564	31
430.029	30
430.494	31
430.959	30
431.424	34
431.889	36
432.354	39
432.819	32
433.284	41
433.75	35
434.215	39
434.68	35
435.146	35
435.611	36
436.077	39
436.542	40
437.008	39
437.473	44
437.939	45
438.404	39
438.87	48
439.336	41
439.801	48
440.267	42
440.733	46
441.199	50
441.665	49
442.131	49
442.596	46
443.062	51
443.529	56
443.995	54
444.461	54
444.927	58
445.393	55
445.859	54
446.325	58
446.792	70
447.258	64
447.724	69
448.191	71
448.657	66
449.124	63
449.59	65
450.057	72
450.523	76
450.99	74
451.457	75
451.923	79
452.39	78
452.857	86
453.324	77
453.791	81
454.257	86
454.724	84
455.191	80
455.658	85
456.125	81
456.592	85
457.059	84
457.527	86
457.994	93
458.461	90
458.928	91
459.396	96
459.863	95
460.33	95
460.798	92
461.265	100
461.732	101
462.2	103
462.668	100
463.135	101
463.603	101
464.07	109
464.538	101
465.006	101
465.474	104
465.941	105
466.409	103
466.877	95
467.345	102
467.813	100
468.281	106
468.749	109
469.217	109
469.685	111
470.153	113
470.621	113
471.09	114
471.558	125
472.026	119
472.494	124
472.963	124
473.431	124
473.9	130
474.368	134
474.837	138
475.305	138
475.774	134
476.242	144
476.711	143
477.18	144
477.648	143
478.117	146
478.586	154
479.055	147
479.524	149
479.993	152
480.462	152
480.93	149
481.399	152
481.869	147
482.338	150
482.807	161
483.276	157
483.745	157
484.214	158
484.684	161
485.153	160
485.622	167
486.092	167
486.561	167
487.031	177
487.5	173
487.97	176
488.439	183
488.909	185
489.378	193
489.848	199
490.318	200
490.787	216
491.257	213
491.727	214
492.197	222
492.667	218
493.137	226
493.607	223
494.077	225
494.547	224
495.017	222
495.487	229
495.957	235
496.427	232
496.897	227
497.368	237
497.838	234
498.308	236
498.779	236
499.249	244
499.719	250
500.19	252
500.66	249
501.131	253
501.602	254
502.072	256
502.543	266
503.014	271
503.484	272
503.955	275
504.426	287
504.897	295
505.368	293
505.838	309
506.309	309
506.78	325
507.251	325
507.722	335
508.194	347
508.665	349
509.136	346
509.607	366
510.078	368
510.549	368
511.021	382
511.492	379
511.964	383
512.435	386
512.906	389
513.378	394
513.849	400
514.321	399
514.793	403
515.264	416
515.736	417
516.208	424
516.679	433
517.151	437
517.623	439
518.095	443
518.567	449
519.038	465
519.51	462
519.982	464
520.454	470
520.927	482
521.399	489
521.871	492
522.343	495
522.815	502
523.287	499
523.76	501
524.232	509
524.704	517
525.177	508
525.649	510
526.122	521
526.594	508
527.067	518
527.539	529
528.012	531
528.484	528
528.957	531
529.43	532
529.903	533
530.375	549
530.848	543
531.321	548
531.794	554
532.267	566
532.74	553
533.213	562
533.686	570
534.159	564
534.632	580
535.105	581
535.578	594
536.051	593
536.525	591
536.998	599
537.471	616
537.945	606
538.418	618
538.891	620
539.365	630
539.838	635
540.312	633
540.786	630
541.259	637
541.733	653
542.206	655
542.68	640
543.154	648
543.628	660
544.101	666
544.575	652
545.049	635
545.523	651
545.997	650
546.471	654
546.945	652
547.419	667
547.893	643
548.367	659
548.842	650
549.316	657
549.79	666
550.264	662
550.739	666
551.213	671
551.687	667
552.162	674
552.636	673
553.111	671
553.585	695
554.06	690
554.534	698
555.009	699
555.484	709
555.958	720
556.433	719
556.908	729
557.383	726
557.858	741
558.333	746
558.807	737
559.282	751
559.757	773
560.232	771
560.708	757
561.183	756
561.658	772
562.133	773
562.608	767
563.083	788
563.559	772
564.034	771
564.509	774
564.985	782
565.46	779
565.936	785
566.411	782
566.887	778
567.362	787
567.838	786
568.313	792
568.789	783
569.265	789
569.74	799
570.216	789
570.692	801
571.168	792
571.644	805
572.12	803
572.596	810
573.071	809
573.547	836
574.024	850
574.5	857
574.976	860
575.452	879
575.928	888
576.404	896
576.881	917
577.357	905
577.833	916
578.31	934
578.786	944
579.262	958
579.739	953
580.215	979
580.692	983
581.169	968
581.645	981
582.122	1002
582.598	1005
583.075	1003
583.552	1008
584.029	1003
584.506	1004
584.982	1003
585.459	1019
585.936	1000
586.413	1017
586.89	1046
587.367	1034
587.844	1053
588.321	1042
588.799	1046
589.276	1034
589.753	1050
590.23	1067
590.707	1062
591.185	1067
591.662	1075
592.139	1090
592.617	1107
593.094	1102
593.572	1103
594.049	1112
594.527	1123
595.004	1132
595.482	1168
595.96	1160
596.437	1155
596.915	1185
597.393	1167
597.871	1194
598.349	1186
598.826	1206
599.304	1210
599.782	1242
600.26	1231
600.738	1263
601.216	1253
601.694	1264
602.173	1269
602.651	1281
603.129	1279
603.607	1280
604.085	1287
604.564	1293
605.042	1302
605.52	1296
605.999	1324
606.477	1291
606.956	1297
607.434	1315.5
607.913	1334
608.391	1328
608.87	1320
609.348	1297
609.827	1308
610.306	1327
610.785	1326
611.263	1322
611.742	1313
612.221	1296
612.7	1324
613.179	1333
613.658	1324
614.137	1339
614.616	1353
615.095	1332
615.574	1355
616.053	1359
616.532	1355
617.011	1362
617.491	1365
617.97	1368
618.449	1378
618.928	1399
619.408	1393
619.887	1401
620.367	1410
620.846	1425
621.326	1421
621.805	1451
622.285	1450
622.764	1461
623.244	1466
623.724	1478
624.203	1493
624.683	1465
625.163	1492
625.643	1482
626.123	1479
626.602	1509
627.082	1486
627.562	1491
628.042	1515
628.522	1509
629.002	1504
629.482	1508
629.963	1517
630.443	1498
630.923	1498
631.403	1516
631.883	1517
632.364	1522
632.844	1517
633.324	1516
633.805	1516
634.285	1496
634.766	1494
635.246	1498
635.727	1508
636.207	1508
636.688	1499
637.168	1500
637.649	1491
638.13	1496
638.611	1510
639.091	1504
639.572	1493
640.053	1485
640.534	1503
641.015	1501
641.496	1483
641.977	1511
642.458	1500
642.939	1502
643.42	1505
643.901	1512
644.382	1528
644.863	1531
645.345	1526
645.826	1528
646.307	1529
646.788	1553
647.27	1534
647.751	1535
648.233	1560
648.714	1518
649.196	1560
649.677	1545
650.159	1545
650.64	1533
651.122	1559
651.603	1536
652.085	1558
652.567	1571
653.049	1561
653.53	1568
654.012	1587
654.494	1564
654.976	1584
655.458	1578
655.94	1571
656.422	1599
656.904	1563
657.386	1555
657.868	1552
658.35	1539
658.833	1553
659.315	1562
659.797	1538
660.279	1537
660.762	1541
661.244	1532
661.726	1512
662.209	1525
662.691	1522
663.174	1503
663.656	1509
664.139	1515
664.621	1501
665.104	1491
665.587	1521
666.069	1531
666.552	1522
667.035	1505
667.517	1515
668	1540
668.483	1533
668.966	1522
669.449	1520
669.932	1514
670.415	1530
670.898	1525
671.381	1537
671.864	1539
672.347	1510
672.83	1517
673.313	1518
673.797	1515
674.28	1556
674.763	1547
675.247	1547
675.73	1532
676.213	1551
676.697	1566
677.18	1561
677.664	1568
678.147	1572
678.631	1586
679.114	1603
679.598	1607
680.082	1626
680.565	1618
681.049	1612
681.533	1603
682.017	1619
682.5	1616
682.984	1623
683.468	1621
683.952	1598
684.436	1638
684.92	1623
685.404	1632
685.888	1642
686.372	1625
686.856	1626
687.341	1649
687.825	1627
688.309	1627
688.793	1640
689.278	1621
689.762	1641
690.246	1628
690.731	1625
691.215	1632
691.7	1590
692.184	1617
692.669	1616
693.153	1618
693.638	1583
694.122	1591
694.607	1620
695.092	1600
695.577	1612
696.061	1587
696.546	1597
697.031	1588
697.516	1605
698.001	1605
698.486	1599
698.971	1624
699.456	1587
699.941	1583
700.426	1579
700.911	1598
701.396	1597
701.881	1611
702.366	1596
702.852	1595
703.337	1595
703.822	1581
704.308	1587
704.793	1599
705.278	1604
705.764	1603
706.249	1591
706.735	1587
707.22	1612
707.706	1591
708.191	1613
708.677	1609
709.163	1601
709.648	1612
710.134	1639
710.62	1625
711.106	1634
711.592	1648
712.077	1633
712.563	1590
713.049	1585
713.535	1626
714.021	1628
714.507	1617
714.993	1601
715.479	1613
715.966	1591
716.452	1611
716.938	1609
717.424	1558
717.91	1589
718.397	1576
718.883	1571
719.369	1580
719.856	1564
720.342	1578
720.829	1558
721.315	1559
721.802	1544
722.288	1564
722.775	1501
723.262	1461
723.748	1531
724.235	1521
724.722	1542
725.208	1505
725.695	1504
726.182	1504
726.669	1486
727.156	1520
727.643	1503
728.13	1500
728.617	1482
729.104	1479
729.591	1468
730.078	1485
730.565	1485
731.052	1462
731.539	1472
732.027	1464
732.514	1439
733.001	1455
733.488	1448
733.976	1449
734.463	1439
734.951	1431
735.438	1459
735.926	1430
736.413	1448
736.901	1434
737.388	1456
737.876	1439
738.364	1434
738.851	1447
739.339	1447
739.827	1461
740.314	1413
740.802	1422
741.29	1432
741.778	1410
742.266	1414
742.754	1420
743.242	1442
743.73	1408
744.218	1409
744.706	1397
745.194	1418
745.682	1417
746.17	1420
746.659	1412
747.147	1385
747.635	1394
748.123	1388
748.612	1365
749.1	1348
749.589	1353
750.077	1357
750.566	1356
751.054	1366
751.543	1376
752.031	1339
752.52	1334
753.008	1306
753.497	1313
753.986	1313
754.474	1314
754.963	1326
755.452	1297
755.941	1283
756.43	1283
756.919	1285
757.408	1268
757.896	1277
758.385	1285
758.875	1277
759.364	1270
759.853	1247
760.342	1229
760.831	1259
761.32	1243
761.809	1223
762.299	1233
762.788	1235
763.277	1238
763.767	1228
764.256	1233
764.745	1215
765.235	1234
765.724	1203
766.214	1223
766.703	1212
767.193	1191
767.683	1189
768.172	1159
768.662	1176
769.152	1166
769.641	1171
770.131	1140
770.621	1158
771.111	1138
771.601	1137
772.09	1128
772.58	1112
773.07	1114
773.56	1123
774.05	1100
774.54	1094
775.031	1082
775.521	1082
776.011	1084
776.501	1098
776.991	1068
777.482	1077
777.972	1052
778.462	1052
778.953	1060
779.443	1052
779.933	1050
780.424	1052
780.914	1063
781.405	1068
781.895	1057
782.386	1057
782.877	1048
783.367	1029
783.858	1024
784.349	1025
784.839	1015
785.33	1023
785.821	1023
786.312	1018
786.803	1021
787.293	1027
787.784	1013
788.275	999
788.766	987
789.257	1006
789.748	985
790.24	974
790.731	976
791.222	960
791.713	959
792.204	958
792.696	930
793.187	939
793.678	931
794.169	900
794.661	922
795.152	901
795.644	891
796.135	899
796.627	899
797.118	883
797.61	873
798.101	866
798.593	874
799.085	854
799.576	862
800.068	856
800.56	867
801.052	840
801.544	846
802.035	841
802.527	833
803.019	823
803.511	813
804.003	813
804.495	819
804.987	814
805.479	802
805.971	802
806.464	805
806.956	791
807.448	782
807.94	782
808.433	778
808.925	776
809.417	765
809.91	766
810.402	754
810.894	759
811.387	764
811.879	752
812.372	761
812.865	750
813.357	745
813.85	738
814.342	730
814.835	730
815.328	728
815.821	720
816.313	720
816.806	720
817.299	714
817.792	719
818.285	704
818.778	714
819.271	714
819.764	705
820.257	706
820.75	703
821.243	709
821.736	694
822.229	706
822.722	695
823.216	708
