Data from lamp5helium_sterk_Subt4__37__492.txt Node

Date: Wed Apr 09 10:18:33 CEST 2025
User: fys-lab-0081
Spectrometer: S04999
Trigger mode: 0
Resolution mode: 1024 pixels
Integration Time (sec): 1.000000E-1
Scans to average: 1
Nonlinearity correction enabled: false
Boxcar width: 0
Baseline correction enabled: true
XAxis mode: Wavelengths
Number of Pixels in Spectrum: 1024
>>>>>Begin Spectral Data<<<<<
336.42	4
336.877	2
337.334	4
337.792	-1
338.249	7
338.706	0
339.164	4
339.621	1
340.079	2
340.536	5
340.994	9
341.452	-2
341.909	3
342.367	-2
342.825	-1
343.283	0
343.741	1
344.198	0
344.656	3
345.114	2
345.572	-1
346.03	1
346.488	2
346.947	1
347.405	7
347.863	0
348.321	4
348.779	0
349.238	4
349.696	3
350.154	1
350.613	3
351.071	-1
351.53	5
351.988	2
352.447	0
352.905	1
353.364	-1
353.823	4
354.282	3
354.74	2
355.199	2
355.658	8
356.117	5
356.576	5
357.035	3
357.494	5
357.953	5
358.412	8
358.871	0
359.33	1
359.789	5
360.249	4
360.708	9
361.167	0
361.626	11
362.086	4
362.545	4
363.005	10
363.464	1
363.924	4
364.383	7
364.843	3
365.303	2
365.762	5
366.222	2
366.682	9
367.142	11
367.601	5
368.061	8
368.521	14
368.981	5
369.441	10
369.901	14
370.361	8
370.821	9
371.282	11
371.742	10
372.202	13
372.662	12
373.123	11
373.583	6
374.043	8
374.504	7
374.964	7
375.425	10
375.885	10
376.346	9
376.806	11
377.267	13
377.728	15
378.188	12
378.649	13
379.11	12
379.571	8
380.032	13
380.493	11
380.954	16
381.414	11
381.876	14
382.337	19
382.798	15
383.259	20
383.72	15
384.181	18
384.642	15
385.104	21
385.565	28
386.026	20
386.488	14
386.949	23
387.411	25
387.872	16
388.334	25
388.795	23
389.257	24
389.719	27
390.181	25
390.642	29
391.104	23
391.566	25
392.028	30
392.49	28
392.952	28
393.414	32
393.876	27
394.338	30
394.8	26
395.262	33
395.724	33
396.186	34
396.648	36
397.111	36
397.573	33
398.035	35
398.498	37
398.96	37
399.423	36
399.885	43
400.348	37
400.81	48
401.273	40
401.736	46
402.198	40
402.661	48
403.124	46
403.587	47
404.049	49
404.512	51
404.975	50
405.438	48
405.901	49
406.364	60
406.827	54
407.29	55
407.754	51
408.217	55
408.68	51
409.143	53
409.607	60
410.07	54
410.533	56
410.997	60
411.46	57
411.924	61
412.387	60
412.851	62
413.314	63
413.778	64
414.242	64
414.705	66
415.169	69
415.633	68
416.097	69
416.561	71
417.024	78
417.488	76
417.952	78
418.416	77
418.88	74
419.344	73
419.809	75
420.273	78
420.737	75
421.201	72
421.665	82
422.13	80
422.594	83
423.059	86
423.523	84
423.987	87
424.452	84
424.916	90
425.381	95
425.846	98
426.31	95
426.775	100
427.24	102
427.704	99
428.169	101
428.634	103
429.099	103
429.564	100
430.029	103
430.494	103
430.959	103
431.424	105
431.889	107
432.354	108
432.819	110
433.284	111
433.75	112
434.215	118
434.68	124
435.146	125
435.611	138
436.077	148
436.542	148
437.008	138
437.473	139
437.939	146
438.404	149
438.87	151
439.336	147
439.801	146
440.267	149
440.733	158
441.199	155
441.665	153
442.131	162
442.596	161
443.062	160
443.529	165
443.995	172
444.461	174
444.927	187
445.393	186
445.859	196
446.325	198
446.792	217
447.258	213
447.724	215
448.191	221
448.657	226
449.124	235
449.59	227
450.057	249
450.523	240
450.99	248
451.457	248
451.923	253
452.39	254
452.857	259
453.324	253
453.791	259
454.257	264
454.724	266
455.191	263
455.658	265
456.125	276
456.592	273
457.059	280
457.527	281
457.994	293
458.461	300
458.928	305
459.396	304
459.863	310
460.33	309
460.798	314
461.265	319
461.732	312
462.2	325
462.668	319
463.135	331
463.603	319
464.07	322
464.538	326
465.006	331
465.474	327
465.941	328
466.409	329
466.877	322
467.345	337
467.813	332
468.281	337
468.749	338
469.217	342
469.685	343
470.153	348
470.621	352
471.09	358
471.558	373
472.026	370
472.494	384
472.963	388
473.431	407
473.9	414
474.368	422
474.837	426
475.305	434
475.774	446
476.242	457
476.711	459
477.18	469
477.648	470
478.117	474
478.586	475
479.055	469
479.524	482
479.993	470
480.462	477
480.93	479
481.399	481
481.869	483
482.338	482
482.807	489
483.276	490
483.745	491
484.214	502
484.684	512
485.153	514
485.622	515
486.092	538
486.561	526
487.031	544
487.5	560
487.97	571
488.439	581
488.909	603
489.378	624
489.848	623
490.318	637
490.787	660
491.257	671
491.727	669
492.197	686
492.667	680
493.137	688
493.607	694
494.077	710
494.547	698
495.017	699
495.487	709
495.957	731
496.427	708
496.897	711
497.368	718
497.838	722
498.308	733
498.779	741
499.249	750
499.719	762
500.19	765
500.66	765
501.131	774
501.602	788
502.072	782
502.543	800
503.014	837
503.484	825
503.955	854
504.426	897
504.897	900
505.368	914
505.838	924
506.309	955
506.78	977
507.251	1007
507.722	1020
508.194	1046
508.665	1067
509.136	1064
509.607	1101
510.078	1101
510.549	1111
511.021	1141
511.492	1146
511.964	1166
512.435	1184
512.906	1173
513.378	1189
513.849	1211
514.321	1214
514.793	1233
515.264	1252
515.736	1260
516.208	1277
516.679	1294
517.151	1300
517.623	1320
518.095	1340
518.567	1354
519.038	1372
519.51	1373
519.982	1398
520.454	1424
520.927	1444
521.399	1460
521.871	1486
522.343	1486
522.815	1500
523.287	1503
523.76	1518
524.232	1544
524.704	1558
525.177	1534
525.649	1537
526.122	1556
526.594	1529
527.067	1570
527.539	1588
528.012	1581
528.484	1579
528.957	1585
529.43	1577
529.903	1568
530.375	1633
530.848	1602
531.321	1629
531.794	1616
532.267	1661
532.74	1632
533.213	1642
533.686	1674
534.159	1662
534.632	1698
535.105	1719
535.578	1751
536.051	1760
536.525	1767
536.998	1775
537.471	1812
537.945	1790
538.418	1828
538.891	1839
539.365	1862
539.838	1878
540.312	1878
540.786	1898
541.259	1898
541.733	1917
542.206	1930
542.68	1906
543.154	1895
543.628	1907
544.101	1967
544.575	1943
545.049	1894
545.523	1941
545.997	1951
546.471	1974
546.945	1931
547.419	1964
547.893	1878
548.367	1938
548.842	1912
549.316	1915
549.79	1934
550.264	1927
550.739	1948
551.213	1941
551.687	1938
552.162	1973
552.636	1957
553.111	1944
553.585	2003
554.06	1977
554.534	2012
555.009	2006
555.484	2044
555.958	2077
556.433	2079
556.908	2102
557.383	2083
557.858	2137
558.333	2148
558.807	2137
559.282	2147
559.757	2210
560.232	2232
560.708	2197
561.183	2180
561.658	2214
562.133	2213
562.608	2204
563.083	2251
563.559	2194
564.034	2215
564.509	2216
564.985	2220
565.46	2199
565.936	2256
566.411	2258
566.887	2231
567.362	2242
567.838	2251
568.313	2273
568.789	2238
569.265	2236
569.74	2267
570.216	2250
570.692	2291
571.168	2285
571.644	2270
572.12	2272
572.596	2307
573.071	2317
573.547	2377
574.024	2412
574.5	2439
574.976	2466
575.452	2492
575.928	2503
576.404	2525
576.881	2609
577.357	2574
577.833	2576
578.31	2649
578.786	2696
579.262	2745
579.739	2703
580.215	2769
580.692	2750
581.169	2755
581.645	2752
582.122	2846
582.598	2837
583.075	2835
583.552	2867
584.029	2856
584.506	2844
584.982	2816
585.459	2868
585.936	2848
586.413	2877
586.89	2932
587.367	2905
587.844	2975
588.321	2956
588.799	2964
589.276	2921
589.753	2958
590.23	2979
590.707	2976
591.185	2977
591.662	2973
592.139	3027
592.617	3088
593.094	3076
593.572	3084
594.049	3120
594.527	3157
595.004	3189
595.482	3253
595.96	3219
596.437	3242
596.915	3334
597.393	3269
597.871	3344
598.349	3302
598.826	3375
599.304	3383
599.782	3455
600.26	3419
600.738	3510
601.216	3507
601.694	3535
602.173	3563
602.651	3556
603.129	3490
603.607	3537
604.085	3559
604.564	3548
605.042	3556
605.52	3540
605.999	3634
606.477	3559
606.956	3576
607.434	3613
607.913	3650
608.391	3637
608.87	3631
609.348	3592
609.827	3613
610.306	3655
610.785	3705
611.263	3729
611.742	3685
612.221	3625
612.7	3655
613.179	3666
613.658	3631
614.137	3696
614.616	3712
615.095	3647
615.574	3704
616.053	3748
616.532	3711
617.011	3721
617.491	3736
617.97	3751
618.449	3806
618.928	3841
619.408	3805
619.887	3843
620.367	3865
620.846	3923
621.326	3902
621.805	3991
622.285	3974
622.764	4001
623.244	4013
623.724	4054
624.203	4069
624.683	3996
625.163	4088
625.643	4077
626.123	4037
626.602	4149
627.082	4071
627.562	4076
628.042	4163
628.522	4112
629.002	4080
629.482	4093
629.963	4088
630.443	4060
630.923	4087
631.403	4111
631.883	4107
632.364	4123
632.844	4073
633.324	4106
633.805	4129
634.285	4086
634.766	4056
635.246	4067
635.727	4064
636.207	4077
636.688	4088
637.168	4098
637.649	4062
638.13	4042
638.611	4080
639.091	4075
639.572	4041
640.053	4021
640.534	4060
641.015	4048
641.496	4000
641.977	4083
642.458	4051
642.939	4060
643.42	4083
643.901	4079
644.382	4134
644.863	4132
645.345	4125
645.826	4135
646.307	4142
646.788	4215
647.27	4127
647.751	4126
648.233	4158
648.714	4071
649.196	4203
649.677	4187
650.159	4194
650.64	4140
651.122	4207
651.603	4167
652.085	4211
652.567	4224
653.049	4180
653.53	4173
654.012	4240
654.494	4165
654.976	4222
655.458	4193
655.94	4183
656.422	4268
656.904	4206
657.386	4164
657.868	4173
658.35	4148
658.833	4189
659.315	4197
659.797	4157
660.279	4153
660.762	4177
661.244	4137
661.726	4075
662.209	4077
662.691	4081
663.174	4016
663.656	4049
664.139	4048
664.621	3993
665.104	3969
665.587	4032
666.069	4062
666.552	4078
667.035	4027
667.517	4049
668	4077
668.483	4082
668.966	4049
669.449	4029
669.932	4023
670.415	4068
670.898	4041
671.381	4056
671.864	4078
672.347	4046
672.83	4046
673.313	4047
673.797	4017
674.28	4111
674.763	4154
675.247	4187
675.73	4153
676.213	4169
676.697	4194
677.18	4197
677.664	4225
678.147	4214
678.631	4226
679.114	4252
679.598	4245
680.082	4292
680.565	4292
681.049	4283
681.533	4269
682.017	4289
682.5	4284
682.984	4301
683.468	4299
683.952	4230
684.436	4325
684.92	4272
685.404	4307
685.888	4346
686.372	4321
686.856	4350
687.341	4394
687.825	4329
688.309	4336
688.793	4338
689.278	4276
689.762	4312
690.246	4289
690.731	4307
691.215	4338
691.7	4216
692.184	4261
692.669	4251
693.153	4292
693.638	4238
694.122	4218
694.607	4245
695.092	4189
695.577	4224
696.061	4154
696.546	4161
697.031	4142
697.516	4175
698.001	4180
698.486	4176
698.971	4247
699.456	4154
699.941	4147
700.426	4144
700.911	4188
701.396	4177
701.881	4228
702.366	4223
702.852	4195
703.337	4218
703.822	4187
704.308	4197
704.793	4230
705.278	4234
705.764	4258
706.249	4219
706.735	4188
707.22	4211
707.706	4135
708.191	4236
708.677	4249
709.163	4222
709.648	4244
710.134	4306
710.62	4246
711.106	4266
711.592	4334
712.077	4307
712.563	4200
713.049	4177
713.535	4257
714.021	4243
714.507	4226
714.993	4206
715.479	4261
715.966	4202
716.452	4202
716.938	4198
717.424	4076
717.91	4160
718.397	4146
718.883	4128
719.369	4143
719.856	4098
720.342	4155
720.829	4107
721.315	4123
721.802	4092
722.288	4129
722.775	3950
723.262	3847
723.748	4007
724.235	4011
724.722	4075
725.208	4022
725.695	4019
726.182	4000
726.669	3917
727.156	3931
727.643	3878
728.13	3874
728.617	3820
729.104	3837
729.591	3817
730.078	3848
730.565	3870
731.052	3816
731.539	3835
732.027	3801
732.514	3747
733.001	3780
733.488	3761
733.976	3753
734.463	3742
734.951	3727
735.438	3776
735.926	3736
736.413	3786
736.901	3758
737.388	3812
737.876	3800
738.364	3770
738.851	3788
739.339	3774
739.827	3809
740.314	3693
740.802	3721
741.29	3738
741.778	3681
742.266	3695
742.754	3706
743.242	3734
743.73	3647
744.218	3643
744.706	3599
745.194	3620
745.682	3597
746.17	3613
746.659	3640
747.147	3559
747.635	3574
748.123	3565
748.612	3527
749.1	3519
749.589	3556
750.077	3529
750.566	3507
751.054	3530
751.543	3539
752.031	3474
752.52	3457
753.008	3392
753.497	3398
753.986	3379
754.474	3368
754.963	3412
755.452	3357
755.941	3354
756.43	3346
756.919	3341
757.408	3318
757.896	3335
758.385	3347
758.875	3301
759.364	3267
759.853	3233
760.342	3170
760.831	3220
761.32	3190
761.809	3144
762.299	3158
762.788	3175
763.277	3163
763.767	3117
764.256	3123
764.745	3061
765.235	3100
765.724	3014
766.214	3060
766.703	3046
767.193	3014
767.683	3027
768.172	2968
768.662	2995
769.152	2977
769.641	2978
770.131	2910
770.621	2958
771.111	2905
771.601	2896
772.09	2857
772.58	2828
773.07	2836
773.56	2873
774.05	2844
774.54	2844
775.031	2831
775.521	2803
776.011	2782
776.501	2795
776.991	2739
777.482	2765
777.972	2704
778.462	2697
778.953	2721
779.443	2702
779.933	2702
780.424	2671
780.914	2689
781.405	2711
781.895	2679
782.386	2670
782.877	2663
783.367	2605
783.858	2578
784.349	2575
784.839	2552
785.33	2552
785.821	2550
786.312	2545
786.803	2548
787.293	2560
787.784	2513
788.275	2475
788.766	2439
789.257	2490
789.748	2434
790.24	2412
790.731	2435
791.222	2396
791.713	2371
792.204	2387
792.696	2329
793.187	2346
793.678	2335
794.169	2265
794.661	2296
795.152	2274
795.644	2248
796.135	2249
796.627	2271
797.118	2224
797.61	2209
798.101	2192
798.593	2209
799.085	2183
799.576	2189
800.068	2143
800.56	2147
801.052	2087
801.544	2085
802.035	2098
802.527	2078
803.019	2049
803.511	2028
804.003	2016
804.495	2024
804.987	2000
805.479	1956
805.971	1977
806.464	1980
806.956	1928
807.448	1936
807.94	1935
808.433	1921
808.925	1914
809.417	1886
809.91	1885
810.402	1825
810.894	1839
811.387	1846
811.879	1822
812.372	1835
812.865	1807
813.357	1807
813.85	1789
814.342	1788
814.835	1793
815.328	1778
815.821	1753
816.313	1747
816.806	1750
817.299	1728
817.792	1734
818.285	1716
818.778	1731
819.271	1733
819.764	1708
820.257	1719
820.75	1722
821.243	1721
821.736	1704
822.229	1722
822.722	1716
823.216	1754
