Data from lamp5helium_sterk_Subt4__28__483.txt Node

Date: Wed Apr 09 10:18:31 CEST 2025
User: fys-lab-0081
Spectrometer: S04999
Trigger mode: 0
Resolution mode: 1024 pixels
Integration Time (sec): 1.000000E-1
Scans to average: 1
Nonlinearity correction enabled: false
Boxcar width: 0
Baseline correction enabled: true
XAxis mode: Wavelengths
Number of Pixels in Spectrum: 1024
>>>>>Begin Spectral Data<<<<<
336.42	2
336.877	-2
337.334	5
337.792	-4
338.249	3
338.706	7
339.164	4
339.621	3
340.079	1
340.536	4
340.994	8
341.452	-4
341.909	5
342.367	-3
342.825	4
343.283	2
343.741	-3
344.198	2
344.656	-2
345.114	2
345.572	5
346.03	4
346.488	2
346.947	4
347.405	5
347.863	-2
348.321	3
348.779	-1
349.238	5
349.696	1
350.154	3
350.613	-1
351.071	2
351.53	3
351.988	6
352.447	3
352.905	2
353.364	1
353.823	0
354.282	6
354.74	2
355.199	6
355.658	3
356.117	0
356.576	8
357.035	6
357.494	6
357.953	4
358.412	8
358.871	-1
359.33	6
359.789	4
360.249	1
360.708	6
361.167	-2
361.626	7
362.086	5
362.545	5
363.005	7
363.464	0
363.924	6
364.383	10
364.843	5
365.303	7
365.762	6
366.222	5
366.682	9
367.142	11
367.601	8
368.061	6
368.521	12
368.981	5
369.441	9
369.901	11
370.361	6
370.821	9
371.282	12
371.742	9
372.202	10
372.662	14
373.123	6
373.583	9
374.043	13
374.504	3
374.964	9
375.425	11
375.885	8
376.346	9
376.806	11
377.267	14
377.728	17
378.188	14
378.649	12
379.11	14
379.571	10
380.032	9
380.493	9
380.954	17
381.414	12
381.876	13
382.337	14
382.798	20
383.259	21
383.72	18
384.181	17
384.642	16
385.104	23
385.565	28
386.026	20
386.488	20
386.949	23
387.411	17
387.872	20
388.334	23
388.795	19
389.257	29
389.719	27
390.181	23
390.642	31
391.104	24
391.566	27
392.028	37
392.49	25
392.952	35
393.414	33
393.876	28
394.338	36
394.8	32
395.262	29
395.724	31
396.186	34
396.648	36
397.111	36
397.573	38
398.035	34
398.498	37
398.96	35
399.423	37
399.885	42
400.348	39
400.81	48
401.273	40
401.736	46
402.198	42
402.661	48
403.124	44
403.587	49
404.049	51.5
404.512	54
404.975	56
405.438	51
405.901	53
406.364	56
406.827	54
407.29	58
407.754	55
408.217	56
408.68	53
409.143	56
409.607	60
410.07	58
410.533	61
410.997	57
411.46	56
411.924	62
412.387	60
412.851	65
413.314	66
413.778	62
414.242	73
414.705	68
415.169	67
415.633	68
416.097	77
416.561	74
417.024	73
417.488	74
417.952	76
418.416	77
418.88	74
419.344	73
419.809	74
420.273	74
420.737	78
421.201	71
421.665	80
422.13	81
422.594	82
423.059	90
423.523	83
423.987	86
424.452	90
424.916	96
425.381	97
425.846	91
426.31	98
426.775	99
427.24	109
427.704	92
428.169	103
428.634	99
429.099	101
429.564	104
430.029	105
430.494	107
430.959	108
431.424	104
431.889	106
432.354	107
432.819	108
433.284	116
433.75	114
434.215	117
434.68	123
435.146	130
435.611	141
436.077	149
436.542	148
437.008	146
437.473	144
437.939	147
438.404	144
438.87	148
439.336	145
439.801	142
440.267	145
440.733	158
441.199	155
441.665	152
442.131	162
442.596	155
443.062	161
443.529	168
443.995	170
444.461	169
444.927	184
445.393	185
445.859	195
446.325	196
446.792	214
447.258	214
447.724	214
448.191	222
448.657	223
449.124	236
449.59	228
450.057	249
450.523	243
450.99	251
451.457	251
451.923	257
452.39	248
452.857	259
453.324	257
453.791	260
454.257	262
454.724	263
455.191	270
455.658	265
456.125	282
456.592	274
457.059	279
457.527	284
457.994	293
458.461	300
458.928	304
459.396	298
459.863	310
460.33	307
460.798	314
461.265	318
461.732	315
462.2	324
462.668	322
463.135	326
463.603	314
464.07	326
464.538	324
465.006	334
465.474	328
465.941	329
466.409	336
466.877	323
467.345	338
467.813	335
468.281	339
468.749	334
469.217	340
469.685	345
470.153	352
470.621	351
471.09	358
471.558	375
472.026	377
472.494	384
472.963	390
473.431	405
473.9	414
474.368	421
474.837	430
475.305	430
475.774	444
476.242	462
476.711	460
477.18	470
477.648	467
478.117	473
478.586	471
479.055	469
479.524	478
479.993	477
480.462	472
480.93	477
481.399	479
481.869	483
482.338	485
482.807	497
483.276	487
483.745	497
484.214	503
484.684	512
485.153	517
485.622	519
486.092	536
486.561	531
487.031	544
487.5	558
487.97	566
488.439	585
488.909	598
489.378	618
489.848	622
490.318	642
490.787	654
491.257	672
491.727	668
492.197	686
492.667	685
493.137	686
493.607	695
494.077	707
494.547	696
495.017	700
495.487	706
495.957	725
496.427	712
496.897	711
497.368	727
497.838	722
498.308	731
498.779	742
499.249	752
499.719	761
500.19	766
500.66	771
501.131	776
501.602	788
502.072	785
502.543	800
503.014	830
503.484	831
503.955	859
504.426	891
504.897	896
505.368	911
505.838	932
506.309	955
506.78	980
507.251	1006
507.722	1023
508.194	1049
508.665	1061
509.136	1058
509.607	1097
510.078	1110
510.549	1119
511.021	1142
511.492	1141
511.964	1172
512.435	1185
512.906	1174
513.378	1196
513.849	1213
514.321	1217
514.793	1232
515.264	1252
515.736	1256
516.208	1285
516.679	1291
517.151	1305
517.623	1318
518.095	1346
518.567	1356
519.038	1377
519.51	1378
519.982	1401
520.454	1418
520.927	1444
521.399	1465
521.871	1490
522.343	1493
522.815	1503
523.287	1501
523.76	1521
524.232	1544
524.704	1562
525.177	1531
525.649	1540
526.122	1569
526.594	1524
527.067	1567
527.539	1595
528.012	1583
528.484	1576
528.957	1581
529.43	1580
529.903	1570
530.375	1634
530.848	1607
531.321	1626
531.794	1617
532.267	1658
532.74	1642
533.213	1648
533.686	1674
534.159	1660
534.632	1704
535.105	1722
535.578	1752
536.051	1761
536.525	1772
536.998	1774
537.471	1813
537.945	1794
538.418	1833
538.891	1834
539.365	1857
539.838	1875
540.312	1885
540.786	1902
541.259	1896
541.733	1919
542.206	1928
542.68	1910
543.154	1902
543.628	1907
544.101	1971
544.575	1949
545.049	1898
545.523	1932
545.997	1948
546.471	1975
546.945	1936
547.419	1955
547.893	1884
548.367	1938
548.842	1917
549.316	1920
549.79	1938
550.264	1920
550.739	1944
551.213	1945
551.687	1947
552.162	1971
552.636	1956
553.111	1946
553.585	2005
554.06	1977
554.534	2019
555.009	2004
555.484	2036
555.958	2075
556.433	2081
556.908	2106
557.383	2083
557.858	2136
558.333	2155
558.807	2142
559.282	2148
559.757	2214
560.232	2232
560.708	2200
561.183	2182
561.658	2215
562.133	2212
562.608	2197
563.083	2250
563.559	2193
564.034	2211
564.509	2218
564.985	2228
565.46	2204
565.936	2253
566.411	2252
566.887	2227
567.362	2241
567.838	2247
568.313	2278
568.789	2235
569.265	2232
569.74	2264
570.216	2250
570.692	2290
571.168	2284
571.644	2281
572.12	2274
572.596	2303
573.071	2313
573.547	2389
574.024	2418
574.5	2446
574.976	2458
575.452	2489
575.928	2508
576.404	2525
576.881	2613
577.357	2573
577.833	2585
578.31	2656
578.786	2702
579.262	2746
579.739	2704
580.215	2777
580.692	2761
581.169	2748
581.645	2761
582.122	2840
582.598	2841
583.075	2846
583.552	2866
584.029	2867
584.506	2847
584.982	2804
585.459	2877
585.936	2850
586.413	2882
586.89	2920
587.367	2914
587.844	2970
588.321	2965
588.799	2959
589.276	2922
589.753	2970
590.23	2987
590.707	2981
591.185	2975
591.662	2984
592.139	3032
592.617	3086
593.094	3070
593.572	3084
594.049	3122
594.527	3159
595.004	3181
595.482	3255
595.96	3233
596.437	3250
596.915	3333
597.393	3265
597.871	3337
598.349	3309
598.826	3376
599.304	3386
599.782	3460
600.26	3417
600.738	3518
601.216	3501
601.694	3546
602.173	3569
602.651	3556
603.129	3493
603.607	3545
604.085	3553
604.564	3554
605.042	3560
605.52	3546
605.999	3639
606.477	3558
606.956	3573
607.434	3615.5
607.913	3658
608.391	3645
608.87	3624
609.348	3590
609.827	3610
610.306	3666
610.785	3708
611.263	3734
611.742	3695
612.221	3629
612.7	3653
613.179	3674
613.658	3626
614.137	3696
614.616	3716
615.095	3643
615.574	3708
616.053	3751
616.532	3713
617.011	3720
617.491	3743
617.97	3749
618.449	3806
618.928	3845
619.408	3807
619.887	3853
620.367	3864
620.846	3925
621.326	3902
621.805	3984
622.285	3972
622.764	3999
623.244	4013
623.724	4055
624.203	4070
624.683	4002
625.163	4091
625.643	4075
626.123	4045
626.602	4150
627.082	4067
627.562	4064
628.042	4165
628.522	4109
629.002	4078
629.482	4097
629.963	4098
630.443	4071
630.923	4082
631.403	4112
631.883	4107
632.364	4120
632.844	4075
633.324	4110
633.805	4135
634.285	4083
634.766	4064
635.246	4059
635.727	4067
636.207	4074
636.688	4094
637.168	4096
637.649	4068
638.13	4049
638.611	4077
639.091	4066
639.572	4054
640.053	4027
640.534	4069
641.015	4058
641.496	4003
641.977	4094
642.458	4047
642.939	4066
643.42	4086
643.901	4094
644.382	4139
644.863	4125
645.345	4131
645.826	4128
646.307	4147
646.788	4210
647.27	4136
647.751	4133
648.233	4161
648.714	4078
649.196	4202
649.677	4197
650.159	4184
650.64	4138
651.122	4209
651.603	4165
652.085	4214
652.567	4230
653.049	4192
653.53	4176
654.012	4234
654.494	4178
654.976	4219
655.458	4201
655.94	4186
656.422	4258
656.904	4209
657.386	4172
657.868	4179
658.35	4158
658.833	4192
659.315	4202
659.797	4156
660.279	4151
660.762	4189
661.244	4139
661.726	4075
662.209	4086
662.691	4079
663.174	4009
663.656	4039
664.139	4051
664.621	3989
665.104	3977
665.587	4038
666.069	4064
666.552	4083
667.035	4034
667.517	4042
668	4083
668.483	4073
668.966	4048
669.449	4027
669.932	4037
670.415	4068
670.898	4041
671.381	4059
671.864	4080
672.347	4038
672.83	4040
673.313	4053
673.797	4024
674.28	4111
674.763	4144
675.247	4180
675.73	4150
676.213	4169
676.697	4200
677.18	4196
677.664	4213
678.147	4220
678.631	4229
679.114	4247
679.598	4240
680.082	4287
680.565	4298
681.049	4280
681.533	4271
682.017	4293
682.5	4278
682.984	4306
683.468	4305
683.952	4235
684.436	4325
684.92	4276
685.404	4308
685.888	4343
686.372	4327
686.856	4362
687.341	4400
687.825	4338
688.309	4339
688.793	4332
689.278	4272
689.762	4318
690.246	4298
690.731	4310
691.215	4332
691.7	4224
692.184	4270
692.669	4244
693.153	4289
693.638	4232
694.122	4228
694.607	4247
695.092	4186
695.577	4227
696.061	4146
696.546	4160
697.031	4150
697.516	4172
698.001	4186
698.486	4180
698.971	4247
699.456	4155
699.941	4154
700.426	4140
700.911	4200
701.396	4182
701.881	4220
702.366	4214
702.852	4194
703.337	4218
703.822	4200
704.308	4196
704.793	4224
705.278	4238
705.764	4257
706.249	4216
706.735	4187
707.22	4212
707.706	4143
708.191	4221
708.677	4260
709.163	4222
709.648	4241
710.134	4297
710.62	4245
711.106	4257
711.592	4336
712.077	4309
712.563	4192
713.049	4181
713.535	4258
714.021	4235
714.507	4235
714.993	4207
715.479	4262
715.966	4200
716.452	4203
716.938	4200
717.424	4083
717.91	4164
718.397	4144
718.883	4134
719.369	4148
719.856	4113
720.342	4155
720.829	4107
721.315	4123
721.802	4098
722.288	4119
722.775	3954
723.262	3844
723.748	4009
724.235	3997
724.722	4078
725.208	4030
725.695	4028
726.182	3996
726.669	3923
727.156	3927
727.643	3881
728.13	3867
728.617	3844
729.104	3836
729.591	3804
730.078	3852
730.565	3868
731.052	3814
731.539	3841
732.027	3808
732.514	3742
733.001	3783
733.488	3774
733.976	3752
734.463	3739
734.951	3739
735.438	3779
735.926	3746
736.413	3789
736.901	3763
737.388	3807
737.876	3801
738.364	3778
738.851	3784
739.339	3770
739.827	3802
740.314	3696
740.802	3725
741.29	3730
741.778	3687
742.266	3695
742.754	3703
743.242	3736
743.73	3663
744.218	3638
744.706	3600
745.194	3622
745.682	3599
746.17	3621
746.659	3648
747.147	3564
747.635	3575
748.123	3567
748.612	3532
749.1	3523
749.589	3557
750.077	3528
750.566	3511
751.054	3521
751.543	3543
752.031	3474
752.52	3467
753.008	3385
753.497	3398
753.986	3382
754.474	3370
754.963	3408
755.452	3359
755.941	3347
756.43	3342
756.919	3337
757.408	3328
757.896	3339
758.385	3340
758.875	3296
759.364	3258
759.853	3228
760.342	3170
760.831	3232
761.32	3184
761.809	3145
762.299	3170
762.788	3182
763.277	3164
763.767	3111
764.256	3124
764.745	3067
765.235	3110
765.724	3011
766.214	3066
766.703	3047
767.193	3017
767.683	3032
768.172	2972
768.662	2996
769.152	2973
769.641	2981
770.131	2919
770.621	2950
771.111	2917
771.601	2893
772.09	2862
772.58	2823
773.07	2837
773.56	2869
774.05	2845
774.54	2839
775.031	2835
775.521	2807
776.011	2789
776.501	2798
776.991	2735
777.482	2770
777.972	2703
778.462	2707
778.953	2725
779.443	2707
779.933	2700
780.424	2672
780.914	2691
781.405	2706
781.895	2681
782.386	2673
782.877	2672
783.367	2611
783.858	2586
784.349	2578
784.839	2556
785.33	2560
785.821	2552
786.312	2542
786.803	2553
787.293	2560
787.784	2516
788.275	2469
788.766	2448
789.257	2487
789.748	2433
790.24	2408
790.731	2438
791.222	2395
791.713	2380
792.204	2385
792.696	2326
793.187	2352
793.678	2334
794.169	2264
794.661	2295
795.152	2268
795.644	2244
796.135	2255
796.627	2271
797.118	2223
797.61	2212
798.101	2188
798.593	2212
799.085	2187
799.576	2185
800.068	2144
800.56	2147
801.052	2095
801.544	2087
802.035	2102
802.527	2068
803.019	2051
803.511	2042
804.003	2015
804.495	2025
804.987	1994
805.479	1954
805.971	1980
806.464	1980
806.956	1932
807.448	1937
807.94	1937
808.433	1920
808.925	1915
809.417	1894
809.91	1879
810.402	1827
810.894	1839
811.387	1845
811.879	1822
812.372	1832
812.865	1803
813.357	1801
813.85	1798
814.342	1790
814.835	1792
815.328	1782
815.821	1749
816.313	1752
816.806	1754
817.299	1726
817.792	1731
818.285	1709
818.778	1733
819.271	1739
819.764	1714
820.257	1719
820.75	1726
821.243	1725
821.736	1708
822.229	1723
822.722	1723
823.216	1754
