Data from lamp5helium_sterk_Subt4__69__524.txt Node

Date: Wed Apr 09 10:18:36 CEST 2025
User: fys-lab-0081
Spectrometer: S04999
Trigger mode: 0
Resolution mode: 1024 pixels
Integration Time (sec): 1.000000E-1
Scans to average: 1
Nonlinearity correction enabled: false
Boxcar width: 0
Baseline correction enabled: true
XAxis mode: Wavelengths
Number of Pixels in Spectrum: 1024
>>>>>Begin Spectral Data<<<<<
336.42	2
336.877	-2
337.334	-5
337.792	1
338.249	3
338.706	1
339.164	-1
339.621	-3
340.079	1
340.536	4
340.994	7
341.452	-1
341.909	5
342.367	-3
342.825	-2
343.283	-2
343.741	-1
344.198	2
344.656	-1
345.114	-1
345.572	2
346.03	6
346.488	7
346.947	1
347.405	3
347.863	1
348.321	11
348.779	3
349.238	1
349.696	-2
350.154	4
350.613	4
351.071	0
351.53	4
351.988	6
352.447	1
352.905	2
353.364	1
353.823	-2
354.282	4
354.74	2
355.199	5
355.658	5
356.117	5
356.576	4
357.035	1
357.494	2
357.953	6
358.412	9
358.871	-3
359.33	1
359.789	5
360.249	0
360.708	7
361.167	8
361.626	9
362.086	9
362.545	8
363.005	11
363.464	1
363.924	1
364.383	8
364.843	4
365.303	8
365.762	6
366.222	3
366.682	10
367.142	10
367.601	5
368.061	10
368.521	8
368.981	6
369.441	11
369.901	12
370.361	6
370.821	5
371.282	13
371.742	9
372.202	12
372.662	14
373.123	8
373.583	8
374.043	11
374.504	6
374.964	7
375.425	7
375.885	8
376.346	9
376.806	10
377.267	11
377.728	10
378.188	11
378.649	15
379.11	10
379.571	12
380.032	10
380.493	10
380.954	17
381.414	14
381.876	11
382.337	17
382.798	18
383.259	21
383.72	14
384.181	15
384.642	13
385.104	22
385.565	26
386.026	18
386.488	19
386.949	21
387.411	21
387.872	19
388.334	23
388.795	22
389.257	29
389.719	26
390.181	23
390.642	33
391.104	30
391.566	23
392.028	30
392.49	23
392.952	29
393.414	30
393.876	28
394.338	33
394.8	29
395.262	34
395.724	30
396.186	36
396.648	35
397.111	35
397.573	37
398.035	35
398.498	38
398.96	34
399.423	35
399.885	40
400.348	40
400.81	46
401.273	37
401.736	41
402.198	39
402.661	46
403.124	43
403.587	48
404.049	50.5
404.512	53
404.975	54
405.438	49
405.901	54
406.364	51
406.827	52
407.29	58
407.754	58
408.217	57
408.68	53
409.143	55
409.607	59
410.07	59
410.533	59
410.997	58
411.46	55
411.924	60
412.387	65
412.851	64
413.314	61
413.778	62
414.242	67
414.705	67
415.169	66
415.633	69
416.097	71
416.561	70
417.024	75
417.488	75
417.952	73
418.416	76
418.88	74
419.344	74
419.809	76
420.273	75
420.737	76
421.201	68
421.665	83
422.13	78
422.594	85
423.059	83
423.523	87
423.987	84
424.452	90
424.916	89
425.381	96
425.846	97
426.31	96
426.775	98
427.24	106
427.704	96
428.169	102
428.634	106
429.099	100
429.564	99
430.029	102
430.494	105
430.959	106
431.424	100
431.889	104
432.354	111
432.819	105
433.284	107
433.75	111
434.215	120
434.68	119
435.146	129
435.611	138
436.077	147
436.542	147
437.008	141
437.473	141
437.939	142
438.404	143
438.87	149
439.336	143
439.801	146
440.267	149
440.733	159
441.199	156
441.665	152
442.131	158
442.596	158
443.062	155
443.529	162
443.995	168
444.461	172
444.927	186
445.393	186
445.859	190
446.325	198
446.792	213
447.258	212
447.724	211
448.191	221
448.657	221
449.124	232
449.59	226
450.057	243
450.523	243
450.99	245
451.457	248
451.923	252
452.39	246
452.857	258
453.324	253
453.791	264
454.257	260
454.724	265
455.191	263
455.658	261
456.125	277
456.592	273
457.059	277
457.527	286
457.994	295
458.461	290
458.928	304
459.396	303
459.863	309
460.33	310
460.798	310
461.265	311
461.732	313
462.2	322
462.668	320
463.135	329
463.603	314
464.07	320
464.538	322
465.006	328
465.474	325
465.941	326
466.409	330
466.877	322
467.345	333
467.813	333
468.281	337
468.749	334
469.217	337
469.685	340
470.153	350
470.621	346
471.09	358
471.558	368
472.026	370
472.494	381
472.963	393
473.431	403
473.9	413
474.368	422
474.837	426
475.305	429
475.774	445
476.242	456
476.711	448
477.18	466
477.648	470
478.117	469
478.586	469
479.055	466
479.524	477
479.993	474
480.462	468
480.93	477
481.399	473
481.869	482
482.338	483
482.807	487
483.276	488
483.745	490
484.214	503
484.684	509
485.153	511
485.622	515
486.092	530
486.561	522
487.031	544
487.5	554
487.97	568
488.439	580
488.909	597
489.378	619
489.848	617
490.318	636
490.787	655
491.257	672
491.727	665
492.197	684
492.667	678
493.137	678
493.607	689
494.077	706
494.547	695
495.017	698
495.487	709
495.957	721
496.427	708
496.897	708
497.368	717
497.838	718
498.308	730
498.779	739
499.249	743
499.719	752
500.19	760
500.66	765
501.131	768
501.602	785
502.072	783
502.543	794
503.014	823
503.484	825
503.955	850
504.426	886
504.897	894
505.368	909
505.838	925
506.309	950
506.78	977
507.251	1001
507.722	1013
508.194	1041
508.665	1059
509.136	1051
509.607	1091
510.078	1105
510.549	1110
511.021	1127
511.492	1135
511.964	1158
512.435	1178
512.906	1168
513.378	1196
513.849	1210
514.321	1218
514.793	1231
515.264	1244
515.736	1257
516.208	1278
516.679	1285
517.151	1299
517.623	1312
518.095	1332
518.567	1351
519.038	1366
519.51	1363
519.982	1398
520.454	1413
520.927	1433
521.399	1461
521.871	1479
522.343	1482
522.815	1493
523.287	1497
523.76	1514
524.232	1536
524.704	1553
525.177	1528
525.649	1542
526.122	1555
526.594	1522
527.067	1567
527.539	1586
528.012	1576
528.484	1573
528.957	1573
529.43	1574
529.903	1561
530.375	1622
530.848	1600
531.321	1612
531.794	1610
532.267	1655
532.74	1635
533.213	1632
533.686	1667
534.159	1654
534.632	1702
535.105	1714
535.578	1743
536.051	1750
536.525	1759
536.998	1768
537.471	1803
537.945	1783
538.418	1826
538.891	1830
539.365	1849
539.838	1867
540.312	1876
540.786	1897
541.259	1886
541.733	1910
542.206	1929
542.68	1893
543.154	1891
543.628	1905
544.101	1962
544.575	1936
545.049	1891
545.523	1931
545.997	1944
546.471	1964
546.945	1925
547.419	1945
547.893	1883
548.367	1927
548.842	1910
549.316	1916
549.79	1923
550.264	1917
550.739	1937
551.213	1936
551.687	1936
552.162	1966
552.636	1941
553.111	1934
553.585	1990
554.06	1969
554.534	2003
555.009	1989
555.484	2030
555.958	2062
556.433	2070
556.908	2093
557.383	2071
557.858	2125
558.333	2135
558.807	2128
559.282	2144
559.757	2203
560.232	2222
560.708	2191
561.183	2175
561.658	2201
562.133	2204
562.608	2180
563.083	2247
563.559	2186
564.034	2209
564.509	2202
564.985	2212
565.46	2193
565.936	2242
566.411	2249
566.887	2212
567.362	2226
567.838	2241
568.313	2256
568.789	2223
569.265	2225
569.74	2250
570.216	2237
570.692	2279
571.168	2277
571.644	2262
572.12	2266
572.596	2299
573.071	2306
573.547	2371
574.024	2399
574.5	2441
574.976	2448
575.452	2483
575.928	2487
576.404	2510
576.881	2604
577.357	2561
577.833	2573
578.31	2641
578.786	2687
579.262	2737
579.739	2691
580.215	2764
580.692	2752
581.169	2743
581.645	2739
582.122	2819
582.598	2827
583.075	2819
583.552	2853
584.029	2846
584.506	2837
584.982	2800
585.459	2860
585.936	2835
586.413	2869
586.89	2920
587.367	2892
587.844	2965
588.321	2950
588.799	2953
589.276	2899
589.753	2949
590.23	2978
590.707	2970
591.185	2959
591.662	2965
592.139	3016
592.617	3071
593.094	3063
593.572	3074
594.049	3107
594.527	3137
595.004	3165
595.482	3245
595.96	3211
596.437	3231
596.915	3313
597.393	3258
597.871	3325
598.349	3287
598.826	3360
599.304	3364
599.782	3439
600.26	3401
600.738	3492
601.216	3491
601.694	3517
602.173	3543
602.651	3542
603.129	3480
603.607	3520
604.085	3539
604.564	3539
605.042	3543
605.52	3524
605.999	3625
606.477	3544
606.956	3550
607.434	3598.5
607.913	3647
608.391	3626
608.87	3608
609.348	3570
609.827	3599
610.306	3647
610.785	3691
611.263	3720
611.742	3670
612.221	3614
612.7	3643
613.179	3656
613.658	3604
614.137	3682
614.616	3698
615.095	3627
615.574	3691
616.053	3736
616.532	3703
617.011	3704
617.491	3721
617.97	3734
618.449	3797
618.928	3822
619.408	3790
619.887	3831
620.367	3848
620.846	3906
621.326	3886
621.805	3964
622.285	3949
622.764	3987
623.244	4000
623.724	4031
624.203	4051
624.683	3986
625.163	4064
625.643	4058
626.123	4019
626.602	4140
627.082	4055
627.562	4058
628.042	4139
628.522	4085
629.002	4060
629.482	4070
629.963	4074
630.443	4053
630.923	4067
631.403	4094
631.883	4088
632.364	4098
632.844	4062
633.324	4096
633.805	4119
634.285	4065
634.766	4036
635.246	4043
635.727	4046
636.207	4061
636.688	4069
637.168	4071
637.649	4039
638.13	4023
638.611	4064
639.091	4049
639.572	4023
640.053	4011
640.534	4057
641.015	4046
641.496	3989
641.977	4069
642.458	4039
642.939	4051
643.42	4063
643.901	4061
644.382	4115
644.863	4108
645.345	4117
645.826	4103
646.307	4122
646.788	4183
647.27	4117
647.751	4116
648.233	4144
648.714	4062
649.196	4189
649.677	4177
650.159	4175
650.64	4121
651.122	4188
651.603	4151
652.085	4200
652.567	4211
653.049	4172
653.53	4159
654.012	4218
654.494	4145
654.976	4198
655.458	4178
655.94	4171
656.422	4238
656.904	4184
657.386	4152
657.868	4159
658.35	4131
658.833	4164
659.315	4181
659.797	4132
660.279	4141
660.762	4164
661.244	4117
661.726	4063
662.209	4068
662.691	4066
663.174	3991
663.656	4028
664.139	4025
664.621	3980
665.104	3959
665.587	4010
666.069	4049
666.552	4061
667.035	4024
667.517	4022
668	4066
668.483	4066
668.966	4026
669.449	4008
669.932	4007
670.415	4047
670.898	4025
671.381	4038
671.864	4061
672.347	4030
672.83	4027
673.313	4032
673.797	4002
674.28	4086
674.763	4133
675.247	4159
675.73	4132
676.213	4148
676.697	4174
677.18	4179
677.664	4200
678.147	4196
678.631	4207
679.114	4248
679.598	4226
680.082	4274
680.565	4281
681.049	4262
681.533	4258
682.017	4288
682.5	4258
682.984	4280
683.468	4285
683.952	4209
684.436	4315
684.92	4262
685.404	4289
685.888	4323
686.372	4317
686.856	4344
687.341	4381
687.825	4321
688.309	4322
688.793	4314
689.278	4251
689.762	4299
690.246	4280
690.731	4298
691.215	4317
691.7	4198
692.184	4253
692.669	4231
693.153	4272
693.638	4209
694.122	4207
694.607	4228
695.092	4175
695.577	4209
696.061	4135
696.546	4139
697.031	4136
697.516	4158
698.001	4167
698.486	4161
698.971	4233
699.456	4137
699.941	4132
700.426	4136
700.911	4173
701.396	4159
701.881	4207
702.366	4194
702.852	4183
703.337	4196
703.822	4176
704.308	4176
704.793	4204
705.278	4219
705.764	4237
706.249	4208
706.735	4170
707.22	4201
707.706	4121
708.191	4208
708.677	4234
709.163	4196
709.648	4229
710.134	4282
710.62	4236
711.106	4245
711.592	4315
712.077	4300
712.563	4178
713.049	4168
713.535	4243
714.021	4228
714.507	4219
714.993	4185
715.479	4243
715.966	4194
716.452	4189
716.938	4189
717.424	4062
717.91	4148
718.397	4123
718.883	4103
719.369	4134
719.856	4097
720.342	4141
720.829	4085
721.315	4108
721.802	4083
722.288	4096
722.775	3937
723.262	3828
723.748	3998
724.235	3986
724.722	4067
725.208	4011
725.695	4014
726.182	3980
726.669	3912
727.156	3909
727.643	3869
728.13	3849
728.617	3817
729.104	3821
729.591	3790
730.078	3835
730.565	3856
731.052	3799
731.539	3811
732.027	3782
732.514	3732
733.001	3767
733.488	3756
733.976	3736
734.463	3730
734.951	3723
735.438	3763
735.926	3740
736.413	3769
736.901	3748
737.388	3797
737.876	3788
738.364	3756
738.851	3772
739.339	3755
739.827	3794
740.314	3685
740.802	3719
741.29	3719
741.778	3668
742.266	3678
742.754	3693
743.242	3722
743.73	3633
744.218	3629
744.706	3585
745.194	3606
745.682	3583
746.17	3600
746.659	3633
747.147	3551
747.635	3558
748.123	3549
748.612	3521
749.1	3509
749.589	3548
750.077	3515
750.566	3496
751.054	3507
751.543	3520
752.031	3455
752.52	3450
753.008	3374
753.497	3388
753.986	3367
754.474	3354
754.963	3388
755.452	3351
755.941	3337
756.43	3327
756.919	3318
757.408	3296
757.896	3315
758.385	3330
758.875	3298
759.364	3248
759.853	3224
760.342	3156
760.831	3201
761.32	3182
761.809	3138
762.299	3152
762.788	3162
763.277	3153
763.767	3109
764.256	3112
764.745	3056
765.235	3103
765.724	3000
766.214	3058
766.703	3035
767.193	3006
767.683	3017
768.172	2954
768.662	2981
769.152	2965
769.641	2967
770.131	2907
770.621	2940
771.111	2902
771.601	2883
772.09	2848
772.58	2818
773.07	2828
773.56	2864
774.05	2826
774.54	2832
775.031	2817
775.521	2794
776.011	2776
776.501	2787
776.991	2727
777.482	2758
777.972	2694
778.462	2691
778.953	2714
779.443	2698
779.933	2692
780.424	2665
780.914	2686
781.405	2700
781.895	2669
782.386	2661
782.877	2651
783.367	2593
783.858	2565
784.349	2575
784.839	2537
785.33	2546
785.821	2542
786.312	2526
786.803	2543
787.293	2550
787.784	2507
788.275	2466
788.766	2440
789.257	2477
789.748	2425
790.24	2406
790.731	2433
791.222	2391
791.713	2377
792.204	2381
792.696	2314
793.187	2342
793.678	2322
794.169	2259
794.661	2290
795.152	2260
795.644	2240
796.135	2238
796.627	2257
797.118	2212
797.61	2211
798.101	2181
798.593	2204
799.085	2176
799.576	2179
800.068	2151
800.56	2143
801.052	2083
801.544	2084
802.035	2094
802.527	2063
803.019	2039
803.511	2022
804.003	2012
804.495	2020
804.987	1999
805.479	1944
805.971	1976
806.464	1978
806.956	1928
807.448	1924
807.94	1933
808.433	1912
808.925	1908
809.417	1885
809.91	1873
810.402	1820
810.894	1828
811.387	1841
811.879	1814
812.372	1831
812.865	1803
813.357	1807
813.85	1791
814.342	1783
814.835	1784
815.328	1772
815.821	1751
816.313	1740
816.806	1754
817.299	1720
817.792	1733
818.285	1702
818.778	1723
819.271	1728
819.764	1703
820.257	1713
820.75	1724
821.243	1717
821.736	1707
822.229	1717
822.722	1719
823.216	1747
