Data from lamp5helium_sterk_Subt2__95__95.txt Node

Date: Wed Apr 09 11:04:45 CEST 2025
User: fys-lab-0081
Spectrometer: S04999
Trigger mode: 0
Resolution mode: 1024 pixels
Integration Time (sec): 1.000000E-1
Scans to average: 1
Nonlinearity correction enabled: false
Boxcar width: 0
Baseline correction enabled: true
XAxis mode: Wavelengths
Number of Pixels in Spectrum: 1024
>>>>>Begin Spectral Data<<<<<
336.42	-4
336.877	-2
337.334	0
337.792	1
338.249	4
338.706	-2
339.164	2
339.621	2
340.079	6
340.536	6
340.994	1
341.452	3
341.909	2
342.367	1
342.825	-2
343.283	6
343.741	-2
344.198	-5
344.656	1
345.114	3
345.572	3
346.03	-2
346.488	3
346.947	2
347.405	6
347.863	-3
348.321	-1
348.779	2
349.238	0
349.696	2
350.154	1
350.613	-5
351.071	5
351.53	5
351.988	6
352.447	-2
352.905	-4
353.364	0
353.823	2
354.282	-1
354.74	-4
355.199	1
355.658	7
356.117	2
356.576	2
357.035	-2
357.494	1
357.953	-3
358.412	3
358.871	3
359.33	1
359.789	-7
360.249	0
360.708	-2
361.167	1
361.626	1
362.086	2
362.545	2
363.005	5
363.464	2
363.924	-1
364.383	0
364.843	1
365.303	3
365.762	2
366.222	0
366.682	0
367.142	-1
367.601	1
368.061	-2
368.521	2
368.981	0
369.441	6
369.901	4
370.361	-2
370.821	1
371.282	6
371.742	5
372.202	1
372.662	0
373.123	-2
373.583	2
374.043	4
374.504	0
374.964	0
375.425	0
375.885	5
376.346	7
376.806	5
377.267	0
377.728	6
378.188	6
378.649	3
379.11	5
379.571	-1
380.032	6
380.493	5
380.954	7
381.414	2
381.876	4
382.337	-1
382.798	2
383.259	7
383.72	2
384.181	2
384.642	2
385.104	1
385.565	6
386.026	10
386.488	6
386.949	7
387.411	6
387.872	8
388.334	8
388.795	6
389.257	6
389.719	6
390.181	5
390.642	2
391.104	5
391.566	7
392.028	10
392.49	13
392.952	10
393.414	9
393.876	14
394.338	9
394.8	4
395.262	4
395.724	14
396.186	12
396.648	9
397.111	8
397.573	11
398.035	10
398.498	12
398.96	11
399.423	6
399.885	6
400.348	11
400.81	9
401.273	5
401.736	5
402.198	12
402.661	15
403.124	8
403.587	10
404.049	11
404.512	12
404.975	7
405.438	15
405.901	15
406.364	13
406.827	16
407.29	13
407.754	16
408.217	22
408.68	16
409.143	21
409.607	21
410.07	12
410.533	14
410.997	22
411.46	19
411.924	19
412.387	22
412.851	16
413.314	16
413.778	19
414.242	20
414.705	20
415.169	24
415.633	21
416.097	17
416.561	21
417.024	17
417.488	24
417.952	24
418.416	18
418.88	14
419.344	15
419.809	21
420.273	21
420.737	21
421.201	21
421.665	23
422.13	26
422.594	26
423.059	28
423.523	28
423.987	23
424.452	27
424.916	25
425.381	31
425.846	27
426.31	31
426.775	33
427.24	30
427.704	28
428.169	33
428.634	34
429.099	35
429.564	33
430.029	27
430.494	29
430.959	32
431.424	30
431.889	37
432.354	36
432.819	34
433.284	38
433.75	37
434.215	38
434.68	35
435.146	35
435.611	40
436.077	42
436.542	37
437.008	41
437.473	41
437.939	40
438.404	40
438.87	44
439.336	42
439.801	48
440.267	45
440.733	49
441.199	46
441.665	48
442.131	52
442.596	46
443.062	51
443.529	55
443.995	52
444.461	51
444.927	55
445.393	56
445.859	58
446.325	59
446.792	62
447.258	64
447.724	66
448.191	71
448.657	69
449.124	63
449.59	67
450.057	72
450.523	71
450.99	77
451.457	74
451.923	82
452.39	75
452.857	79
453.324	75
453.791	82
454.257	85
454.724	83
455.191	81
455.658	82
456.125	85
456.592	83
457.059	88
457.527	85
457.994	86
458.461	92
458.928	92
459.396	94
459.863	94
460.33	93
460.798	95
461.265	101
461.732	94
462.2	98
462.668	100
463.135	98
463.603	95
464.07	109
464.538	102
465.006	102
465.474	106
465.941	105
466.409	98
466.877	102
467.345	102
467.813	98
468.281	104
468.749	109
469.217	104
469.685	109
470.153	116
470.621	115
471.09	108
471.558	120
472.026	118
472.494	120
472.963	120
473.431	126
473.9	127
474.368	136
474.837	131
475.305	136
475.774	136
476.242	143
476.711	143
477.18	148
477.648	146
478.117	150
478.586	151
479.055	144
479.524	149
479.993	149
480.462	150
480.93	147
481.399	151
481.869	153
482.338	151
482.807	157
483.276	155
483.745	158
484.214	158
484.684	164
485.153	161
485.622	167
486.092	167
486.561	167
487.031	173
487.5	170
487.97	178
488.439	183
488.909	188
489.378	194
489.848	196
490.318	199
490.787	219
491.257	210
491.727	210
492.197	216
492.667	223
493.137	221
493.607	223
494.077	223
494.547	220
495.017	223
495.487	230
495.957	233
496.427	230
496.897	230
497.368	237
497.838	231
498.308	232
498.779	236
499.249	244
499.719	241
500.19	250
500.66	246
501.131	251
501.602	258
502.072	250
502.543	262
503.014	271
503.484	272
503.955	277
504.426	287
504.897	288
505.368	291
505.838	307
506.309	307
506.78	315
507.251	331
507.722	335
508.194	338
508.665	350
509.136	346
509.607	359
510.078	363
510.549	363
511.021	379
511.492	375
511.964	382
512.435	390
512.906	381
513.378	389
513.849	400
514.321	402
514.793	400
515.264	416
515.736	416
516.208	422
516.679	429
517.151	432
517.623	432
518.095	443
518.567	450
519.038	458
519.51	462
519.982	461
520.454	464
520.927	474
521.399	484
521.871	488
522.343	493
522.815	496
523.287	496
523.76	506
524.232	512
524.704	512
525.177	510
525.649	516
526.122	524
526.594	509
527.067	515
527.539	525
528.012	527
528.484	532
528.957	527
529.43	530
529.903	528
530.375	546
530.848	536
531.321	548
531.794	555
532.267	563
532.74	550
533.213	557
533.686	559
534.159	559
534.632	574
535.105	576
535.578	589
536.051	592
536.525	594
536.998	598
537.471	611
537.945	601
538.418	609
538.891	615
539.365	631
539.838	632
540.312	628
540.786	629
541.259	640
541.733	648
542.206	646
542.68	635
543.154	644
543.628	654
544.101	657
544.575	649
545.049	637
545.523	648
545.997	648
546.471	651
546.945	654
547.419	662
547.893	641
548.367	652
548.842	648
549.316	645
549.79	659
550.264	658
550.739	661
551.213	667
551.687	666
552.162	672
552.636	666
553.111	670
553.585	690
554.06	684
554.534	693
555.009	692
555.484	709
555.958	715
556.433	715
556.908	728
557.383	721
557.858	740
558.333	734
558.807	741
559.282	748
559.757	770
560.232	764
560.708	754
561.183	756
561.658	762
562.133	764
562.608	766
563.083	788
563.559	767
564.034	765
564.509	770
564.985	776
565.46	770
565.936	784
566.411	776
566.887	778
567.362	781
567.838	781
568.313	788
568.789	779
569.265	783
569.74	787
570.216	781
570.692	793
571.168	795
571.644	803
572.12	796
572.596	804
573.071	810
573.547	836
574.024	853
574.5	851
574.976	854
575.452	871
575.928	887
576.404	891
576.881	915
577.357	899
577.833	904
578.31	932
578.786	939
579.262	959
579.739	943
580.215	976
580.692	982
581.169	966
581.645	966
582.122	995
582.598	999
583.075	995
583.552	998
584.029	1003
584.506	1002
584.982	1000
585.459	1008
585.936	993
586.413	1012
586.89	1040
587.367	1026
587.844	1048
588.321	1036
588.799	1043
589.276	1029
589.753	1046
590.23	1058
590.707	1060
591.185	1062
591.662	1068
592.139	1085
592.617	1098
593.094	1092
593.572	1101
594.049	1113
594.527	1118
595.004	1126
595.482	1160
595.96	1152
596.437	1151
596.915	1182
597.393	1158
597.871	1187
598.349	1182
598.826	1201
599.304	1204
599.782	1238
600.26	1228
600.738	1252
601.216	1246
601.694	1257
602.173	1258
602.651	1275
603.129	1268
603.607	1282
604.085	1276
604.564	1289
605.042	1304
605.52	1291
605.999	1316
606.477	1276
606.956	1295
607.434	1312
607.913	1329
608.391	1324
608.87	1311
609.348	1290
609.827	1301
610.306	1316
610.785	1319
611.263	1318
611.742	1309
612.221	1296
612.7	1314
613.179	1324
613.658	1309
614.137	1328
614.616	1352
615.095	1334
615.574	1344
616.053	1354
616.532	1345
617.011	1356
617.491	1357
617.97	1356
618.449	1372
618.928	1390
619.408	1382
619.887	1404
620.367	1402
620.846	1415
621.326	1410
621.805	1439
622.285	1439
622.764	1454
623.244	1461
623.724	1467
624.203	1483
624.683	1455
625.163	1484
625.643	1479
626.123	1473
626.602	1507
627.082	1479
627.562	1489
628.042	1503
628.522	1502
629.002	1493
629.482	1498
629.963	1507
630.443	1488
630.923	1490
631.403	1509
631.883	1507
632.364	1514
632.844	1504
633.324	1510
633.805	1508
634.285	1492
634.766	1485
635.246	1485
635.727	1499
636.207	1500
636.688	1488
637.168	1486
637.649	1484
638.13	1484
638.611	1508
639.091	1495
639.572	1481
640.053	1475
640.534	1489
641.015	1495
641.496	1475
641.977	1495
642.458	1491
642.939	1494
643.42	1496
643.901	1497
644.382	1523
644.863	1524
645.345	1519
645.826	1516
646.307	1520
646.788	1545
647.27	1532
647.751	1531
648.233	1549
648.714	1502
649.196	1544
649.677	1541
650.159	1537
650.64	1522
651.122	1551
651.603	1530
652.085	1540
652.567	1568
653.049	1546
653.53	1550
654.012	1580
654.494	1558
654.976	1566
655.458	1562
655.94	1563
656.422	1586
656.904	1560
657.386	1544
657.868	1542
658.35	1531
658.833	1555
659.315	1560
659.797	1528
660.279	1528
660.762	1533
661.244	1519
661.726	1509
662.209	1518
662.691	1520
663.174	1488
663.656	1501
664.139	1508
664.621	1495
665.104	1484
665.587	1510
666.069	1517
666.552	1514
667.035	1496
667.517	1507
668	1522
668.483	1529
668.966	1516
669.449	1507
669.932	1506
670.415	1525
670.898	1517
671.381	1525
671.864	1528
672.347	1500
672.83	1507
673.313	1514
673.797	1512
674.28	1536
674.763	1535
675.247	1546
675.73	1533
676.213	1546
676.697	1552
677.18	1559
677.664	1563
678.147	1554
678.631	1570
679.114	1597
679.598	1597
680.082	1613
680.565	1607
681.049	1605
681.533	1601
682.017	1610
682.5	1606
682.984	1611
683.468	1617
683.952	1593
684.436	1632
684.92	1608
685.404	1616
685.888	1632
686.372	1622
686.856	1622
687.341	1639
687.825	1613
688.309	1616
688.793	1630
689.278	1607
689.762	1625
690.246	1620
690.731	1622
691.215	1628
691.7	1588
692.184	1607
692.669	1604
693.153	1601
693.638	1579
694.122	1587
694.607	1605
695.092	1584
695.577	1606
696.061	1577
696.546	1595
697.031	1581
697.516	1594
698.001	1600
698.486	1595
698.971	1617
699.456	1580
699.941	1572
700.426	1569
700.911	1590
701.396	1586
701.881	1601
702.366	1591
702.852	1588
703.337	1579
703.822	1577
704.308	1577
704.793	1593
705.278	1594
705.764	1595
706.249	1586
706.735	1585
707.22	1598
707.706	1584
708.191	1594
708.677	1600
709.163	1597
709.648	1602
710.134	1623
710.62	1619
711.106	1619
711.592	1639
712.077	1623
712.563	1574
713.049	1582
713.535	1624
714.021	1618
714.507	1605
714.993	1588
715.479	1608
715.966	1586
716.452	1596
716.938	1599
717.424	1559
717.91	1586
718.397	1570
718.883	1557
719.369	1566
719.856	1545
720.342	1571
720.829	1548
721.315	1560
721.802	1533
722.288	1548
722.775	1489
723.262	1454
723.748	1520
724.235	1508
724.722	1535
725.208	1500
725.695	1503
726.182	1495
726.669	1485
727.156	1510
727.643	1498
728.13	1482
728.617	1465
729.104	1476
729.591	1463
730.078	1478
730.565	1472
731.052	1461
731.539	1461
732.027	1462
732.514	1433
733.001	1447
733.488	1438
733.976	1445
734.463	1434
734.951	1439
735.438	1445
735.926	1427
736.413	1435
736.901	1435
737.388	1444
737.876	1436
738.364	1432
738.851	1438
739.339	1437
739.827	1455
740.314	1408
740.802	1413
741.29	1426
741.778	1401
742.266	1407
742.754	1414
743.242	1432
743.73	1402
744.218	1402
744.706	1391
745.194	1410
745.682	1408
746.17	1410
746.659	1405
747.147	1380
747.635	1384
748.123	1374
748.612	1359
749.1	1341
749.589	1352
750.077	1355
750.566	1348
751.054	1356
751.543	1366
752.031	1327
752.52	1331
753.008	1292
753.497	1306
753.986	1304
754.474	1307
754.963	1315
755.452	1293
755.941	1279
756.43	1272
756.919	1275
757.408	1261
757.896	1280
758.385	1284
758.875	1270
759.364	1259
759.853	1242
760.342	1223
760.831	1247
761.32	1238
761.809	1220
762.299	1223
762.788	1233
763.277	1231
763.767	1218
764.256	1227
764.745	1211
765.235	1223
765.724	1193
766.214	1221
766.703	1204
767.193	1185
767.683	1181
768.172	1157
768.662	1175
769.152	1164
769.641	1165
770.131	1127
770.621	1153
771.111	1139
771.601	1134
772.09	1124
772.58	1109
773.07	1114
773.56	1112
774.05	1092
774.54	1089
775.031	1077
775.521	1068
776.011	1071
776.501	1091
776.991	1060
777.482	1071
777.972	1050
778.462	1046
778.953	1057
779.443	1054
779.933	1046
780.424	1043
780.914	1055
781.405	1057
781.895	1054
782.386	1050
782.877	1039
783.367	1024
783.858	1025
784.349	1023
784.839	1012
785.33	1020
785.821	1013
786.312	1012
786.803	1017
787.293	1018
787.784	1004
788.275	995
788.766	987
789.257	999
789.748	977
790.24	972
790.731	974
791.222	958
791.713	950
792.204	956
792.696	929
793.187	936
793.678	925
794.169	895
794.661	914
795.152	896
795.644	884
796.135	897
796.627	892
797.118	883
797.61	865
798.101	858
798.593	871
799.085	846
799.576	860
800.068	853
800.56	862
801.052	842
801.544	837
802.035	840
802.527	828
803.019	819
803.511	811
804.003	807
804.495	815
804.987	815
805.479	799
805.971	796
806.464	801
806.956	784
807.448	781
807.94	773
808.433	779
808.925	771
809.417	771
809.91	765
810.402	751
810.894	755
811.387	758
811.879	752
812.372	750
812.865	745
813.357	744
813.85	736
814.342	730
814.835	729
815.328	723
815.821	714
816.313	714
816.806	721
817.299	708
817.792	718
818.285	701
818.778	711
819.271	709
819.764	705
820.257	705
820.75	699
821.243	702
821.736	695
822.229	706
822.722	687
823.216	706
