Data from lamp5helium_sterk_Subt4__21__476.txt Node

Date: Wed Apr 09 10:18:31 CEST 2025
User: fys-lab-0081
Spectrometer: S04999
Trigger mode: 0
Resolution mode: 1024 pixels
Integration Time (sec): 1.000000E-1
Scans to average: 1
Nonlinearity correction enabled: false
Boxcar width: 0
Baseline correction enabled: true
XAxis mode: Wavelengths
Number of Pixels in Spectrum: 1024
>>>>>Begin Spectral Data<<<<<
336.42	2
336.877	-1
337.334	-4
337.792	0
338.249	3
338.706	2
339.164	1
339.621	-2
340.079	1
340.536	4
340.994	10
341.452	-3
341.909	2
342.367	-1
342.825	2
343.283	1
343.741	1
344.198	1
344.656	1
345.114	3
345.572	1
346.03	7
346.488	5
346.947	1
347.405	4
347.863	-3
348.321	5
348.779	0
349.238	-2
349.696	6
350.154	2
350.613	2
351.071	1
351.53	9
351.988	4
352.447	4
352.905	7
353.364	-2
353.823	2
354.282	3
354.74	1
355.199	3
355.658	6
356.117	7
356.576	6
357.035	4
357.494	7
357.953	10
358.412	6
358.871	0
359.33	2
359.789	3
360.249	-1
360.708	5
361.167	7
361.626	8
362.086	-1
362.545	6
363.005	7
363.464	3
363.924	4
364.383	6
364.843	0
365.303	7
365.762	7
366.222	-1
366.682	6
367.142	11
367.601	5
368.061	6
368.521	8
368.981	7
369.441	13
369.901	8
370.361	5
370.821	4
371.282	5
371.742	9
372.202	12
372.662	15
373.123	7
373.583	8
374.043	11
374.504	3
374.964	8
375.425	5
375.885	10
376.346	12
376.806	10
377.267	9
377.728	14
378.188	11
378.649	13
379.11	16
379.571	11
380.032	11
380.493	5
380.954	19
381.414	11
381.876	14
382.337	23
382.798	20
383.259	23
383.72	18
384.181	16
384.642	16
385.104	24
385.565	26
386.026	19
386.488	18
386.949	24
387.411	20
387.872	21
388.334	22
388.795	20
389.257	25
389.719	23
390.181	23
390.642	29
391.104	22
391.566	24
392.028	32
392.49	27
392.952	29
393.414	30
393.876	28
394.338	31
394.8	27
395.262	33
395.724	32
396.186	36
396.648	34
397.111	39
397.573	35
398.035	37
398.498	39
398.96	38
399.423	37
399.885	48
400.348	40
400.81	49
401.273	41
401.736	45
402.198	47
402.661	45
403.124	43
403.587	52
404.049	53.5
404.512	55
404.975	55
405.438	52
405.901	52
406.364	52
406.827	53
407.29	51
407.754	55
408.217	56
408.68	51
409.143	53
409.607	59
410.07	55
410.533	59
410.997	57
411.46	58
411.924	58
412.387	59
412.851	63
413.314	64
413.778	64
414.242	67
414.705	69
415.169	69
415.633	66
416.097	69
416.561	71
417.024	73
417.488	74
417.952	74
418.416	81
418.88	75
419.344	72
419.809	71
420.273	74
420.737	71
421.201	71
421.665	79
422.13	80
422.594	83
423.059	88
423.523	88
423.987	86
424.452	91
424.916	93
425.381	96
425.846	95
426.31	93
426.775	98
427.24	106
427.704	97
428.169	104
428.634	100
429.099	102
429.564	99
430.029	104
430.494	109
430.959	105
431.424	103
431.889	108
432.354	112
432.819	109
433.284	111
433.75	112
434.215	121
434.68	122
435.146	130
435.611	144
436.077	149
436.542	148
437.008	146
437.473	144
437.939	146
438.404	148
438.87	152
439.336	148
439.801	142
440.267	151
440.733	156
441.199	158
441.665	154
442.131	164
442.596	156
443.062	158
443.529	171
443.995	174
444.461	171
444.927	185
445.393	184
445.859	192
446.325	197
446.792	209
447.258	211
447.724	216
448.191	223
448.657	226
449.124	234
449.59	227
450.057	249
450.523	245
450.99	250
451.457	247
451.923	255
452.39	252
452.857	261
453.324	256
453.791	263
454.257	261
454.724	269
455.191	265
455.658	266
456.125	280
456.592	274
457.059	281
457.527	286
457.994	298
458.461	296
458.928	304
459.396	299
459.863	315
460.33	314
460.798	312
461.265	314
461.732	317
462.2	326
462.668	323
463.135	326
463.603	315
464.07	325
464.538	326
465.006	340
465.474	326
465.941	331
466.409	328
466.877	327
467.345	339
467.813	335
468.281	339
468.749	341
469.217	341
469.685	342
470.153	352
470.621	355
471.09	357
471.558	369
472.026	374
472.494	385
472.963	387
473.431	405
473.9	411
474.368	427
474.837	428
475.305	435
475.774	450
476.242	462
476.711	459
477.18	470
477.648	468
478.117	473
478.586	472
479.055	471
479.524	478
479.993	477
480.462	478
480.93	481
481.399	479
481.869	484
482.338	482
482.807	494
483.276	488
483.745	492
484.214	504
484.684	512
485.153	515
485.622	519
486.092	535
486.561	531
487.031	543
487.5	559
487.97	571
488.439	580
488.909	599
489.378	618
489.848	621
490.318	636
490.787	656
491.257	672
491.727	671
492.197	691
492.667	677
493.137	688
493.607	692
494.077	709
494.547	697
495.017	703
495.487	709
495.957	720
496.427	713
496.897	714
497.368	719
497.838	720
498.308	739
498.779	748
499.249	747
499.719	754
500.19	770
500.66	771
501.131	776
501.602	787
502.072	779
502.543	804
503.014	832
503.484	825
503.955	850
504.426	887
504.897	902
505.368	916
505.838	928
506.309	953
506.78	981
507.251	1004
507.722	1023
508.194	1045
508.665	1059
509.136	1058
509.607	1093
510.078	1111
510.549	1115
511.021	1139
511.492	1143
511.964	1163
512.435	1179
512.906	1177
513.378	1193
513.849	1217
514.321	1223
514.793	1235
515.264	1248
515.736	1261
516.208	1287
516.679	1286
517.151	1305
517.623	1319
518.095	1345
518.567	1359
519.038	1380
519.51	1379
519.982	1409
520.454	1423
520.927	1437
521.399	1464
521.871	1486
522.343	1486
522.815	1497
523.287	1503
523.76	1519
524.232	1543
524.704	1555
525.177	1533
525.649	1542
526.122	1561
526.594	1532
527.067	1570
527.539	1593
528.012	1575
528.484	1576
528.957	1579
529.43	1579
529.903	1568
530.375	1629
530.848	1598
531.321	1621
531.794	1618
532.267	1664
532.74	1638
533.213	1641
533.686	1675
534.159	1665
534.632	1709
535.105	1716
535.578	1756
536.051	1763
536.525	1771
536.998	1768
537.471	1813
537.945	1788
538.418	1828
538.891	1840
539.365	1859
539.838	1870
540.312	1880
540.786	1908
541.259	1897
541.733	1916
542.206	1936
542.68	1901
543.154	1903
543.628	1915
544.101	1973
544.575	1946
545.049	1899
545.523	1941
545.997	1945
546.471	1965
546.945	1933
547.419	1961
547.893	1884
548.367	1932
548.842	1914
549.316	1923
549.79	1938
550.264	1914
550.739	1947
551.213	1944
551.687	1946
552.162	1971
552.636	1952
553.111	1944
553.585	2005
554.06	1977
554.534	2015
555.009	1996
555.484	2042
555.958	2073
556.433	2080
556.908	2102
557.383	2082
557.858	2145
558.333	2147
558.807	2136
559.282	2141
559.757	2218
560.232	2229
560.708	2196
561.183	2180
561.658	2209
562.133	2214
562.608	2198
563.083	2252
563.559	2200
564.034	2213
564.509	2217
564.985	2220
565.46	2206
565.936	2252
566.411	2256
566.887	2230
567.362	2242
567.838	2241
568.313	2273
568.789	2241
569.265	2237
569.74	2260
570.216	2247
570.692	2293
571.168	2289
571.644	2267
572.12	2278
572.596	2300
573.071	2323
573.547	2384
574.024	2407
574.5	2440
574.976	2454
575.452	2492
575.928	2504
576.404	2515
576.881	2616
577.357	2573
577.833	2583
578.31	2646
578.786	2695
579.262	2745
579.739	2702
580.215	2776
580.692	2755
581.169	2748
581.645	2755
582.122	2842
582.598	2832
583.075	2836
583.552	2867
584.029	2858
584.506	2843
584.982	2814
585.459	2871
585.936	2850
586.413	2883
586.89	2931
587.367	2910
587.844	2972
588.321	2959
588.799	2968
589.276	2924
589.753	2959
590.23	2987
590.707	2984
591.185	2979
591.662	2984
592.139	3032
592.617	3080
593.094	3074
593.572	3083
594.049	3113
594.527	3156
595.004	3183
595.482	3257
595.96	3226
596.437	3233
596.915	3334
597.393	3271
597.871	3340
598.349	3302
598.826	3377
599.304	3374
599.782	3447
600.26	3419
600.738	3504
601.216	3498
601.694	3536
602.173	3563
602.651	3551
603.129	3500
603.607	3537
604.085	3551
604.564	3547
605.042	3559
605.52	3530
605.999	3641
606.477	3559
606.956	3578
607.434	3617.5
607.913	3657
608.391	3643
608.87	3623
609.348	3582
609.827	3609
610.306	3662
610.785	3710
611.263	3724
611.742	3693
612.221	3622
612.7	3652
613.179	3671
613.658	3622
614.137	3696
614.616	3723
615.095	3646
615.574	3710
616.053	3752
616.532	3716
617.011	3725
617.491	3736
617.97	3741
618.449	3809
618.928	3838
619.408	3800
619.887	3847
620.367	3864
620.846	3918
621.326	3898
621.805	3983
622.285	3967
622.764	3998
623.244	4015
623.724	4056
624.203	4061
624.683	3997
625.163	4076
625.643	4077
626.123	4038
626.602	4146
627.082	4065
627.562	4076
628.042	4155
628.522	4108
629.002	4076
629.482	4087
629.963	4091
630.443	4066
630.923	4085
631.403	4111
631.883	4107
632.364	4110
632.844	4073
633.324	4106
633.805	4128
634.285	4084
634.766	4053
635.246	4059
635.727	4050
636.207	4080
636.688	4085
637.168	4096
637.649	4055
638.13	4036
638.611	4071
639.091	4073
639.572	4035
640.053	4020
640.534	4061
641.015	4055
641.496	4002
641.977	4081
642.458	4043
642.939	4062
643.42	4075
643.901	4083
644.382	4130
644.863	4122
645.345	4133
645.826	4130
646.307	4135
646.788	4203
647.27	4135
647.751	4130
648.233	4153
648.714	4077
649.196	4195
649.677	4185
650.159	4188
650.64	4134
651.122	4200
651.603	4160
652.085	4212
652.567	4224
653.049	4189
653.53	4174
654.012	4237
654.494	4166
654.976	4208
655.458	4188
655.94	4186
656.422	4266
656.904	4205
657.386	4168
657.868	4172
658.35	4153
658.833	4189
659.315	4198
659.797	4152
660.279	4144
660.762	4183
661.244	4129
661.726	4074
662.209	4075
662.691	4083
663.174	4011
663.656	4040
664.139	4046
664.621	3992
665.104	3979
665.587	4034
666.069	4058
666.552	4086
667.035	4032
667.517	4038
668	4082
668.483	4070
668.966	4042
669.449	4030
669.932	4028
670.415	4058
670.898	4033
671.381	4059
671.864	4077
672.347	4039
672.83	4037
673.313	4047
673.797	4024
674.28	4106
674.763	4145
675.247	4178
675.73	4145
676.213	4158
676.697	4189
677.18	4203
677.664	4215
678.147	4215
678.631	4229
679.114	4251
679.598	4245
680.082	4292
680.565	4289
681.049	4276
681.533	4273
682.017	4294
682.5	4274
682.984	4294
683.468	4309
683.952	4230
684.436	4313
684.92	4269
685.404	4302
685.888	4343
686.372	4328
686.856	4346
687.341	4404
687.825	4333
688.309	4344
688.793	4324
689.278	4272
689.762	4317
690.246	4291
690.731	4310
691.215	4325
691.7	4213
692.184	4256
692.669	4247
693.153	4296
693.638	4244
694.122	4224
694.607	4246
695.092	4183
695.577	4219
696.061	4146
696.546	4155
697.031	4144
697.516	4174
698.001	4185
698.486	4173
698.971	4241
699.456	4157
699.941	4152
700.426	4144
700.911	4177
701.396	4167
701.881	4219
702.366	4203
702.852	4194
703.337	4206
703.822	4193
704.308	4186
704.793	4218
705.278	4220
705.764	4246
706.249	4220
706.735	4185
707.22	4209
707.706	4146
708.191	4226
708.677	4251
709.163	4222
709.648	4244
710.134	4296
710.62	4258
711.106	4265
711.592	4336
712.077	4306
712.563	4190
713.049	4175
713.535	4253
714.021	4244
714.507	4238
714.993	4204
715.479	4255
715.966	4195
716.452	4200
716.938	4203
717.424	4081
717.91	4164
718.397	4140
718.883	4126
719.369	4148
719.856	4103
720.342	4151
720.829	4099
721.315	4123
721.802	4097
722.288	4118
722.775	3955
723.262	3845
723.748	4002
724.235	3996
724.722	4077
725.208	4022
725.695	4020
726.182	3998
726.669	3925
727.156	3925
727.643	3882
728.13	3864
728.617	3832
729.104	3835
729.591	3811
730.078	3852
730.565	3869
731.052	3811
731.539	3834
732.027	3798
732.514	3747
733.001	3782
733.488	3762
733.976	3750
734.463	3733
734.951	3728
735.438	3773
735.926	3748
736.413	3783
736.901	3761
737.388	3804
737.876	3798
738.364	3779
738.851	3783
739.339	3772
739.827	3809
740.314	3691
740.802	3728
741.29	3732
741.778	3681
742.266	3693
742.754	3701
743.242	3738
743.73	3650
744.218	3641
744.706	3596
745.194	3625
745.682	3597
746.17	3610
746.659	3644
747.147	3562
747.635	3573
748.123	3565
748.612	3527
749.1	3512
749.589	3557
750.077	3528
750.566	3504
751.054	3517
751.543	3536
752.031	3460
752.52	3451
753.008	3384
753.497	3392
753.986	3384
754.474	3370
754.963	3408
755.452	3367
755.941	3346
756.43	3344
756.919	3336
757.408	3318
757.896	3330
758.385	3348
758.875	3300
759.364	3263
759.853	3225
760.342	3165
760.831	3219
761.32	3192
761.809	3143
762.299	3157
762.788	3175
763.277	3158
763.767	3119
764.256	3127
764.745	3064
765.235	3104
765.724	3016
766.214	3066
766.703	3046
767.193	3009
767.683	3022
768.172	2973
768.662	2988
769.152	2976
769.641	2984
770.131	2916
770.621	2953
771.111	2905
771.601	2887
772.09	2858
772.58	2822
773.07	2839
773.56	2874
774.05	2833
774.54	2841
775.031	2832
775.521	2809
776.011	2783
776.501	2799
776.991	2744
777.482	2764
777.972	2702
778.462	2708
778.953	2728
779.443	2702
779.933	2694
780.424	2665
780.914	2690
781.405	2711
781.895	2681
782.386	2673
782.877	2652
783.367	2608
783.858	2579
784.349	2574
784.839	2547
785.33	2555
785.821	2548
786.312	2536
786.803	2552
787.293	2557
787.784	2514
788.275	2474
788.766	2442
789.257	2485
789.748	2424
790.24	2413
790.731	2433
791.222	2392
791.713	2378
792.204	2387
792.696	2326
793.187	2347
793.678	2328
794.169	2267
794.661	2292
795.152	2268
795.644	2247
796.135	2243
796.627	2274
797.118	2228
797.61	2212
798.101	2193
798.593	2212
799.085	2183
799.576	2184
800.068	2146
800.56	2144
801.052	2088
801.544	2092
802.035	2102
802.527	2069
803.019	2044
803.511	2031
804.003	2013
804.495	2024
804.987	1997
805.479	1959
805.971	1984
806.464	1979
806.956	1927
807.448	1936
807.94	1934
808.433	1917
808.925	1911
809.417	1892
809.91	1878
810.402	1822
810.894	1833
811.387	1849
811.879	1820
812.372	1830
812.865	1809
813.357	1800
813.85	1796
814.342	1791
814.835	1791
815.328	1776
815.821	1752
816.313	1747
816.806	1753
817.299	1732
817.792	1734
818.285	1710
818.778	1727
819.271	1734
819.764	1706
820.257	1718
820.75	1729
821.243	1724
821.736	1705
822.229	1719
822.722	1720
823.216	1756
