Data from lamp5helium_sterk_Subt4__47__502.txt Node

Date: Wed Apr 09 10:18:34 CEST 2025
User: fys-lab-0081
Spectrometer: S04999
Trigger mode: 0
Resolution mode: 1024 pixels
Integration Time (sec): 1.000000E-1
Scans to average: 1
Nonlinearity correction enabled: false
Boxcar width: 0
Baseline correction enabled: true
XAxis mode: Wavelengths
Number of Pixels in Spectrum: 1024
>>>>>Begin Spectral Data<<<<<
336.42	3
336.877	0
337.334	3
337.792	0
338.249	4
338.706	2
339.164	-2
339.621	-3
340.079	3
340.536	8
340.994	7
341.452	-3
341.909	-1
342.367	-2
342.825	0
343.283	5
343.741	-1
344.198	2
344.656	1
345.114	0
345.572	2
346.03	3
346.488	5
346.947	0
347.405	1
347.863	4
348.321	6
348.779	1
349.238	3
349.696	4
350.154	3
350.613	1
351.071	2
351.53	5
351.988	1
352.447	-1
352.905	2
353.364	-1
353.823	1
354.282	0
354.74	0
355.199	3
355.658	4
356.117	4
356.576	7
357.035	1
357.494	2
357.953	9
358.412	11
358.871	0
359.33	4
359.789	4
360.249	4
360.708	7
361.167	6
361.626	9
362.086	2
362.545	8
363.005	14
363.464	0
363.924	3
364.383	10
364.843	2
365.303	6
365.762	1
366.222	2
366.682	10
367.142	11
367.601	5
368.061	2
368.521	15
368.981	6
369.441	13
369.901	15
370.361	7
370.821	9
371.282	8
371.742	9
372.202	11
372.662	11
373.123	8
373.583	8
374.043	11
374.504	4
374.964	8
375.425	10
375.885	10
376.346	12
376.806	10
377.267	14
377.728	15
378.188	8
378.649	12
379.11	14
379.571	11
380.032	13
380.493	9
380.954	15
381.414	7
381.876	13
382.337	16
382.798	20
383.259	23
383.72	15
384.181	16
384.642	15
385.104	18
385.565	23
386.026	18
386.488	16
386.949	20
387.411	22
387.872	19
388.334	23
388.795	23
389.257	28
389.719	28
390.181	22
390.642	28
391.104	21
391.566	19
392.028	34
392.49	28
392.952	29
393.414	31
393.876	34
394.338	31
394.8	31
395.262	34
395.724	30
396.186	36
396.648	34
397.111	36
397.573	35
398.035	36
398.498	40
398.96	34
399.423	36
399.885	41
400.348	35
400.81	48
401.273	37
401.736	46
402.198	45
402.661	47
403.124	45
403.587	51
404.049	53.5
404.512	56
404.975	51
405.438	52
405.901	53
406.364	55
406.827	55
407.29	51
407.754	53
408.217	59
408.68	52
409.143	56
409.607	63
410.07	58
410.533	60
410.997	59
411.46	55
411.924	56
412.387	61
412.851	65
413.314	66
413.778	63
414.242	66
414.705	67
415.169	70
415.633	70
416.097	64
416.561	71
417.024	76
417.488	76
417.952	76
418.416	81
418.88	73
419.344	75
419.809	76
420.273	74
420.737	72
421.201	73
421.665	83
422.13	81
422.594	85
423.059	89
423.523	82
423.987	85
424.452	90
424.916	96
425.381	93
425.846	93
426.31	93
426.775	96
427.24	103
427.704	95
428.169	104
428.634	101
429.099	100
429.564	97
430.029	106
430.494	105
430.959	111
431.424	100
431.889	107
432.354	109
432.819	109
433.284	117
433.75	114
434.215	119
434.68	125
435.146	126
435.611	140
436.077	151
436.542	145
437.008	141
437.473	142
437.939	145
438.404	143
438.87	151
439.336	148
439.801	143
440.267	146
440.733	154
441.199	158
441.665	152
442.131	162
442.596	157
443.062	158
443.529	167
443.995	170
444.461	169
444.927	185
445.393	182
445.859	193
446.325	193
446.792	216
447.258	211
447.724	218
448.191	223
448.657	225
449.124	231
449.59	230
450.057	250
450.523	242
450.99	246
451.457	249
451.923	258
452.39	252
452.857	258
453.324	257
453.791	263
454.257	262
454.724	264
455.191	266
455.658	264
456.125	278
456.592	273
457.059	277
457.527	283
457.994	291
458.461	298
458.928	310
459.396	301
459.863	312
460.33	310
460.798	312
461.265	314
461.732	316
462.2	323
462.668	324
463.135	327
463.603	317
464.07	325
464.538	326
465.006	333
465.474	326
465.941	328
466.409	328
466.877	324
467.345	338
467.813	333
468.281	338
468.749	335
469.217	345
469.685	350
470.153	351
470.621	350
471.09	357
471.558	370
472.026	376
472.494	381
472.963	392
473.431	408
473.9	415
474.368	419
474.837	431
475.305	435
475.774	450
476.242	460
476.711	454
477.18	468
477.648	468
478.117	474
478.586	465
479.055	470
479.524	482
479.993	480
480.462	473
480.93	477
481.399	474
481.869	485
482.338	483
482.807	490
483.276	486
483.745	495
484.214	506
484.684	516
485.153	513
485.622	515
486.092	534
486.561	531
487.031	544
487.5	557
487.97	572
488.439	586
488.909	603
489.378	619
489.848	620
490.318	638
490.787	656
491.257	672
491.727	669
492.197	687
492.667	678
493.137	688
493.607	691
494.077	710
494.547	696
495.017	702
495.487	711
495.957	729
496.427	709
496.897	711
497.368	724
497.838	720
498.308	734
498.779	744
499.249	750
499.719	757
500.19	763
500.66	767
501.131	775
501.602	789
502.072	775
502.543	800
503.014	832
503.484	826
503.955	853
504.426	888
504.897	894
505.368	912
505.838	928
506.309	954
506.78	987
507.251	1005
507.722	1022
508.194	1048
508.665	1061
509.136	1060
509.607	1095
510.078	1108
510.549	1119
511.021	1138
511.492	1145
511.964	1169
512.435	1179
512.906	1179
513.378	1191
513.849	1211
514.321	1223
514.793	1230
515.264	1249
515.736	1260
516.208	1277
516.679	1288
517.151	1302
517.623	1316
518.095	1344
518.567	1357
519.038	1374
519.51	1371
519.982	1402
520.454	1419
520.927	1442
521.399	1469
521.871	1487
522.343	1491
522.815	1506
523.287	1499
523.76	1519
524.232	1544
524.704	1554
525.177	1528
525.649	1545
526.122	1562
526.594	1537
527.067	1571
527.539	1594
528.012	1579
528.484	1574
528.957	1580
529.43	1580
529.903	1569
530.375	1629
530.848	1610
531.321	1629
531.794	1621
532.267	1657
532.74	1638
533.213	1640
533.686	1679
534.159	1663
534.632	1710
535.105	1727
535.578	1758
536.051	1760
536.525	1770
536.998	1778
537.471	1810
537.945	1794
538.418	1832
538.891	1840
539.365	1854
539.838	1878
540.312	1881
540.786	1900
541.259	1897
541.733	1920
542.206	1933
542.68	1907
543.154	1904
543.628	1909
544.101	1969
544.575	1944
545.049	1898
545.523	1935
545.997	1952
546.471	1972
546.945	1932
547.419	1955
547.893	1886
548.367	1936
548.842	1910
549.316	1924
549.79	1936
550.264	1915
550.739	1948
551.213	1945
551.687	1941
552.162	1969
552.636	1952
553.111	1942
553.585	2001
554.06	1982
554.534	2012
555.009	2003
555.484	2037
555.958	2069
556.433	2078
556.908	2099
557.383	2082
557.858	2143
558.333	2145
558.807	2141
559.282	2149
559.757	2212
560.232	2228
560.708	2192
561.183	2181
561.658	2221
562.133	2214
562.608	2190
563.083	2250
563.559	2197
564.034	2213
564.509	2221
564.985	2215
565.46	2203
565.936	2253
566.411	2254
566.887	2221
567.362	2239
567.838	2247
568.313	2267
568.789	2240
569.265	2230
569.74	2263
570.216	2250
570.692	2294
571.168	2285
571.644	2272
572.12	2266
572.596	2306
573.071	2323
573.547	2385
574.024	2411
574.5	2447
574.976	2458
575.452	2489
575.928	2496
576.404	2521
576.881	2617
577.357	2573
577.833	2581
578.31	2653
578.786	2695
579.262	2745
579.739	2707
580.215	2779
580.692	2757
581.169	2755
581.645	2750
582.122	2848
582.598	2834
583.075	2833
583.552	2864
584.029	2862
584.506	2841
584.982	2810
585.459	2871
585.936	2847
586.413	2885
586.89	2926
587.367	2907
587.844	2982
588.321	2968
588.799	2958
589.276	2923
589.753	2964
590.23	2990
590.707	2979
591.185	2977
591.662	2982
592.139	3031
592.617	3083
593.094	3077
593.572	3084
594.049	3126
594.527	3156
595.004	3179
595.482	3262
595.96	3224
596.437	3243
596.915	3327
597.393	3269
597.871	3343
598.349	3301
598.826	3373
599.304	3376
599.782	3449
600.26	3413
600.738	3509
601.216	3500
601.694	3540
602.173	3563
602.651	3552
603.129	3492
603.607	3544
604.085	3553
604.564	3554
605.042	3554
605.52	3533
605.999	3641
606.477	3555
606.956	3574
607.434	3614
607.913	3654
608.391	3641
608.87	3633
609.348	3585
609.827	3615
610.306	3656
610.785	3706
611.263	3733
611.742	3690
612.221	3627
612.7	3653
613.179	3672
613.658	3626
614.137	3693
614.616	3718
615.095	3642
615.574	3713
616.053	3749
616.532	3711
617.011	3720
617.491	3744
617.97	3744
618.449	3818
618.928	3842
619.408	3802
619.887	3844
620.367	3871
620.846	3916
621.326	3900
621.805	3988
622.285	3963
622.764	3997
623.244	4010
623.724	4060
624.203	4075
624.683	4002
625.163	4077
625.643	4074
626.123	4043
626.602	4148
627.082	4069
627.562	4069
628.042	4159
628.522	4115
629.002	4075
629.482	4096
629.963	4092
630.443	4067
630.923	4084
631.403	4110
631.883	4106
632.364	4114
632.844	4076
633.324	4114
633.805	4134
634.285	4079
634.766	4063
635.246	4063
635.727	4063
636.207	4078
636.688	4091
637.168	4097
637.649	4059
638.13	4040
638.611	4063
639.091	4072
639.572	4041
640.053	4018
640.534	4070
641.015	4048
641.496	4006
641.977	4082
642.458	4046
642.939	4065
643.42	4075
643.901	4083
644.382	4139
644.863	4124
645.345	4126
645.826	4124
646.307	4138
646.788	4214
647.27	4126
647.751	4137
648.233	4160
648.714	4079
649.196	4201
649.677	4192
650.159	4190
650.64	4139
651.122	4202
651.603	4161
652.085	4215
652.567	4229
653.049	4185
653.53	4177
654.012	4242
654.494	4165
654.976	4214
655.458	4197
655.94	4185
656.422	4258
656.904	4213
657.386	4164
657.868	4166
658.35	4143
658.833	4184
659.315	4205
659.797	4160
660.279	4151
660.762	4180
661.244	4146
661.726	4077
662.209	4075
662.691	4072
663.174	4009
663.656	4046
664.139	4043
664.621	4003
665.104	3979
665.587	4027
666.069	4061
666.552	4082
667.035	4033
667.517	4046
668	4075
668.483	4075
668.966	4046
669.449	4021
669.932	4020
670.415	4056
670.898	4039
671.381	4054
671.864	4076
672.347	4035
672.83	4030
673.313	4048
673.797	4024
674.28	4107
674.763	4152
675.247	4184
675.73	4153
676.213	4174
676.697	4191
677.18	4200
677.664	4214
678.147	4212
678.631	4228
679.114	4245
679.598	4248
680.082	4286
680.565	4300
681.049	4280
681.533	4275
682.017	4293
682.5	4283
682.984	4301
683.468	4308
683.952	4234
684.436	4325
684.92	4284
685.404	4306
685.888	4343
686.372	4327
686.856	4353
687.341	4401
687.825	4335
688.309	4341
688.793	4330
689.278	4272
689.762	4313
690.246	4301
690.731	4305
691.215	4337
691.7	4224
692.184	4258
692.669	4256
693.153	4296
693.638	4235
694.122	4225
694.607	4242
695.092	4180
695.577	4224
696.061	4146
696.546	4159
697.031	4147
697.516	4171
698.001	4185
698.486	4175
698.971	4245
699.456	4158
699.941	4160
700.426	4136
700.911	4192
701.396	4182
701.881	4228
702.366	4207
702.852	4186
703.337	4210
703.822	4193
704.308	4199
704.793	4216
705.278	4238
705.764	4247
706.249	4217
706.735	4191
707.22	4209
707.706	4140
708.191	4229
708.677	4247
709.163	4216
709.648	4237
710.134	4304
710.62	4261
711.106	4270
711.592	4340
712.077	4308
712.563	4195
713.049	4181
713.535	4267
714.021	4236
714.507	4235
714.993	4204
715.479	4254
715.966	4208
716.452	4194
716.938	4208
717.424	4084
717.91	4167
718.397	4139
718.883	4127
719.369	4152
719.856	4103
720.342	4153
720.829	4089
721.315	4121
721.802	4096
722.288	4112
722.775	3955
723.262	3837
723.748	4011
724.235	4004
724.722	4086
725.208	4021
725.695	4028
726.182	3998
726.669	3916
727.156	3928
727.643	3887
728.13	3865
728.617	3832
729.104	3830
729.591	3819
730.078	3853
730.565	3865
731.052	3818
731.539	3825
732.027	3798
732.514	3747
733.001	3791
733.488	3760
733.976	3754
734.463	3741
734.951	3729
735.438	3788
735.926	3746
736.413	3786
736.901	3760
737.388	3805
737.876	3804
738.364	3776
738.851	3779
739.339	3767
739.827	3809
740.314	3689
740.802	3719
741.29	3731
741.778	3682
742.266	3692
742.754	3709
743.242	3739
743.73	3654
744.218	3644
744.706	3599
745.194	3620
745.682	3606
746.17	3618
746.659	3646
747.147	3561
747.635	3576
748.123	3573
748.612	3527
749.1	3507
749.589	3560
750.077	3534
750.566	3497
751.054	3518
751.543	3531
752.031	3472
752.52	3461
753.008	3387
753.497	3387
753.986	3377
754.474	3363
754.963	3407
755.452	3367
755.941	3351
756.43	3333
756.919	3335
757.408	3319
757.896	3333
758.385	3338
758.875	3299
759.364	3261
759.853	3231
760.342	3166
760.831	3224
761.32	3193
761.809	3144
762.299	3164
762.788	3170
763.277	3167
763.767	3119
764.256	3128
764.745	3064
765.235	3106
765.724	3010
766.214	3066
766.703	3036
767.193	3013
767.683	3023
768.172	2976
768.662	3000
769.152	2970
769.641	2981
770.131	2914
770.621	2951
771.111	2910
771.601	2891
772.09	2859
772.58	2818
773.07	2846
773.56	2872
774.05	2836
774.54	2841
775.031	2830
775.521	2809
776.011	2784
776.501	2792
776.991	2735
777.482	2774
777.972	2703
778.462	2700
778.953	2719
779.443	2705
779.933	2705
780.424	2667
780.914	2691
781.405	2709
781.895	2679
782.386	2676
782.877	2653
783.367	2608
783.858	2580
784.349	2576
784.839	2544
785.33	2555
785.821	2562
786.312	2533
786.803	2550
787.293	2564
787.784	2512
788.275	2472
788.766	2447
789.257	2484
789.748	2432
790.24	2405
790.731	2432
791.222	2396
791.713	2378
792.204	2390
792.696	2325
793.187	2351
793.678	2328
794.169	2263
794.661	2297
795.152	2265
795.644	2247
796.135	2240
796.627	2268
797.118	2229
797.61	2215
798.101	2191
798.593	2214
799.085	2177
799.576	2180
800.068	2146
800.56	2141
801.052	2095
801.544	2091
802.035	2105
802.527	2073
803.019	2050
803.511	2028
804.003	2014
804.495	2022
804.987	2001
805.479	1956
805.971	1980
806.464	1982
806.956	1930
807.448	1935
807.94	1934
808.433	1916
808.925	1916
809.417	1892
809.91	1883
810.402	1822
810.894	1834
811.387	1847
811.879	1819
812.372	1832
812.865	1807
813.357	1814
813.85	1788
814.342	1787
814.835	1792
815.328	1781
815.821	1755
816.313	1748
816.806	1750
817.299	1731
817.792	1737
818.285	1713
818.778	1727
819.271	1734
819.764	1710
820.257	1718
820.75	1724
821.243	1721
821.736	1709
822.229	1719
822.722	1720
823.216	1755
