Data from lamp5helium_sterk_Subt2__50__50.txt Node

Date: Wed Apr 09 11:04:40 CEST 2025
User: fys-lab-0081
Spectrometer: S04999
Trigger mode: 0
Resolution mode: 1024 pixels
Integration Time (sec): 1.000000E-1
Scans to average: 1
Nonlinearity correction enabled: false
Boxcar width: 0
Baseline correction enabled: true
XAxis mode: Wavelengths
Number of Pixels in Spectrum: 1024
>>>>>Begin Spectral Data<<<<<
336.42	-3
336.877	0
337.334	0
337.792	3
338.249	0
338.706	2
339.164	1
339.621	2
340.079	4
340.536	5
340.994	-2
341.452	4
341.909	6
342.367	0
342.825	-4
343.283	6
343.741	0
344.198	1
344.656	1
345.114	-2
345.572	4
346.03	0
346.488	3
346.947	2
347.405	5
347.863	0
348.321	1
348.779	3
349.238	-2
349.696	5
350.154	1
350.613	1
351.071	5
351.53	5
351.988	4
352.447	2
352.905	-2
353.364	2
353.823	1
354.282	-1
354.74	-4
355.199	0
355.658	4
356.117	1
356.576	3
357.035	-1
357.494	-4
357.953	-1
358.412	6
358.871	4
359.33	1
359.789	0
360.249	0
360.708	1
361.167	1
361.626	1
362.086	0
362.545	2
363.005	3
363.464	2
363.924	-1
364.383	1
364.843	0
365.303	3
365.762	1
366.222	0
366.682	0
367.142	3
367.601	1
368.061	2
368.521	4
368.981	-4
369.441	10
369.901	4
370.361	2
370.821	-1
371.282	3
371.742	-1
372.202	4
372.662	7
373.123	-5
373.583	2
374.043	5
374.504	-1
374.964	0
375.425	1
375.885	1
376.346	4
376.806	7
377.267	0
377.728	4
378.188	6
378.649	5
379.11	5
379.571	1
380.032	3
380.493	5
380.954	8
381.414	1
381.876	3
382.337	4
382.798	6
383.259	6
383.72	2
384.181	3
384.642	3
385.104	6
385.565	11
386.026	11
386.488	8
386.949	11
387.411	8
387.872	10
388.334	11
388.795	9
389.257	14
389.719	7
390.181	4
390.642	3
391.104	8
391.566	10
392.028	10
392.49	12
392.952	12
393.414	10
393.876	11
394.338	7
394.8	6
395.262	2
395.724	9
396.186	14
396.648	13
397.111	9
397.573	13
398.035	10
398.498	8
398.96	14
399.423	13
399.885	12
400.348	12
400.81	10
401.273	11
401.736	13
402.198	19
402.661	13
403.124	7
403.587	18
404.049	15.5
404.512	13
404.975	15
405.438	17
405.901	15
406.364	23
406.827	18
407.29	13
407.754	14
408.217	20
408.68	20
409.143	25
409.607	21
410.07	22
410.533	15
410.997	20
411.46	18
411.924	22
412.387	26
412.851	18
413.314	19
413.778	20
414.242	22
414.705	24
415.169	24
415.633	20
416.097	18
416.561	22
417.024	19
417.488	22
417.952	24
418.416	19
418.88	16
419.344	20
419.809	26
420.273	24
420.737	19
421.201	25
421.665	23
422.13	29
422.594	30
423.059	28
423.523	30
423.987	26
424.452	33
424.916	30
425.381	31
425.846	28
426.31	35
426.775	34
427.24	32
427.704	32
428.169	36
428.634	40
429.099	34
429.564	34
430.029	32
430.494	32
430.959	29
431.424	34
431.889	38
432.354	37
432.819	36
433.284	42
433.75	40
434.215	40
434.68	40
435.146	40
435.611	40
436.077	41
436.542	39
437.008	40
437.473	44
437.939	41
438.404	48
438.87	51
439.336	49
439.801	51
440.267	51
440.733	49
441.199	50
441.665	51
442.131	59
442.596	46
443.062	53
443.529	58
443.995	58
444.461	52
444.927	60
445.393	60
445.859	61
446.325	63
446.792	66
447.258	63
447.724	71
448.191	74
448.657	76
449.124	66
449.59	72
450.057	76
450.523	80
450.99	80
451.457	81
451.923	82
452.39	80
452.857	87
453.324	82
453.791	88
454.257	95
454.724	86
455.191	86
455.658	90
456.125	89
456.592	94
457.059	94
457.527	92
457.994	98
458.461	102
458.928	98
459.396	99
459.863	104
460.33	99
460.798	104
461.265	108
461.732	106
462.2	108
462.668	110
463.135	111
463.603	103
464.07	115
464.538	109
465.006	111
465.474	108
465.941	107
466.409	109
466.877	107
467.345	107
467.813	106
468.281	110
468.749	114
469.217	113
469.685	119
470.153	124
470.621	124
471.09	123
471.558	131
472.026	131
472.494	130
472.963	127
473.431	133
473.9	134
474.368	144
474.837	140
475.305	148
475.774	146
476.242	150
476.711	151
477.18	157
477.648	158
478.117	159
478.586	159
479.055	160
479.524	161
479.993	163
480.462	162
480.93	160
481.399	165
481.869	164
482.338	161
482.807	167
483.276	162
483.745	165
484.214	170
484.684	170
485.153	174
485.622	180
486.092	178
486.561	178
487.031	189
487.5	185
487.97	191
488.439	195
488.909	202
489.378	206
489.848	212
490.318	216
490.787	228
491.257	227
491.727	227
492.197	233
492.667	236
493.137	235
493.607	238
494.077	239
494.547	234
495.017	241
495.487	244
495.957	251
496.427	247
496.897	245
497.368	250
497.838	246
498.308	249
498.779	256
499.249	258
499.719	261
500.19	265
500.66	263
501.131	266
501.602	270
502.072	274
502.543	280
503.014	292
503.484	294
503.955	290
504.426	307
504.897	308
505.368	312
505.838	325
506.309	329
506.78	341
507.251	346
507.722	354
508.194	368
508.665	372
509.136	366
509.607	385
510.078	381
510.549	391
511.021	401
511.492	399
511.964	408
512.435	408
512.906	408
513.378	417
513.849	422
514.321	425
514.793	425
515.264	441
515.736	442
516.208	451
516.679	456
517.151	461
517.623	463
518.095	472
518.567	477
519.038	488
519.51	487
519.982	492
520.454	503
520.927	505
521.399	512
521.871	531
522.343	525
522.815	526
523.287	529
523.76	534
524.232	540
524.704	546
525.177	539
525.649	536
526.122	554
526.594	544
527.067	551
527.539	559
528.012	566
528.484	558
528.957	563
529.43	564
529.903	566
530.375	580
530.848	572
531.321	577
531.794	587
532.267	597
532.74	585
533.213	590
533.686	595
534.159	600
534.632	612
535.105	615
535.578	633
536.051	631
536.525	628
536.998	634
537.471	652
537.945	642
538.418	654
538.891	656
539.365	664
539.838	669
540.312	668
540.786	667
541.259	671
541.733	688
542.206	691
542.68	683
543.154	679
543.628	689
544.101	705
544.575	689
545.049	677
545.523	688
545.997	687
546.471	696
546.945	692
547.419	699
547.893	682
548.367	695
548.842	682
549.316	690
549.79	699
550.264	694
550.739	704
551.213	708
551.687	706
552.162	710
552.636	705
553.111	711
553.585	738
554.06	723
554.534	731
555.009	739
555.484	747
555.958	755
556.433	759
556.908	774
557.383	768
557.858	780
558.333	785
558.807	779
559.282	795
559.757	813
560.232	809
560.708	798
561.183	799
561.658	816
562.133	809
562.608	807
563.083	829
563.559	812
564.034	813
564.509	818
564.985	820
565.46	818
565.936	824
566.411	823
566.887	817
567.362	821
567.838	827
568.313	835
568.789	826
569.265	830
569.74	831
570.216	830
570.692	841
571.168	837
571.644	846
572.12	841
572.596	850
573.071	856
573.547	885
574.024	899
574.5	900
574.976	911
575.452	917
575.928	937
576.404	942
576.881	968
577.357	953
577.833	957
578.31	984
578.786	992
579.262	1006
579.739	995
580.215	1033
580.692	1037
581.169	1018
581.645	1021
582.122	1054
582.598	1056
583.075	1052
583.552	1059
584.029	1058
584.506	1053
584.982	1049
585.459	1066
585.936	1051
586.413	1073
586.89	1101
587.367	1088
587.844	1107
588.321	1097
588.799	1100
589.276	1088
589.753	1104
590.23	1117
590.707	1120
591.185	1123
591.662	1133
592.139	1143
592.617	1157
593.094	1153
593.572	1165
594.049	1169
594.527	1181
595.004	1191
595.482	1221
595.96	1216
596.437	1212
596.915	1244
597.393	1221
597.871	1255
598.349	1246
598.826	1269
599.304	1270
599.782	1299
600.26	1291
600.738	1320
601.216	1317
601.694	1321
602.173	1330
602.651	1345
603.129	1338
603.607	1348
604.085	1351
604.564	1361
605.042	1368
605.52	1362
605.999	1393
606.477	1355
606.956	1366
607.434	1384
607.913	1402
608.391	1404
608.87	1384
609.348	1363
609.827	1373
610.306	1383
610.785	1384
611.263	1388
611.742	1380
612.221	1366
612.7	1390
613.179	1395
613.658	1376
614.137	1398
614.616	1420
615.095	1401
615.574	1421
616.053	1431
616.532	1418
617.011	1425
617.491	1433
617.97	1426
618.449	1440
618.928	1465
619.408	1457
619.887	1475
620.367	1479
620.846	1496
621.326	1485
621.805	1517
622.285	1522
622.764	1539
623.244	1530
623.724	1543
624.203	1560
624.683	1534
625.163	1561
625.643	1555
626.123	1549
626.602	1590
627.082	1556
627.562	1557
628.042	1580
628.522	1582
629.002	1576
629.482	1575
629.963	1585
630.443	1569
630.923	1571
631.403	1586
631.883	1594
632.364	1596
632.844	1583
633.324	1592
633.805	1586
634.285	1569
634.766	1558
635.246	1565
635.727	1578
636.207	1582
636.688	1570
637.168	1565
637.649	1563
638.13	1568
638.611	1586
639.091	1569
639.572	1562
640.053	1557
640.534	1569
641.015	1577
641.496	1544
641.977	1585
642.458	1565
642.939	1574
643.42	1582
643.901	1580
644.382	1605
644.863	1596
645.345	1599
645.826	1599
646.307	1597
646.788	1626
647.27	1609
647.751	1605
648.233	1626
648.714	1584
649.196	1627
649.677	1617
650.159	1617
650.64	1600
651.122	1634
651.603	1602
652.085	1623
652.567	1640
653.049	1629
653.53	1638
654.012	1665
654.494	1636
654.976	1653
655.458	1652
655.94	1635
656.422	1671
656.904	1639
657.386	1612
657.868	1625
658.35	1615
658.833	1626
659.315	1634
659.797	1605
660.279	1604
660.762	1611
661.244	1594
661.726	1581
662.209	1590
662.691	1593
663.174	1562
663.656	1575
664.139	1580
664.621	1566
665.104	1562
665.587	1583
666.069	1592
666.552	1590
667.035	1571
667.517	1585
668	1604
668.483	1606
668.966	1583
669.449	1585
669.932	1579
670.415	1598
670.898	1598
671.381	1596
671.864	1599
672.347	1578
672.83	1578
673.313	1586
673.797	1583
674.28	1618
674.763	1612
675.247	1617
675.73	1599
676.213	1620
676.697	1633
677.18	1636
677.664	1639
678.147	1635
678.631	1655
679.114	1672
679.598	1675
680.082	1690
680.565	1683
681.049	1681
681.533	1676
682.017	1693
682.5	1689
682.984	1688
683.468	1687
683.952	1669
684.436	1710
684.92	1691
685.404	1705
685.888	1712
686.372	1697
686.856	1699
687.341	1715
687.825	1697
688.309	1705
688.793	1707
689.278	1691
689.762	1708
690.246	1703
690.731	1697
691.215	1699
691.7	1665
692.184	1689
692.669	1678
693.153	1683
693.638	1655
694.122	1663
694.607	1685
695.092	1661
695.577	1678
696.061	1650
696.546	1663
697.031	1658
697.516	1669
698.001	1675
698.486	1674
698.971	1696
699.456	1648
699.941	1649
700.426	1648
700.911	1661
701.396	1662
701.881	1682
702.366	1661
702.852	1664
703.337	1661
703.822	1657
704.308	1655
704.793	1661
705.278	1669
705.764	1673
706.249	1660
706.735	1659
707.22	1680
707.706	1661
708.191	1679
708.677	1676
709.163	1664
709.648	1680
710.134	1705
710.62	1695
711.106	1694
711.592	1712
712.077	1696
712.563	1654
713.049	1655
713.535	1694
714.021	1693
714.507	1685
714.993	1665
715.479	1683
715.966	1664
716.452	1677
716.938	1677
717.424	1627
717.91	1658
718.397	1641
718.883	1633
719.369	1642
719.856	1622
720.342	1644
720.829	1614
721.315	1631
721.802	1612
722.288	1623
722.775	1560
723.262	1523
723.748	1588
724.235	1585
724.722	1604
725.208	1571
725.695	1568
726.182	1565
726.669	1549
727.156	1573
727.643	1557
728.13	1558
728.617	1538
729.104	1537
729.591	1524
730.078	1546
730.565	1546
731.052	1526
731.539	1529
732.027	1519
732.514	1504
733.001	1520
733.488	1507
733.976	1503
734.463	1499
734.951	1499
735.438	1510
735.926	1501
736.413	1510
736.901	1501
737.388	1509
737.876	1500
738.364	1493
738.851	1500
739.339	1505
739.827	1526
740.314	1474
740.802	1482
741.29	1485
741.778	1468
742.266	1468
742.754	1476
743.242	1494
743.73	1467
744.218	1469
744.706	1453
745.194	1473
745.682	1469
746.17	1475
746.659	1474
747.147	1437
747.635	1444
748.123	1444
748.612	1424
749.1	1404
749.589	1410
750.077	1411
750.566	1403
751.054	1422
751.543	1430
752.031	1395
752.52	1393
753.008	1359
753.497	1366
753.986	1365
754.474	1363
754.963	1377
755.452	1349
755.941	1330
756.43	1336
756.919	1328
757.408	1312
757.896	1328
758.385	1336
758.875	1325
759.364	1316
759.853	1295
760.342	1281
760.831	1299
761.32	1295
761.809	1274
762.299	1277
762.788	1286
763.277	1288
763.767	1274
764.256	1285
764.745	1265
765.235	1279
765.724	1247
766.214	1273
766.703	1254
767.193	1233
767.683	1238
768.172	1208
768.662	1222
769.152	1216
769.641	1221
770.131	1186
770.621	1200
771.111	1184
771.601	1184
772.09	1169
772.58	1156
773.07	1156
773.56	1166
774.05	1137
774.54	1133
775.031	1122
775.521	1122
776.011	1126
776.501	1134
776.991	1111
777.482	1116
777.972	1093
778.462	1091
778.953	1102
779.443	1091
779.933	1090
780.424	1084
780.914	1100
781.405	1105
781.895	1099
782.386	1099
782.877	1087
783.367	1069
783.858	1069
784.349	1064
784.839	1052
785.33	1054
785.821	1059
786.312	1059
786.803	1058
787.293	1062
787.784	1051
788.275	1031
788.766	1024
789.257	1043
789.748	1024
790.24	1010
790.731	1017
791.222	998
791.713	992
792.204	999
792.696	970
793.187	977
793.678	958
794.169	937
794.661	952
795.152	937
795.644	923
796.135	931
796.627	927
797.118	919
797.61	905
798.101	895
798.593	903
799.085	886
799.576	897
800.068	889
800.56	892
801.052	873
801.544	877
802.035	879
802.527	856
803.019	853
803.511	847
804.003	847
804.495	848
804.987	844
805.479	830
805.971	832
806.464	837
806.956	816
807.448	811
807.94	808
808.433	814
808.925	807
809.417	798
809.91	802
810.402	771
810.894	785
811.387	797
811.879	782
812.372	787
812.865	774
813.357	770
813.85	767
814.342	753
814.835	756
815.328	754
815.821	743
816.313	749
816.806	748
817.299	737
817.792	747
818.285	729
818.778	740
819.271	739
819.764	731
820.257	739
820.75	728
821.243	732
821.736	725
822.229	723
822.722	722
823.216	736
