Data from lamp5helium_sterk_Subt2__24__24.txt Node

Date: Wed Apr 09 11:04:37 CEST 2025
User: fys-lab-0081
Spectrometer: S04999
Trigger mode: 0
Resolution mode: 1024 pixels
Integration Time (sec): 1.000000E-1
Scans to average: 1
Nonlinearity correction enabled: false
Boxcar width: 0
Baseline correction enabled: true
XAxis mode: Wavelengths
Number of Pixels in Spectrum: 1024
>>>>>Begin Spectral Data<<<<<
336.42	-1
336.877	3
337.334	0
337.792	4
338.249	4
338.706	-1
339.164	-3
339.621	2
340.079	5
340.536	3
340.994	6
341.452	6
341.909	6
342.367	3
342.825	-1
343.283	4
343.741	2
344.198	0
344.656	0
345.114	-3
345.572	4
346.03	1
346.488	0
346.947	1
347.405	6
347.863	0
348.321	0
348.779	1
349.238	2
349.696	3
350.154	-2
350.613	-2
351.071	-1
351.53	3
351.988	7
352.447	1
352.905	-2
353.364	-2
353.823	3
354.282	3
354.74	-7
355.199	0
355.658	5
356.117	-3
356.576	2
357.035	-3
357.494	-2
357.953	2
358.412	5
358.871	6
359.33	2
359.789	-2
360.249	0
360.708	-2
361.167	0
361.626	1
362.086	-1
362.545	2
363.005	-3
363.464	0
363.924	2
364.383	3
364.843	2
365.303	3
365.762	1
366.222	1
366.682	-1
367.142	1
367.601	-3
368.061	3
368.521	3
368.981	0
369.441	5
369.901	6
370.361	1
370.821	-3
371.282	3
371.742	3
372.202	0
372.662	6
373.123	1
373.583	0
374.043	4
374.504	2
374.964	-2
375.425	-2
375.885	1
376.346	4
376.806	5
377.267	5
377.728	8
378.188	7
378.649	0
379.11	7
379.571	-1
380.032	3
380.493	3
380.954	4
381.414	2
381.876	5
382.337	2
382.798	3
383.259	9
383.72	3
384.181	3
384.642	5
385.104	2
385.565	8
386.026	7
386.488	12
386.949	7
387.411	5
387.872	5
388.334	9
388.795	12
389.257	9
389.719	6
390.181	14
390.642	3
391.104	8
391.566	7
392.028	10
392.49	12
392.952	10
393.414	11
393.876	10
394.338	9
394.8	9
395.262	5
395.724	14
396.186	12
396.648	11
397.111	15
397.573	16
398.035	11
398.498	9
398.96	13
399.423	13
399.885	12
400.348	18
400.81	13
401.273	11
401.736	11
402.198	16
402.661	16
403.124	10
403.587	14
404.049	14
404.512	14
404.975	13
405.438	17
405.901	16
406.364	14
406.827	21
407.29	20
407.754	11
408.217	18
408.68	13
409.143	21
409.607	20
410.07	18
410.533	18
410.997	18
411.46	20
411.924	25
412.387	27
412.851	18
413.314	16
413.778	23
414.242	17
414.705	22
415.169	22
415.633	24
416.097	21
416.561	25
417.024	26
417.488	21
417.952	21
418.416	22
418.88	19
419.344	16
419.809	24
420.273	22
420.737	21
421.201	23
421.665	24
422.13	29
422.594	33
423.059	29
423.523	29
423.987	24
424.452	32
424.916	25
425.381	32
425.846	25
426.31	36
426.775	35
427.24	33
427.704	35
428.169	33
428.634	41
429.099	41
429.564	34
430.029	31
430.494	35
430.959	30
431.424	35
431.889	38
432.354	41
432.819	28
433.284	40
433.75	40
434.215	41
434.68	37
435.146	38
435.611	40
436.077	42
436.542	42
437.008	48
437.473	47
437.939	45
438.404	46
438.87	45
439.336	45
439.801	50
440.267	49
440.733	54
441.199	51
441.665	53
442.131	52
442.596	51
443.062	53
443.529	57
443.995	59
444.461	57
444.927	62
445.393	63
445.859	62
446.325	63
446.792	72
447.258	68
447.724	73
448.191	71
448.657	78
449.124	72
449.59	71
450.057	80
450.523	85
450.99	83
451.457	85
451.923	82
452.39	83
452.857	89
453.324	80
453.791	86
454.257	91
454.724	90
455.191	87
455.658	85
456.125	89
456.592	91
457.059	93
457.527	93
457.994	95
458.461	100
458.928	103
459.396	99
459.863	103
460.33	99
460.798	105
461.265	108
461.732	102
462.2	111
462.668	111
463.135	110
463.603	109
464.07	117
464.538	107
465.006	111
465.474	114
465.941	111
466.409	112
466.877	106
467.345	107
467.813	105
468.281	114
468.749	116
469.217	115
469.685	118
470.153	123
470.621	120
471.09	120
471.558	130
472.026	128
472.494	130
472.963	124
473.431	134
473.9	137
474.368	144
474.837	144
475.305	144
475.774	150
476.242	157
476.711	151
477.18	159
477.648	154
478.117	156
478.586	163
479.055	160
479.524	162
479.993	163
480.462	163
480.93	163
481.399	163
481.869	165
482.338	162
482.807	167
483.276	168
483.745	166
484.214	172
484.684	172
485.153	176
485.622	175
486.092	180
486.561	178
487.031	194
487.5	186
487.97	194
488.439	199
488.909	202
489.378	210
489.848	212
490.318	214
490.787	229
491.257	230
491.727	225
492.197	237
492.667	234
493.137	242
493.607	239
494.077	241
494.547	238
495.017	240
495.487	245
495.957	251
496.427	251
496.897	240
497.368	247
497.838	251
498.308	254
498.779	251
499.249	255
499.719	261
500.19	270
500.66	265
501.131	269
501.602	273
502.072	272
502.543	281
503.014	288
503.484	292
503.955	296
504.426	308
504.897	307
505.368	314
505.838	329
506.309	331
506.78	343
507.251	350
507.722	353
508.194	364
508.665	373
509.136	371
509.607	385
510.078	391
510.549	394
511.021	400
511.492	401
511.964	411
512.435	419
512.906	415
513.378	421
513.849	426
514.321	428
514.793	429
515.264	445
515.736	445
516.208	450
516.679	462
517.151	461
517.623	468
518.095	474
518.567	482
519.038	488
519.51	494
519.982	495
520.454	498
520.927	511
521.399	519
521.871	524
522.343	524
522.815	534
523.287	531
523.76	540
524.232	548
524.704	549
525.177	545
525.649	545
526.122	554
526.594	544
527.067	555
527.539	562
528.012	565
528.484	560
528.957	568
529.43	571
529.903	566
530.375	586
530.848	571
531.321	584
531.794	587
532.267	597
532.74	590
533.213	594
533.686	598
534.159	598
534.632	613
535.105	618
535.578	630
536.051	636
536.525	629
536.998	635
537.471	653
537.945	646
538.418	653
538.891	656
539.365	673
539.838	674
540.312	670
540.786	672
541.259	681
541.733	691
542.206	699
542.68	678
543.154	688
543.628	689
544.101	701
544.575	693
545.049	677
545.523	692
545.997	694
546.471	705
546.945	699
547.419	709
547.893	677
548.367	697
548.842	691
549.316	693
549.79	703
550.264	697
550.739	703
551.213	715
551.687	709
552.162	714
552.636	712
553.111	711
553.585	738
554.06	736
554.534	739
555.009	741
555.484	752
555.958	759
556.433	761
556.908	773
557.383	770
557.858	785
558.333	785
558.807	782
559.282	798
559.757	819
560.232	813
560.708	806
561.183	805
561.658	818
562.133	815
562.608	811
563.083	836
563.559	818
564.034	817
564.509	822
564.985	826
565.46	821
565.936	833
566.411	833
566.887	828
567.362	830
567.838	834
568.313	844
568.789	832
569.265	829
569.74	841
570.216	829
570.692	851
571.168	845
571.644	849
572.12	849
572.596	860
573.071	862
573.547	893
574.024	900
574.5	911
574.976	909
575.452	921
575.928	938
576.404	944
576.881	977
577.357	959
577.833	965
578.31	988
578.786	996
579.262	1008
579.739	1006
580.215	1037
580.692	1037
581.169	1019
581.645	1030
582.122	1056
582.598	1062
583.075	1056
583.552	1069
584.029	1063
584.506	1059
584.982	1061
585.459	1075
585.936	1061
586.413	1073
586.89	1100
587.367	1092
587.844	1111
588.321	1102
588.799	1101
589.276	1100
589.753	1109
590.23	1126
590.707	1126
591.185	1124
591.662	1134
592.139	1150
592.617	1162
593.094	1158
593.572	1165
594.049	1175
594.527	1188
595.004	1199
595.482	1234
595.96	1225
596.437	1218
596.915	1243
597.393	1234
597.871	1265
598.349	1251
598.826	1278
599.304	1280
599.782	1312
600.26	1296
600.738	1328
601.216	1323
601.694	1333
602.173	1340
602.651	1345
603.129	1344
603.607	1354
604.085	1359
604.564	1365
605.042	1379
605.52	1364
605.999	1401
606.477	1359
606.956	1376
607.434	1396
607.913	1416
608.391	1405
608.87	1380
609.348	1372
609.827	1380
610.306	1400
610.785	1394
611.263	1397
611.742	1390
612.221	1365
612.7	1392
613.179	1399
613.658	1385
614.137	1415
614.616	1426
615.095	1411
615.574	1431
616.053	1431
616.532	1427
617.011	1429
617.491	1444
617.97	1442
618.449	1452
618.928	1471
619.408	1466
619.887	1477
620.367	1486
620.846	1505
621.326	1495
621.805	1526
622.285	1530
622.764	1545
623.244	1541
623.724	1549
624.203	1566
624.683	1537
625.163	1571
625.643	1561
626.123	1558
626.602	1596
627.082	1568
627.562	1566
628.042	1595
628.522	1585
629.002	1586
629.482	1591
629.963	1591
630.443	1577
630.923	1581
631.403	1598
631.883	1597
632.364	1601
632.844	1599
633.324	1602
633.805	1590
634.285	1571
634.766	1570
635.246	1579
635.727	1586
636.207	1583
636.688	1580
637.168	1576
637.649	1570
638.13	1567
638.611	1591
639.091	1583
639.572	1573
640.053	1567
640.534	1574
641.015	1585
641.496	1557
641.977	1593
642.458	1579
642.939	1584
643.42	1586
643.901	1588
644.382	1616
644.863	1616
645.345	1600
645.826	1607
646.307	1608
646.788	1639
647.27	1615
647.751	1615
648.233	1631
648.714	1591
649.196	1636
649.677	1626
650.159	1623
650.64	1617
651.122	1638
651.603	1616
652.085	1630
652.567	1646
653.049	1635
653.53	1642
654.012	1667
654.494	1643
654.976	1660
655.458	1657
655.94	1647
656.422	1676
656.904	1647
657.386	1627
657.868	1627
658.35	1618
658.833	1631
659.315	1644
659.797	1615
660.279	1608
660.762	1618
661.244	1602
661.726	1592
662.209	1603
662.691	1605
663.174	1567
663.656	1581
664.139	1583
664.621	1574
665.104	1569
665.587	1590
666.069	1602
666.552	1601
667.035	1575
667.517	1590
668	1605
668.483	1607
668.966	1591
669.449	1593
669.932	1590
670.415	1609
670.898	1599
671.381	1598
671.864	1611
672.347	1583
672.83	1590
673.313	1593
673.797	1586
674.28	1619
674.763	1624
675.247	1628
675.73	1616
676.213	1625
676.697	1634
677.18	1644
677.664	1643
678.147	1637
678.631	1659
679.114	1687
679.598	1682
680.082	1710
680.565	1693
681.049	1692
681.533	1690
682.017	1698
682.5	1693
682.984	1699
683.468	1694
683.952	1671
684.436	1723
684.92	1697
685.404	1714
685.888	1721
686.372	1708
686.856	1706
687.341	1725
687.825	1701
688.309	1704
688.793	1717
689.278	1694
689.762	1714
690.246	1704
690.731	1706
691.215	1711
691.7	1666
692.184	1697
692.669	1686
693.153	1689
693.638	1667
694.122	1672
694.607	1697
695.092	1666
695.577	1692
696.061	1665
696.546	1675
697.031	1661
697.516	1686
698.001	1681
698.486	1677
698.971	1700
699.456	1658
699.941	1660
700.426	1652
700.911	1675
701.396	1672
701.881	1682
702.366	1669
702.852	1672
703.337	1665
703.822	1665
704.308	1665
704.793	1673
705.278	1674
705.764	1680
706.249	1664
706.735	1666
707.22	1685
707.706	1661
708.191	1677
708.677	1684
709.163	1673
709.648	1679
710.134	1717
710.62	1700
711.106	1704
711.592	1724
712.077	1709
712.563	1662
713.049	1663
713.535	1700
714.021	1702
714.507	1694
714.993	1678
715.479	1684
715.966	1675
716.452	1679
716.938	1684
717.424	1631
717.91	1669
718.397	1654
718.883	1639
719.369	1650
719.856	1631
720.342	1654
720.829	1633
721.315	1635
721.802	1615
722.288	1638
722.775	1572
723.262	1530
723.748	1597
724.235	1589
724.722	1616
725.208	1574
725.695	1578
726.182	1569
726.669	1560
727.156	1587
727.643	1571
728.13	1561
728.617	1534
729.104	1545
729.591	1541
730.078	1550
730.565	1550
731.052	1531
731.539	1543
732.027	1527
732.514	1506
733.001	1519
733.488	1516
733.976	1516
734.463	1504
734.951	1501
735.438	1518
735.926	1501
736.413	1517
736.901	1501
737.388	1519
737.876	1517
738.364	1498
738.851	1511
739.339	1516
739.827	1530
740.314	1475
740.802	1486
741.29	1491
741.778	1474
742.266	1483
742.754	1485
743.242	1495
743.73	1471
744.218	1471
744.706	1462
745.194	1481
745.682	1477
746.17	1478
746.659	1478
747.147	1451
747.635	1449
748.123	1441
748.612	1423
749.1	1409
749.589	1417
750.077	1418
750.566	1411
751.054	1428
751.543	1433
752.031	1399
752.52	1397
753.008	1363
753.497	1370
753.986	1374
754.474	1373
754.963	1383
755.452	1353
755.941	1342
756.43	1344
756.919	1340
757.408	1327
757.896	1336
758.385	1345
758.875	1333
759.364	1316
759.853	1303
760.342	1280
760.831	1308
761.32	1302
761.809	1277
762.299	1280
762.788	1292
763.277	1297
763.767	1284
764.256	1279
764.745	1263
765.235	1290
765.724	1248
766.214	1283
766.703	1262
767.193	1234
767.683	1239
768.172	1211
768.662	1225
769.152	1216
769.641	1223
770.131	1190
770.621	1209
771.111	1190
771.601	1189
772.09	1177
772.58	1156
773.07	1166
773.56	1166
774.05	1149
774.54	1142
775.031	1131
775.521	1124
776.011	1128
776.501	1136
776.991	1110
777.482	1122
777.972	1093
778.462	1096
778.953	1098
779.443	1100
779.933	1093
780.424	1094
780.914	1103
781.405	1112
781.895	1103
782.386	1100
782.877	1097
783.367	1079
783.858	1071
784.349	1073
784.839	1054
785.33	1063
785.821	1068
786.312	1062
786.803	1063
787.293	1065
787.784	1054
788.275	1037
788.766	1037
789.257	1048
789.748	1026
790.24	1021
790.731	1015
791.222	1000
791.713	995
792.204	1001
792.696	968
793.187	981
793.678	972
794.169	944
794.661	957
795.152	938
795.644	931
796.135	932
796.627	932
797.118	923
797.61	906
798.101	900
798.593	907
799.085	892
799.576	904
800.068	895
800.56	899
801.052	875
801.544	877
802.035	874
802.527	865
803.019	858
803.511	846
804.003	845
804.495	856
804.987	853
805.479	832
805.971	836
806.464	839
806.956	812
807.448	812
807.94	811
808.433	815
808.925	803
809.417	802
809.91	795
810.402	786
810.894	786
811.387	798
811.879	781
812.372	793
812.865	784
813.357	776
813.85	770
814.342	758
814.835	762
815.328	761
815.821	749
816.313	747
816.806	754
817.299	744
817.792	746
818.285	725
818.778	746
819.271	740
819.764	727
820.257	737
820.75	732
821.243	732
821.736	726
822.229	732
822.722	724
823.216	739
