Data from lamp2bck_noballon_Subt4__51__454.txt Node

Date: Fri Apr 04 11:14:16 CEST 2025
User: fys-lab-0081
Spectrometer: S04999
Trigger mode: 0
Resolution mode: 1024 pixels
Integration Time (sec): 1.000000E-1
Scans to average: 1
Nonlinearity correction enabled: false
Boxcar width: 0
Baseline correction enabled: true
XAxis mode: Wavelengths
Number of Pixels in Spectrum: 1024
>>>>>Begin Spectral Data<<<<<
336.42	0
336.877	-1
337.334	1
337.792	3
338.249	-1
338.706	7
339.164	5
339.621	0
340.079	4
340.536	0
340.994	-2
341.452	6
341.909	1
342.367	-1
342.825	5
343.283	-1
343.741	5
344.198	-3
344.656	-3
345.114	1
345.572	-1
346.03	0
346.488	-6
346.947	0
347.405	3
347.863	2
348.321	-1
348.779	0
349.238	3
349.696	3
350.154	-5
350.613	1
351.071	1
351.53	0
351.988	4
352.447	1
352.905	1
353.364	-3
353.823	7
354.282	-1
354.74	-1
355.199	2
355.658	3
356.117	2
356.576	-5
357.035	6
357.494	-1
357.953	-3
358.412	2
358.871	3
359.33	0
359.789	-4
360.249	1
360.708	8
361.167	4
361.626	5
362.086	-1
362.545	1
363.005	-1
363.464	4
363.924	0
364.383	3
364.843	0
365.303	-5
365.762	0
366.222	4
366.682	-1
367.142	-1
367.601	3
368.061	5
368.521	7
368.981	1
369.441	2
369.901	-3
370.361	6
370.821	9
371.282	1
371.742	-4
372.202	1
372.662	5
373.123	3
373.583	3
374.043	-2
374.504	1
374.964	0
375.425	-1
375.885	2
376.346	2
376.806	0
377.267	7
377.728	-2
378.188	0
378.649	5
379.11	5
379.571	-1
380.032	-4
380.493	3
380.954	5
381.414	5
381.876	3
382.337	4
382.798	0
383.259	8
383.72	-2
384.181	3
384.642	0
385.104	5
385.565	3
386.026	4
386.488	2
386.949	1
387.411	8
387.872	4
388.334	5
388.795	-2
389.257	3
389.719	6
390.181	3
390.642	4
391.104	7
391.566	1
392.028	3
392.49	3
392.952	0
393.414	-2
393.876	5
394.338	5
394.8	1
395.262	3
395.724	6
396.186	3
396.648	4
397.111	0
397.573	2
398.035	2
398.498	6
398.96	7
399.423	1
399.885	2
400.348	6
400.81	3
401.273	6
401.736	1
402.198	2
402.661	4
403.124	6
403.587	6
404.049	5
404.512	4
404.975	6
405.438	12
405.901	4
406.364	3
406.827	10
407.29	2
407.754	11
408.217	-1
408.68	2
409.143	5
409.607	4
410.07	2
410.533	7
410.997	7
411.46	7
411.924	3
412.387	3
412.851	3
413.314	6
413.778	3
414.242	5
414.705	7
415.169	6
415.633	5
416.097	8
416.561	12
417.024	6
417.488	6
417.952	9
418.416	7
418.88	10
419.344	4
419.809	6
420.273	9
420.737	6
421.201	8
421.665	6
422.13	6
422.594	8
423.059	9
423.523	4
423.987	9
424.452	7
424.916	6
425.381	8
425.846	10
426.31	6
426.775	3
427.24	11
427.704	5
428.169	9
428.634	10
429.099	5
429.564	9
430.029	7
430.494	9
430.959	11
431.424	9
431.889	12
432.354	6
432.819	7
433.284	12
433.75	14
434.215	13
434.68	9
435.146	10
435.611	16
436.077	16
436.542	12
437.008	13
437.473	9
437.939	10
438.404	14
438.87	11
439.336	14
439.801	12
440.267	12
440.733	14
441.199	13
441.665	10
442.131	16
442.596	10
443.062	15
443.529	17
443.995	12
444.461	18
444.927	16
445.393	15
445.859	16
446.325	16
446.792	20
447.258	20
447.724	22
448.191	20
448.657	22
449.124	16
449.59	20
450.057	17
450.523	21
450.99	17
451.457	22
451.923	27
452.39	19
452.857	21
453.324	24
453.791	22
454.257	28
454.724	24
455.191	20
455.658	18
456.125	26
456.592	25
457.059	22
457.527	18
457.994	18
458.461	24
458.928	25
459.396	24
459.863	25
460.33	22
460.798	23
461.265	26
461.732	22
462.2	28
462.668	26
463.135	23
463.603	23
464.07	29
464.538	32
465.006	30
465.474	22
465.941	25
466.409	29
466.877	23
467.345	24
467.813	27
468.281	25
468.749	24
469.217	29
469.685	30
470.153	26
470.621	31
471.09	26
471.558	28
472.026	28
472.494	30
472.963	30
473.431	34
473.9	36
474.368	31
474.837	37
475.305	33
475.774	36
476.242	37
476.711	37
477.18	36
477.648	35
478.117	39
478.586	39
479.055	38
479.524	37
479.993	41
480.462	39
480.93	44
481.399	33
481.869	40
482.338	40
482.807	40
483.276	38
483.745	41
484.214	40
484.684	39
485.153	40
485.622	38
486.092	39
486.561	39
487.031	44
487.5	45
487.97	48
488.439	44
488.909	44
489.378	51
489.848	50
490.318	47
490.787	51
491.257	58
491.727	51
492.197	57
492.667	60
493.137	58
493.607	59
494.077	51
494.547	53
495.017	52
495.487	61
495.957	61
496.427	59
496.897	59
497.368	58
497.838	55
498.308	55
498.779	59
499.249	64
499.719	58
500.19	54
500.66	63
501.131	63
501.602	65
502.072	62
502.543	53
503.014	63
503.484	67
503.955	70
504.426	72
504.897	64
505.368	71
505.838	71
506.309	77
506.78	81
507.251	70
507.722	81
508.194	86
508.665	79
509.136	80
509.607	84
510.078	82
510.549	93
511.021	88
511.492	86
511.964	89
512.435	91
512.906	93
513.378	96
513.849	94
514.321	98
514.793	90
515.264	93
515.736	98
516.208	99
516.679	97
517.151	105
517.623	106
518.095	108
518.567	107
519.038	105
519.51	107
519.982	112
520.454	111
520.927	114
521.399	114
521.871	112
522.343	114
522.815	119
523.287	117
523.76	121
524.232	121
524.704	125
525.177	125
525.649	119
526.122	122
526.594	120
527.067	123
527.539	123
528.012	126
528.484	123
528.957	126
529.43	127
529.903	122
530.375	128
530.848	122
531.321	131
531.794	129
532.267	130
532.74	128
533.213	131
533.686	132
534.159	133
534.632	135
535.105	139
535.578	135
536.051	138
536.525	138
536.998	139
537.471	140
537.945	139
538.418	141
538.891	143
539.365	148
539.838	147
540.312	148
540.786	148
541.259	150
541.733	155
542.206	152
542.68	150
543.154	148
543.628	145
544.101	157
544.575	153
545.049	147
545.523	154
545.997	155
546.471	154
546.945	152
547.419	157
547.893	153
548.367	154
548.842	155
549.316	150
549.79	154
550.264	155
550.739	154
551.213	156
551.687	156
552.162	156
552.636	154
553.111	162
553.585	158
554.06	159
554.534	161
555.009	165
555.484	160
555.958	164
556.433	165
556.908	176
557.383	166
557.858	171
558.333	176
558.807	173
559.282	166
559.757	174
560.232	179
560.708	176
561.183	180
561.658	178
562.133	178
562.608	174
563.083	188
563.559	178
564.034	183
564.509	180
564.985	178
565.46	174
565.936	177
566.411	184
566.887	179
567.362	186
567.838	182
568.313	184
568.789	182
569.265	188
569.74	183
570.216	181
570.692	186
571.168	184
571.644	195
572.12	191
572.596	192
573.071	186
573.547	193
574.024	195
574.5	203
574.976	193
575.452	199
575.928	200
576.404	199
576.881	208
577.357	204
577.833	207
578.31	217
578.786	217
579.262	226
579.739	215
580.215	228
580.692	227
581.169	227
581.645	226
582.122	231
582.598	234
583.075	235
583.552	236
584.029	238
584.506	235
584.982	235
585.459	240
585.936	234
586.413	238
586.89	244
587.367	239
587.844	246
588.321	244
588.799	243
589.276	241
589.753	249
590.23	248
590.707	243
591.185	248
591.662	247
592.139	249
592.617	253
593.094	250
593.572	258
594.049	258
594.527	270
595.004	261
595.482	271
595.96	268
596.437	265
596.915	280
597.393	269
597.871	275
598.349	276
598.826	286
599.304	290
599.782	290
600.26	285
600.738	292
601.216	289
601.694	292
602.173	294
602.651	300
603.129	292
603.607	292
604.085	305
604.564	298
605.042	300
605.52	303
605.999	306
606.477	305
606.956	301
607.434	301.5
607.913	302
608.391	302
608.87	306
609.348	305
609.827	309
610.306	312
610.785	312
611.263	310
611.742	306
612.221	303
612.7	304
613.179	298
613.658	301
614.137	317
614.616	314
615.095	308
615.574	314
616.053	315
616.532	317
617.011	315
617.491	314
617.97	314
618.449	314
618.928	321
619.408	326
619.887	326
620.367	331
620.846	327
621.326	331
621.805	338
622.285	338
622.764	342
623.244	342
623.724	349
624.203	354
624.683	341
625.163	347
625.643	349
626.123	343
626.602	355
627.082	350
627.562	352
628.042	356
628.522	353
629.002	359
629.482	360
629.963	354
630.443	347
630.923	349
631.403	351
631.883	351
632.364	356
632.844	353
633.324	356
633.805	356
634.285	354
634.766	354
635.246	352
635.727	351
636.207	356
636.688	357
637.168	356
637.649	353
638.13	359
638.611	360
639.091	360
639.572	357
640.053	362
640.534	369
641.015	366
641.496	357
641.977	361
642.458	356
642.939	353
643.42	353
643.901	363
644.382	359
644.863	361
645.345	364
645.826	363
646.307	363
646.788	368
647.27	365
647.751	372
648.233	377
648.714	367
649.196	380
649.677	379
650.159	380
650.64	377
651.122	383
651.603	379
652.085	372
652.567	377
653.049	370
653.53	377
654.012	381
654.494	364
654.976	372
655.458	364
655.94	368
656.422	376
656.904	372
657.386	367
657.868	373
658.35	377
658.833	389
659.315	378
659.797	371
660.279	378
660.762	380
661.244	378
661.726	377
662.209	371
662.691	370
663.174	369
663.656	372
664.139	374
664.621	375
665.104	378
665.587	382
666.069	369
666.552	370
667.035	367
667.517	369
668	372
668.483	374
668.966	368
669.449	358
669.932	373
670.415	381
670.898	378
671.381	378
671.864	373
672.347	374
672.83	371
673.313	378
673.797	376
674.28	380
674.763	378
675.247	374
675.73	379
676.213	382
676.697	393
677.18	382
677.664	389
678.147	394
678.631	393
679.114	397
679.598	399
680.082	411
680.565	411
681.049	410
681.533	406
682.017	405
682.5	410
682.984	411
683.468	408
683.952	400
684.436	407
684.92	403
685.404	408
685.888	409
686.372	404
686.856	411
687.341	416
687.825	412
688.309	411
688.793	410
689.278	409
689.762	420
690.246	426
690.731	416
691.215	413
691.7	399
692.184	401
692.669	406
693.153	409
693.638	401
694.122	402
694.607	404
695.092	399
695.577	402
696.061	398
696.546	398
697.031	402
697.516	411
698.001	412
698.486	404
698.971	408
699.456	406
699.941	408
700.426	410
700.911	413
701.396	407
701.881	407
702.366	403
702.852	406
703.337	404
703.822	406
704.308	397
704.793	394
705.278	396
705.764	401
706.249	400
706.735	402
707.22	405
707.706	398
708.191	410
708.677	409
709.163	407
709.648	414
710.134	415
710.62	410
711.106	406
711.592	404
712.077	408
712.563	397
713.049	403
713.535	415
714.021	414
714.507	407
714.993	410
715.479	411
715.966	406
716.452	406
716.938	404
717.424	396
717.91	406
718.397	396
718.883	401
719.369	398
719.856	408
720.342	411
720.829	397
721.315	400
721.802	398
722.288	404
722.775	384
723.262	378
723.748	396
724.235	396
724.722	394
725.208	384
725.695	388
726.182	393
726.669	386
727.156	384
727.643	389
728.13	383
728.617	384
729.104	383
729.591	378
730.078	379
730.565	381
731.052	383
731.539	385
732.027	380
732.514	370
733.001	375
733.488	385
733.976	375
734.463	381
734.951	387
735.438	384
735.926	380
736.413	378
736.901	374
737.388	372
737.876	373
738.364	371
738.851	361
739.339	368
739.827	372
740.314	362
740.802	359
741.29	365
741.778	362
742.266	367
742.754	368
743.242	376
743.73	369
744.218	372
744.706	359
745.194	362
745.682	359
746.17	372
746.659	375
747.147	371
747.635	371
748.123	371
748.612	368
749.1	362
749.589	369
750.077	365
750.566	350
751.054	359
751.543	358
752.031	357
752.52	355
753.008	348
753.497	338
753.986	343
754.474	344
754.963	347
755.452	342
755.941	336
756.43	336
756.919	330
757.408	329
757.896	327
758.385	335
758.875	331
759.364	328
759.853	328
760.342	323
760.831	335
761.32	338
761.809	333
762.299	329
762.788	334
763.277	332
763.767	326
764.256	317
764.745	313
765.235	323
765.724	313
766.214	321
766.703	313
767.193	313
767.683	320
768.172	311
768.662	310
769.152	307
769.641	310
770.131	305
770.621	304
771.111	296
771.601	300
772.09	304
772.58	298
773.07	297
773.56	306
774.05	291
774.54	293
775.031	283
775.521	285
776.011	292
776.501	294
776.991	293
777.482	294
777.972	285
778.462	281
778.953	293
779.443	290
779.933	291
780.424	283
780.914	282
781.405	281
781.895	283
782.386	281
782.877	273
783.367	267
783.858	278
784.349	273
784.839	266
785.33	268
785.821	271
786.312	275
786.803	264
787.293	268
787.784	263
788.275	258
788.766	256
789.257	261
789.748	247
790.24	248
790.731	252
791.222	249
791.713	244
792.204	254
792.696	251
793.187	261
793.678	256
794.169	254
794.661	250
795.152	250
795.644	243
796.135	247
796.627	246
797.118	234
797.61	241
798.101	236
798.593	243
799.085	243
799.576	235
800.068	232
800.56	230
801.052	232
801.544	228
802.035	232
802.527	225
803.019	225
803.511	230
804.003	224
804.495	222
804.987	220
805.479	214
805.971	216
806.464	225
806.956	214
807.448	213
807.94	210
808.433	214
808.925	221
809.417	217
809.91	213
810.402	213
810.894	220
811.387	216
811.879	212
812.372	204
812.865	209
813.357	202
813.85	209
814.342	200
814.835	206
815.328	201
815.821	196
816.313	192
816.806	200
817.299	203
817.792	200
818.285	198
818.778	204
819.271	203
819.764	195
820.257	195
820.75	198
821.243	190
821.736	189
822.229	196
822.722	191
823.216	202
