Data from lamp2bck_noballon_Subt4__58__461.txt Node

Date: Fri Apr 04 11:14:17 CEST 2025
User: fys-lab-0081
Spectrometer: S04999
Trigger mode: 0
Resolution mode: 1024 pixels
Integration Time (sec): 1.000000E-1
Scans to average: 1
Nonlinearity correction enabled: false
Boxcar width: 0
Baseline correction enabled: true
XAxis mode: Wavelengths
Number of Pixels in Spectrum: 1024
>>>>>Begin Spectral Data<<<<<
336.42	-2
336.877	-2
337.334	4
337.792	4
338.249	-2
338.706	5
339.164	2
339.621	-1
340.079	2
340.536	-3
340.994	-1
341.452	1
341.909	1
342.367	1
342.825	3
343.283	0
343.741	3
344.198	0
344.656	0
345.114	5
345.572	-4
346.03	1
346.488	-1
346.947	2
347.405	3
347.863	3
348.321	0
348.779	-1
349.238	-2
349.696	4
350.154	-2
350.613	1
351.071	5
351.53	-3
351.988	2
352.447	-4
352.905	-3
353.364	-3
353.823	6
354.282	-1
354.74	-1
355.199	3
355.658	-5
356.117	0
356.576	1
357.035	1
357.494	-1
357.953	-3
358.412	1
358.871	3
359.33	5
359.789	-3
360.249	1
360.708	6
361.167	-1
361.626	2
362.086	-1
362.545	-1
363.005	-2
363.464	5
363.924	-3
364.383	3
364.843	-1
365.303	-2
365.762	2
366.222	2
366.682	-3
367.142	-2
367.601	4
368.061	3
368.521	5
368.981	4
369.441	3
369.901	-1
370.361	6
370.821	5
371.282	2
371.742	2
372.202	3
372.662	3
373.123	-1
373.583	3
374.043	3
374.504	0
374.964	6
375.425	1
375.885	4
376.346	5
376.806	-1
377.267	1
377.728	-3
378.188	2
378.649	3
379.11	-1
379.571	-2
380.032	4
380.493	0
380.954	4
381.414	2
381.876	6
382.337	6
382.798	-1
383.259	5
383.72	0
384.181	6
384.642	1
385.104	6
385.565	3
386.026	1
386.488	3
386.949	2
387.411	8
387.872	3
388.334	1
388.795	5
389.257	2
389.719	4
390.181	7
390.642	4
391.104	9
391.566	4
392.028	5
392.49	1
392.952	4
393.414	1
393.876	4
394.338	7
394.8	3
395.262	5
395.724	7
396.186	4
396.648	6
397.111	1
397.573	0
398.035	2
398.498	3
398.96	7
399.423	3
399.885	4
400.348	0
400.81	4
401.273	3
401.736	-1
402.198	1
402.661	3
403.124	11
403.587	7
404.049	5
404.512	3
404.975	9
405.438	6
405.901	5
406.364	-3
406.827	16
407.29	5
407.754	5
408.217	1
408.68	5
409.143	9
409.607	3
410.07	6
410.533	6
410.997	6
411.46	10
411.924	2
412.387	3
412.851	2
413.314	7
413.778	4
414.242	6
414.705	5
415.169	4
415.633	5
416.097	10
416.561	6
417.024	6
417.488	7
417.952	8
418.416	2
418.88	12
419.344	5
419.809	7
420.273	9
420.737	5
421.201	5
421.665	2
422.13	9
422.594	10
423.059	7
423.523	2
423.987	9
424.452	6
424.916	6
425.381	7
425.846	15
426.31	8
426.775	1
427.24	6
427.704	7
428.169	9
428.634	10
429.099	9
429.564	9
430.029	9
430.494	9
430.959	7
431.424	8
431.889	12
432.354	7
432.819	12
433.284	13
433.75	12
434.215	9
434.68	10
435.146	8
435.611	13
436.077	12
436.542	15
437.008	12
437.473	12
437.939	8
438.404	12
438.87	16
439.336	10
439.801	17
440.267	14
440.733	13
441.199	16
441.665	15
442.131	14
442.596	11
443.062	14
443.529	12
443.995	13
444.461	18
444.927	16
445.393	14
445.859	17
446.325	16
446.792	24
447.258	20
447.724	18
448.191	21
448.657	17
449.124	19
449.59	13
450.057	15
450.523	18
450.99	21
451.457	25
451.923	24
452.39	21
452.857	20
453.324	26
453.791	20
454.257	20
454.724	24
455.191	14
455.658	20
456.125	25
456.592	22
457.059	23
457.527	20
457.994	22
458.461	21
458.928	23
459.396	25
459.863	28
460.33	26
460.798	25
461.265	27
461.732	20
462.2	23
462.668	29
463.135	22
463.603	20
464.07	28
464.538	30
465.006	33
465.474	21
465.941	25
466.409	30
466.877	27
467.345	25
467.813	25
468.281	25
468.749	26
469.217	27
469.685	26
470.153	23
470.621	27
471.09	30
471.558	27
472.026	25
472.494	29
472.963	31
473.431	34
473.9	31
474.368	32
474.837	35
475.305	39
475.774	37
476.242	40
476.711	36
477.18	37
477.648	36
478.117	40
478.586	38
479.055	39
479.524	37
479.993	38
480.462	38
480.93	43
481.399	36
481.869	40
482.338	38
482.807	39
483.276	39
483.745	45
484.214	41
484.684	38
485.153	40
485.622	44
486.092	40
486.561	35
487.031	44
487.5	44
487.97	46
488.439	40
488.909	46
489.378	50
489.848	50
490.318	44
490.787	47
491.257	53
491.727	50
492.197	58
492.667	52
493.137	58
493.607	57
494.077	52
494.547	57
495.017	50
495.487	56
495.957	63
496.427	56
496.897	57
497.368	58
497.838	54
498.308	56
498.779	62
499.249	60
499.719	55
500.19	55
500.66	63
501.131	66
501.602	62
502.072	61
502.543	53
503.014	58
503.484	65
503.955	66
504.426	66
504.897	60
505.368	68
505.838	71
506.309	72
506.78	77
507.251	73
507.722	81
508.194	80
508.665	75
509.136	81
509.607	88
510.078	82
510.549	93
511.021	88
511.492	89
511.964	92
512.435	90
512.906	91
513.378	88
513.849	95
514.321	99
514.793	89
515.264	91
515.736	96
516.208	102
516.679	98
517.151	105
517.623	101
518.095	103
518.567	105
519.038	108
519.51	102
519.982	108
520.454	112
520.927	112
521.399	114
521.871	113
522.343	113
522.815	116
523.287	113
523.76	115
524.232	118
524.704	123
525.177	120
525.649	116
526.122	116
526.594	119
527.067	123
527.539	122
528.012	121
528.484	129
528.957	122
529.43	123
529.903	122
530.375	123
530.848	126
531.321	128
531.794	122
532.267	128
532.74	127
533.213	128
533.686	134
534.159	133
534.632	134
535.105	135
535.578	132
536.051	138
536.525	134
536.998	139
537.471	144
537.945	138
538.418	140
538.891	139
539.365	142
539.838	144
540.312	152
540.786	147
541.259	151
541.733	154
542.206	152
542.68	148
543.154	144
543.628	146
544.101	158
544.575	149
545.049	148
545.523	156
545.997	152
546.471	151
546.945	153
547.419	153
547.893	147
548.367	152
548.842	150
549.316	152
549.79	151
550.264	153
550.739	154
551.213	153
551.687	156
552.162	155
552.636	152
553.111	159
553.585	157
554.06	155
554.534	162
555.009	160
555.484	164
555.958	162
556.433	162
556.908	174
557.383	161
557.858	170
558.333	170
558.807	168
559.282	167
559.757	175
560.232	175
560.708	171
561.183	174
561.658	177
562.133	180
562.608	173
563.083	182
563.559	175
564.034	182
564.509	176
564.985	175
565.46	173
565.936	178
566.411	183
566.887	180
567.362	181
567.838	182
568.313	184
568.789	174
569.265	184
569.74	179
570.216	181
570.692	184
571.168	183
571.644	192
572.12	187
572.596	186
573.071	187
573.547	189
574.024	190
574.5	196
574.976	193
575.452	200
575.928	203
576.404	196
576.881	208
577.357	199
577.833	205
578.31	211
578.786	212
579.262	220
579.739	212
580.215	219
580.692	223
581.169	225
581.645	223
582.122	226
582.598	230
583.075	231
583.552	231
584.029	232
584.506	232
584.982	235
585.459	233
585.936	231
586.413	235
586.89	239
587.367	234
587.844	245
588.321	238
588.799	236
589.276	239
589.753	246
590.23	248
590.707	244
591.185	243
591.662	244
592.139	244
592.617	245
593.094	247
593.572	253
594.049	257
594.527	262
595.004	257
595.482	270
595.96	264
596.437	259
596.915	272
597.393	267
597.871	272
598.349	273
598.826	283
599.304	288
599.782	285
600.26	286
600.738	290
601.216	288
601.694	290
602.173	291
602.651	291
603.129	285
603.607	284
604.085	297
604.564	294
605.042	297
605.52	293
605.999	294
606.477	302
606.956	301
607.434	300
607.913	299
608.391	298
608.87	306
609.348	301
609.827	301
610.306	306
610.785	307
611.263	307
611.742	307
612.221	298
612.7	299
613.179	299
613.658	298
614.137	310
614.616	312
615.095	306
615.574	312
616.053	313
616.532	318
617.011	320
617.491	311
617.97	307
618.449	308
618.928	315
619.408	323
619.887	324
620.367	334
620.846	325
621.326	328
621.805	327
622.285	333
622.764	335
623.244	344
623.724	344
624.203	347
624.683	336
625.163	342
625.643	348
626.123	344
626.602	350
627.082	344
627.562	342
628.042	352
628.522	347
629.002	351
629.482	353
629.963	347
630.443	343
630.923	346
631.403	351
631.883	344
632.364	350
632.844	353
633.324	351
633.805	356
634.285	345
634.766	351
635.246	352
635.727	353
636.207	350
636.688	355
637.168	354
637.649	353
638.13	356
638.611	354
639.091	354
639.572	356
640.053	359
640.534	364
641.015	364
641.496	354
641.977	360
642.458	352
642.939	346
643.42	353
643.901	356
644.382	356
644.863	357
645.345	361
645.826	357
646.307	355
646.788	368
647.27	360
647.751	372
648.233	371
648.714	368
649.196	372
649.677	374
650.159	375
650.64	372
651.122	382
651.603	372
652.085	370
652.567	373
653.049	370
653.53	371
654.012	383
654.494	361
654.976	358
655.458	360
655.94	363
656.422	373
656.904	364
657.386	358
657.868	369
658.35	367
658.833	381
659.315	371
659.797	371
660.279	374
660.762	377
661.244	373
661.726	364
662.209	367
662.691	369
663.174	365
663.656	372
664.139	369
664.621	370
665.104	370
665.587	376
666.069	370
666.552	363
667.035	362
667.517	361
668	367
668.483	371
668.966	367
669.449	358
669.932	367
670.415	375
670.898	372
671.381	372
671.864	376
672.347	374
672.83	368
673.313	377
673.797	369
674.28	374
674.763	371
675.247	372
675.73	375
676.213	375
676.697	387
677.18	379
677.664	382
678.147	386
678.631	385
679.114	391
679.598	397
680.082	404
680.565	409
681.049	402
681.533	399
682.017	404
682.5	407
682.984	409
683.468	399
683.952	399
684.436	402
684.92	404
685.404	404
685.888	403
686.372	403
686.856	402
687.341	405
687.825	405
688.309	407
688.793	405
689.278	409
689.762	411
690.246	416
690.731	413
691.215	414
691.7	393
692.184	396
692.669	402
693.153	403
693.638	396
694.122	398
694.607	389
695.092	393
695.577	393
696.061	396
696.546	396
697.031	394
697.516	405
698.001	408
698.486	398
698.971	404
699.456	405
699.941	399
700.426	409
700.911	409
701.396	401
701.881	403
702.366	396
702.852	402
703.337	403
703.822	402
704.308	394
704.793	392
705.278	397
705.764	400
706.249	394
706.735	403
707.22	409
707.706	393
708.191	404
708.677	406
709.163	406
709.648	408
710.134	409
710.62	404
711.106	404
711.592	402
712.077	408
712.563	399
713.049	393
713.535	407
714.021	411
714.507	409
714.993	400
715.479	406
715.966	403
716.452	402
716.938	399
717.424	393
717.91	395
718.397	392
718.883	398
719.369	399
719.856	404
720.342	413
720.829	397
721.315	396
721.802	391
722.288	396
722.775	383
723.262	379
723.748	391
724.235	390
724.722	392
725.208	382
725.695	390
726.182	381
726.669	379
727.156	384
727.643	384
728.13	386
728.617	385
729.104	374
729.591	374
730.078	380
730.565	380
731.052	378
731.539	379
732.027	382
732.514	370
733.001	372
733.488	376
733.976	377
734.463	379
734.951	383
735.438	378
735.926	376
736.413	380
736.901	369
737.388	371
737.876	369
738.364	366
738.851	362
739.339	362
739.827	366
740.314	355
740.802	357
741.29	369
741.778	361
742.266	366
742.754	366
743.242	370
743.73	368
744.218	364
744.706	355
745.194	358
745.682	359
746.17	367
746.659	374
747.147	365
747.635	368
748.123	370
748.612	361
749.1	361
749.589	359
750.077	358
750.566	353
751.054	355
751.543	355
752.031	350
752.52	351
753.008	342
753.497	334
753.986	337
754.474	340
754.963	342
755.452	340
755.941	335
756.43	328
756.919	332
757.408	322
757.896	325
758.385	330
758.875	325
759.364	326
759.853	325
760.342	322
760.831	329
761.32	331
761.809	331
762.299	328
762.788	330
763.277	330
763.767	323
764.256	314
764.745	311
765.235	319
765.724	313
766.214	325
766.703	316
767.193	311
767.683	311
768.172	306
768.662	307
769.152	309
769.641	313
770.131	305
770.621	298
771.111	295
771.601	298
772.09	301
772.58	296
773.07	292
773.56	297
774.05	292
774.54	285
775.031	286
775.521	287
776.011	283
776.501	287
776.991	287
777.482	292
777.972	282
778.462	280
778.953	289
779.443	279
779.933	289
780.424	281
780.914	278
781.405	280
781.895	273
782.386	272
782.877	274
783.367	271
783.858	276
784.349	271
784.839	261
785.33	271
785.821	266
786.312	268
786.803	266
787.293	264
787.784	255
788.275	254
788.766	247
789.257	261
789.748	245
790.24	247
790.731	250
791.222	247
791.713	248
792.204	246
792.696	248
793.187	254
793.678	254
794.169	249
794.661	250
795.152	244
795.644	238
796.135	248
796.627	243
797.118	233
797.61	237
798.101	234
798.593	240
799.085	238
799.576	238
800.068	231
800.56	234
801.052	230
801.544	227
802.035	230
802.527	220
803.019	227
803.511	226
804.003	223
804.495	223
804.987	214
805.479	217
805.971	218
806.464	216
806.956	214
807.448	213
807.94	213
808.433	219
808.925	209
809.417	217
809.91	213
810.402	214
810.894	213
811.387	212
811.879	211
812.372	205
812.865	210
813.357	201
813.85	207
814.342	205
814.835	205
815.328	204
815.821	194
816.313	191
816.806	197
817.299	202
817.792	201
818.285	196
818.778	202
819.271	204
819.764	195
820.257	195
820.75	197
821.243	190
821.736	190
822.229	192
822.722	190
823.216	197
