Data from lamp2bck_noballon_Subt4__49__452.txt Node

Date: Fri Apr 04 11:14:16 CEST 2025
User: fys-lab-0081
Spectrometer: S04999
Trigger mode: 0
Resolution mode: 1024 pixels
Integration Time (sec): 1.000000E-1
Scans to average: 1
Nonlinearity correction enabled: false
Boxcar width: 0
Baseline correction enabled: true
XAxis mode: Wavelengths
Number of Pixels in Spectrum: 1024
>>>>>Begin Spectral Data<<<<<
336.42	-2
336.877	-8
337.334	5
337.792	4
338.249	2
338.706	6
339.164	2
339.621	1
340.079	4
340.536	-1
340.994	-1
341.452	2
341.909	-2
342.367	4
342.825	4
343.283	-1
343.741	1
344.198	-1
344.656	0
345.114	-1
345.572	-5
346.03	-2
346.488	0
346.947	1
347.405	6
347.863	2
348.321	-1
348.779	-2
349.238	-1
349.696	-1
350.154	-4
350.613	1
351.071	3
351.53	-1
351.988	0
352.447	0
352.905	-3
353.364	0
353.823	1
354.282	-1
354.74	-3
355.199	0
355.658	1
356.117	-1
356.576	-3
357.035	2
357.494	0
357.953	-3
358.412	-1
358.871	0
359.33	2
359.789	2
360.249	-2
360.708	7
361.167	-4
361.626	5
362.086	0
362.545	-3
363.005	-2
363.464	5
363.924	-2
364.383	1
364.843	1
365.303	-3
365.762	3
366.222	2
366.682	-5
367.142	-1
367.601	2
368.061	5
368.521	7
368.981	2
369.441	3
369.901	-1
370.361	5
370.821	3
371.282	0
371.742	-1
372.202	0
372.662	3
373.123	-3
373.583	1
374.043	3
374.504	-1
374.964	-2
375.425	-1
375.885	9
376.346	3
376.806	-1
377.267	2
377.728	-1
378.188	1
378.649	3
379.11	-3
379.571	-2
380.032	5
380.493	-1
380.954	7
381.414	1
381.876	4
382.337	7
382.798	-4
383.259	6
383.72	-1
384.181	7
384.642	4
385.104	4
385.565	4
386.026	-5
386.488	3
386.949	3
387.411	9
387.872	4
388.334	1
388.795	4
389.257	3
389.719	3
390.181	0
390.642	5
391.104	5
391.566	4
392.028	0
392.49	1
392.952	0
393.414	2
393.876	5
394.338	7
394.8	-1
395.262	0
395.724	5
396.186	4
396.648	4
397.111	-1
397.573	3
398.035	1
398.498	6
398.96	2
399.423	4
399.885	-1
400.348	2
400.81	3
401.273	2
401.736	-5
402.198	3
402.661	7
403.124	6
403.587	8
404.049	5.5
404.512	3
404.975	7
405.438	8
405.901	3
406.364	-1
406.827	6
407.29	6
407.754	7
408.217	4
408.68	8
409.143	2
409.607	2
410.07	0
410.533	7
410.997	4
411.46	9
411.924	5
412.387	4
412.851	5
413.314	10
413.778	5
414.242	7
414.705	10
415.169	6
415.633	11
416.097	12
416.561	7
417.024	4
417.488	11
417.952	14
418.416	9
418.88	10
419.344	1
419.809	9
420.273	8
420.737	2
421.201	3
421.665	3
422.13	8
422.594	7
423.059	5
423.523	4
423.987	7
424.452	12
424.916	6
425.381	1
425.846	9
426.31	4
426.775	3
427.24	7
427.704	7
428.169	12
428.634	8
429.099	4
429.564	9
430.029	7
430.494	12
430.959	10
431.424	10
431.889	14
432.354	9
432.819	10
433.284	14
433.75	10
434.215	13
434.68	11
435.146	12
435.611	13
436.077	11
436.542	16
437.008	16
437.473	11
437.939	9
438.404	12
438.87	10
439.336	12
439.801	14
440.267	12
440.733	12
441.199	14
441.665	10
442.131	8
442.596	11
443.062	13
443.529	13
443.995	13
444.461	17
444.927	19
445.393	17
445.859	17
446.325	18
446.792	22
447.258	20
447.724	17
448.191	19
448.657	17
449.124	18
449.59	16
450.057	20
450.523	19
450.99	17
451.457	20
451.923	20
452.39	22
452.857	16
453.324	22
453.791	20
454.257	25
454.724	27
455.191	17
455.658	19
456.125	24
456.592	23
457.059	22
457.527	18
457.994	19
458.461	20
458.928	21
459.396	28
459.863	26
460.33	24
460.798	25
461.265	31
461.732	23
462.2	23
462.668	27
463.135	22
463.603	25
464.07	30
464.538	30
465.006	29
465.474	25
465.941	27
466.409	26
466.877	22
467.345	29
467.813	26
468.281	25
468.749	24
469.217	26
469.685	31
470.153	24
470.621	33
471.09	32
471.558	28
472.026	29
472.494	29
472.963	30
473.431	32
473.9	33
474.368	35
474.837	39
475.305	33
475.774	39
476.242	38
476.711	42
477.18	38
477.648	34
478.117	41
478.586	38
479.055	37
479.524	38
479.993	35
480.462	45
480.93	43
481.399	33
481.869	37
482.338	36
482.807	40
483.276	39
483.745	43
484.214	47
484.684	40
485.153	42
485.622	39
486.092	42
486.561	42
487.031	44
487.5	42
487.97	47
488.439	42
488.909	45
489.378	51
489.848	50
490.318	44
490.787	48
491.257	53
491.727	55
492.197	53
492.667	54
493.137	56
493.607	56
494.077	49
494.547	56
495.017	53
495.487	59
495.957	60
496.427	59
496.897	60
497.368	54
497.838	54
498.308	57
498.779	62
499.249	58
499.719	57
500.19	58
500.66	61
501.131	62
501.602	69
502.072	61
502.543	51
503.014	58
503.484	65
503.955	70
504.426	71
504.897	68
505.368	65
505.838	72
506.309	76
506.78	79
507.251	70
507.722	82
508.194	79
508.665	80
509.136	82
509.607	89
510.078	79
510.549	91
511.021	91
511.492	93
511.964	92
512.435	91
512.906	91
513.378	95
513.849	94
514.321	94
514.793	95
515.264	89
515.736	101
516.208	104
516.679	98
517.151	103
517.623	97
518.095	105
518.567	107
519.038	109
519.51	108
519.982	109
520.454	110
520.927	112
521.399	113
521.871	114
522.343	112
522.815	117
523.287	117
523.76	120
524.232	121
524.704	121
525.177	122
525.649	121
526.122	122
526.594	119
527.067	120
527.539	121
528.012	128
528.484	126
528.957	121
529.43	123
529.903	121
530.375	128
530.848	121
531.321	127
531.794	125
532.267	132
532.74	131
533.213	127
533.686	134
534.159	130
534.632	133
535.105	140
535.578	135
536.051	135
536.525	139
536.998	137
537.471	140
537.945	141
538.418	143
538.891	143
539.365	143
539.838	147
540.312	146
540.786	151
541.259	149
541.733	151
542.206	152
542.68	150
543.154	151
543.628	148
544.101	160
544.575	152
545.049	149
545.523	151
545.997	148
546.471	154
546.945	155
547.419	159
547.893	150
548.367	148
548.842	153
549.316	152
549.79	158
550.264	153
550.739	153
551.213	158
551.687	154
552.162	153
552.636	151
553.111	161
553.585	162
554.06	159
554.534	161
555.009	162
555.484	165
555.958	167
556.433	163
556.908	171
557.383	164
557.858	167
558.333	174
558.807	170
559.282	171
559.757	173
560.232	179
560.708	171
561.183	174
561.658	179
562.133	179
562.608	180
563.083	181
563.559	172
564.034	180
564.509	179
564.985	177
565.46	179
565.936	176
566.411	182
566.887	181
567.362	184
567.838	181
568.313	182
568.789	183
569.265	186
569.74	189
570.216	187
570.692	185
571.168	185
571.644	191
572.12	186
572.596	193
573.071	188
573.547	195
574.024	196
574.5	197
574.976	193
575.452	199
575.928	206
576.404	198
576.881	208
577.357	203
577.833	208
578.31	213
578.786	217
579.262	224
579.739	208
580.215	225
580.692	226
581.169	230
581.645	225
582.122	231
582.598	229
583.075	233
583.552	239
584.029	235
584.506	233
584.982	238
585.459	237
585.936	232
586.413	241
586.89	244
587.367	235
587.844	247
588.321	244
588.799	242
589.276	245
589.753	246
590.23	248
590.707	245
591.185	251
591.662	244
592.139	248
592.617	250
593.094	249
593.572	258
594.049	261
594.527	270
595.004	262
595.482	271
595.96	268
596.437	262
596.915	277
597.393	271
597.871	277
598.349	276
598.826	283
599.304	287
599.782	293
600.26	286
600.738	288
601.216	287
601.694	294
602.173	297
602.651	295
603.129	292
603.607	289
604.085	304
604.564	300
605.042	303
605.52	300
605.999	305
606.477	300
606.956	298
607.434	299
607.913	300
608.391	300
608.87	310
609.348	304
609.827	307
610.306	310
610.785	312
611.263	309
611.742	307
612.221	303
612.7	301
613.179	302
613.658	303
614.137	309
614.616	313
615.095	307
615.574	312
616.053	318
616.532	316
617.011	318
617.491	308
617.97	313
618.449	314
618.928	319
619.408	326
619.887	328
620.367	331
620.846	328
621.326	330
621.805	338
622.285	342
622.764	339
623.244	344
623.724	348
624.203	344
624.683	338
625.163	344
625.643	346
626.123	347
626.602	358
627.082	348
627.562	349
628.042	354
628.522	348
629.002	354
629.482	358
629.963	356
630.443	346
630.923	349
631.403	348
631.883	352
632.364	357
632.844	355
633.324	354
633.805	355
634.285	352
634.766	351
635.246	350
635.727	354
636.207	351
636.688	352
637.168	360
637.649	356
638.13	353
638.611	356
639.091	360
639.572	362
640.053	361
640.534	370
641.015	366
641.496	359
641.977	360
642.458	355
642.939	356
643.42	360
643.901	355
644.382	355
644.863	364
645.345	365
645.826	360
646.307	358
646.788	365
647.27	365
647.751	379
648.233	371
648.714	368
649.196	376
649.677	380
650.159	380
650.64	379
651.122	384
651.603	374
652.085	377
652.567	376
653.049	371
653.53	374
654.012	383
654.494	362
654.976	367
655.458	365
655.94	368
656.422	378
656.904	372
657.386	367
657.868	373
658.35	374
658.833	389
659.315	382
659.797	374
660.279	373
660.762	378
661.244	377
661.726	375
662.209	376
662.691	373
663.174	368
663.656	374
664.139	375
664.621	376
665.104	376
665.587	379
666.069	370
666.552	372
667.035	365
667.517	373
668	370
668.483	372
668.966	367
669.449	360
669.932	370
670.415	383
670.898	375
671.381	378
671.864	373
672.347	379
672.83	371
673.313	377
673.797	370
674.28	378
674.763	378
675.247	370
675.73	379
676.213	383
676.697	388
677.18	385
677.664	382
678.147	391
678.631	392
679.114	397
679.598	397
680.082	406
680.565	413
681.049	404
681.533	408
682.017	403
682.5	404
682.984	407
683.468	407
683.952	405
684.436	406
684.92	405
685.404	408
685.888	406
686.372	406
686.856	403
687.341	407
687.825	410
688.309	413
688.793	408
689.278	412
689.762	419
690.246	421
690.731	414
691.215	415
691.7	397
692.184	398
692.669	405
693.153	406
693.638	402
694.122	400
694.607	396
695.092	396
695.577	401
696.061	396
696.546	397
697.031	399
697.516	409
698.001	412
698.486	400
698.971	409
699.456	405
699.941	405
700.426	408
700.911	413
701.396	407
701.881	402
702.366	403
702.852	408
703.337	402
703.822	411
704.308	398
704.793	396
705.278	398
705.764	400
706.249	397
706.735	403
707.22	407
707.706	397
708.191	410
708.677	406
709.163	408
709.648	410
710.134	412
710.62	406
711.106	407
711.592	409
712.077	408
712.563	397
713.049	394
713.535	413
714.021	411
714.507	405
714.993	401
715.479	413
715.966	408
716.452	406
716.938	408
717.424	394
717.91	400
718.397	396
718.883	396
719.369	400
719.856	405
720.342	408
720.829	398
721.315	400
721.802	396
722.288	402
722.775	386
723.262	378
723.748	398
724.235	394
724.722	391
725.208	387
725.695	389
726.182	389
726.669	381
727.156	386
727.643	382
728.13	384
728.617	387
729.104	381
729.591	378
730.078	380
730.565	379
731.052	386
731.539	390
732.027	385
732.514	378
733.001	376
733.488	379
733.976	380
734.463	384
734.951	383
735.438	387
735.926	380
736.413	383
736.901	373
737.388	376
737.876	373
738.364	370
738.851	367
739.339	370
739.827	371
740.314	356
740.802	357
741.29	371
741.778	368
742.266	365
742.754	366
743.242	377
743.73	370
744.218	366
744.706	359
745.194	365
745.682	364
746.17	365
746.659	373
747.147	370
747.635	369
748.123	373
748.612	368
749.1	362
749.589	363
750.077	360
750.566	355
751.054	358
751.543	356
752.031	349
752.52	351
753.008	346
753.497	343
753.986	340
754.474	342
754.963	348
755.452	344
755.941	333
756.43	339
756.919	333
757.408	326
757.896	333
758.385	334
758.875	327
759.364	324
759.853	327
760.342	324
760.831	338
761.32	335
761.809	331
762.299	333
762.788	330
763.277	331
763.767	324
764.256	319
764.745	317
765.235	319
765.724	311
766.214	318
766.703	318
767.193	310
767.683	319
768.172	310
768.662	310
769.152	312
769.641	317
770.131	304
770.621	302
771.111	298
771.601	302
772.09	302
772.58	301
773.07	296
773.56	305
774.05	292
774.54	290
775.031	288
775.521	286
776.011	286
776.501	290
776.991	289
777.482	295
777.972	289
778.462	275
778.953	292
779.443	286
779.933	292
780.424	283
780.914	285
781.405	281
781.895	275
782.386	279
782.877	275
783.367	271
783.858	274
784.349	269
784.839	266
785.33	275
785.821	270
786.312	268
786.803	265
787.293	265
787.784	263
788.275	261
788.766	251
789.257	264
789.748	251
790.24	252
790.731	250
791.222	241
791.713	249
792.204	251
792.696	254
793.187	254
793.678	253
794.169	253
794.661	251
795.152	249
795.644	237
796.135	248
796.627	245
797.118	240
797.61	242
798.101	241
798.593	244
799.085	242
799.576	235
800.068	233
800.56	230
801.052	234
801.544	223
802.035	224
802.527	227
803.019	229
803.511	230
804.003	224
804.495	225
804.987	215
805.479	221
805.971	217
806.464	223
806.956	215
807.448	213
807.94	214
808.433	214
808.925	217
809.417	220
809.91	216
810.402	210
810.894	215
811.387	213
811.879	213
812.372	204
812.865	209
813.357	203
813.85	208
814.342	204
814.835	202
815.328	203
815.821	195
816.313	196
816.806	197
817.299	202
817.792	202
818.285	197
818.778	208
819.271	202
819.764	195
820.257	194
820.75	199
821.243	188
821.736	191
822.229	197
822.722	191
823.216	203
