Data from lamp2bck_noballon_Subt4__38__441.txt Node

Date: Fri Apr 04 11:14:15 CEST 2025
User: fys-lab-0081
Spectrometer: S04999
Trigger mode: 0
Resolution mode: 1024 pixels
Integration Time (sec): 1.000000E-1
Scans to average: 1
Nonlinearity correction enabled: false
Boxcar width: 0
Baseline correction enabled: true
XAxis mode: Wavelengths
Number of Pixels in Spectrum: 1024
>>>>>Begin Spectral Data<<<<<
336.42	0
336.877	-1
337.334	3
337.792	0
338.249	3
338.706	0
339.164	4
339.621	3
340.079	0
340.536	-4
340.994	-4
341.452	4
341.909	1
342.367	-2
342.825	2
343.283	-1
343.741	1
344.198	-1
344.656	-5
345.114	4
345.572	2
346.03	2
346.488	0
346.947	1
347.405	-2
347.863	-1
348.321	2
348.779	0
349.238	-2
349.696	2
350.154	-1
350.613	1
351.071	1
351.53	-1
351.988	1
352.447	1
352.905	0
353.364	0
353.823	4
354.282	-4
354.74	2
355.199	0
355.658	0
356.117	0
356.576	0
357.035	-1
357.494	0
357.953	-2
358.412	-1
358.871	0
359.33	1
359.789	-1
360.249	1
360.708	2
361.167	-4
361.626	8
362.086	2
362.545	-2
363.005	-2
363.464	3
363.924	-2
364.383	0
364.843	0
365.303	-2
365.762	4
366.222	2
366.682	-4
367.142	2
367.601	-1
368.061	2
368.521	0
368.981	4
369.441	-1
369.901	-1
370.361	1
370.821	7
371.282	-4
371.742	-2
372.202	1
372.662	2
373.123	0
373.583	4
374.043	4
374.504	-1
374.964	0
375.425	-3
375.885	6
376.346	3
376.806	-2
377.267	1
377.728	-1
378.188	3
378.649	3
379.11	-1
379.571	-1
380.032	1
380.493	0
380.954	7
381.414	3
381.876	5
382.337	4
382.798	1
383.259	7
383.72	0
384.181	5
384.642	5
385.104	3
385.565	2
386.026	4
386.488	8
386.949	0
387.411	6
387.872	2
388.334	1
388.795	0
389.257	4
389.719	4
390.181	5
390.642	1
391.104	5
391.566	3
392.028	3
392.49	3
392.952	2
393.414	-2
393.876	4
394.338	4
394.8	-1
395.262	1
395.724	2
396.186	3
396.648	6
397.111	1
397.573	3
398.035	4
398.498	6
398.96	7
399.423	4
399.885	1
400.348	7
400.81	6
401.273	3
401.736	2
402.198	2
402.661	1
403.124	6
403.587	4
404.049	5.5
404.512	7
404.975	4
405.438	6
405.901	2
406.364	6
406.827	9
407.29	7
407.754	9
408.217	4
408.68	6
409.143	7
409.607	3
410.07	2
410.533	9
410.997	8
411.46	6
411.924	3
412.387	-3
412.851	2
413.314	12
413.778	7
414.242	3
414.705	6
415.169	8
415.633	9
416.097	15
416.561	7
417.024	5
417.488	7
417.952	10
418.416	4
418.88	12
419.344	5
419.809	8
420.273	7
420.737	5
421.201	5
421.665	4
422.13	5
422.594	6
423.059	6
423.523	-1
423.987	6
424.452	7
424.916	8
425.381	7
425.846	9
426.31	6
426.775	3
427.24	10
427.704	4
428.169	12
428.634	9
429.099	7
429.564	8
430.029	8
430.494	10
430.959	8
431.424	7
431.889	13
432.354	9
432.819	11
433.284	13
433.75	10
434.215	12
434.68	11
435.146	10
435.611	15
436.077	12
436.542	15
437.008	10
437.473	9
437.939	9
438.404	15
438.87	12
439.336	7
439.801	11
440.267	13
440.733	11
441.199	16
441.665	10
442.131	15
442.596	9
443.062	21
443.529	11
443.995	9
444.461	16
444.927	17
445.393	11
445.859	18
446.325	14
446.792	16
447.258	19
447.724	20
448.191	19
448.657	20
449.124	17
449.59	18
450.057	18
450.523	18
450.99	23
451.457	20
451.923	21
452.39	16
452.857	22
453.324	20
453.791	19
454.257	24
454.724	28
455.191	19
455.658	19
456.125	26
456.592	20
457.059	20
457.527	18
457.994	22
458.461	20
458.928	23
459.396	26
459.863	21
460.33	21
460.798	26
461.265	29
461.732	22
462.2	23
462.668	28
463.135	25
463.603	24
464.07	28
464.538	29
465.006	31
465.474	25
465.941	29
466.409	31
466.877	24
467.345	28
467.813	24
468.281	26
468.749	25
469.217	30
469.685	31
470.153	24
470.621	31
471.09	29
471.558	30
472.026	29
472.494	30
472.963	31
473.431	31
473.9	33
474.368	35
474.837	35
475.305	34
475.774	37
476.242	39
476.711	38
477.18	38
477.648	39
478.117	40
478.586	38
479.055	39
479.524	34
479.993	38
480.462	39
480.93	42
481.399	42
481.869	39
482.338	38
482.807	38
483.276	40
483.745	44
484.214	45
484.684	34
485.153	41
485.622	44
486.092	44
486.561	41
487.031	44
487.5	43
487.97	46
488.439	44
488.909	45
489.378	50
489.848	48
490.318	46
490.787	47
491.257	51
491.727	55
492.197	58
492.667	53
493.137	57
493.607	60
494.077	54
494.547	59
495.017	51
495.487	54
495.957	57
496.427	57
496.897	56
497.368	55
497.838	56
498.308	58
498.779	64
499.249	64
499.719	58
500.19	55
500.66	65
501.131	65
501.602	61
502.072	60
502.543	58
503.014	61
503.484	65
503.955	67
504.426	69
504.897	67
505.368	71
505.838	75
506.309	77
506.78	79
507.251	69
507.722	79
508.194	79
508.665	80
509.136	81
509.607	87
510.078	89
510.549	94
511.021	88
511.492	89
511.964	93
512.435	91
512.906	93
513.378	93
513.849	95
514.321	97
514.793	91
515.264	91
515.736	102
516.208	103
516.679	99
517.151	103
517.623	101
518.095	107
518.567	114
519.038	104
519.51	108
519.982	111
520.454	112
520.927	108
521.399	120
521.871	116
522.343	114
522.815	117
523.287	115
523.76	119
524.232	124
524.704	124
525.177	125
525.649	123
526.122	123
526.594	123
527.067	122
527.539	127
528.012	129
528.484	130
528.957	123
529.43	129
529.903	125
530.375	130
530.848	126
531.321	132
531.794	131
532.267	129
532.74	131
533.213	126
533.686	138
534.159	133
534.632	135
535.105	138
535.578	132
536.051	140
536.525	140
536.998	139
537.471	142
537.945	142
538.418	144
538.891	144
539.365	149
539.838	145
540.312	148
540.786	153
541.259	146
541.733	154
542.206	151
542.68	153
543.154	154
543.628	145
544.101	158
544.575	149
545.049	151
545.523	159
545.997	153
546.471	153
546.945	156
547.419	157
547.893	153
548.367	154
548.842	151
549.316	154
549.79	157
550.264	153
550.739	156
551.213	159
551.687	157
552.162	159
552.636	153
553.111	162
553.585	158
554.06	159
554.534	160
555.009	165
555.484	166
555.958	168
556.433	166
556.908	171
557.383	164
557.858	174
558.333	174
558.807	168
559.282	171
559.757	176
560.232	180
560.708	177
561.183	177
561.658	183
562.133	182
562.608	179
563.083	185
563.559	175
564.034	180
564.509	178
564.985	183
565.46	178
565.936	180
566.411	186
566.887	178
567.362	186
567.838	184
568.313	185
568.789	181
569.265	189
569.74	189
570.216	189
570.692	186
571.168	182
571.644	194
572.12	185
572.596	191
573.071	190
573.547	192
574.024	195
574.5	198
574.976	196
575.452	200
575.928	203
576.404	203
576.881	217
577.357	203
577.833	208
578.31	218
578.786	219
579.262	227
579.739	217
580.215	226
580.692	225
581.169	235
581.645	225
582.122	235
582.598	235
583.075	232
583.552	239
584.029	239
584.506	232
584.982	236
585.459	239
585.936	240
586.413	237
586.89	247
587.367	239
587.844	246
588.321	243
588.799	240
589.276	244
589.753	244
590.23	250
590.707	251
591.185	253
591.662	247
592.139	249
592.617	250
593.094	253
593.572	262
594.049	257
594.527	268
595.004	265
595.482	276
595.96	269
596.437	267
596.915	279
597.393	275
597.871	280
598.349	281
598.826	282
599.304	290
599.782	294
600.26	292
600.738	293
601.216	292
601.694	294
602.173	299
602.651	297
603.129	293
603.607	294
604.085	303
604.564	303
605.042	298
605.52	300
605.999	305
606.477	311
606.956	305
607.434	304.5
607.913	304
608.391	304
608.87	312
609.348	312
609.827	308
610.306	312
610.785	313
611.263	311
611.742	309
612.221	300
612.7	304
613.179	304
613.658	304
614.137	316
614.616	318
615.095	313
615.574	315
616.053	316
616.532	320
617.011	318
617.491	312
617.97	313
618.449	316
618.928	323
619.408	330
619.887	332
620.367	334
620.846	326
621.326	336
621.805	337
622.285	339
622.764	343
623.244	347
623.724	355
624.203	351
624.683	345
625.163	346
625.643	350
626.123	350
626.602	361
627.082	351
627.562	347
628.042	363
628.522	354
629.002	355
629.482	363
629.963	355
630.443	350
630.923	347
631.403	355
631.883	352
632.364	360
632.844	357
633.324	357
633.805	358
634.285	358
634.766	358
635.246	354
635.727	357
636.207	356
636.688	357
637.168	366
637.649	357
638.13	360
638.611	364
639.091	361
639.572	364
640.053	365
640.534	367
641.015	367
641.496	360
641.977	366
642.458	357
642.939	362
643.42	358
643.901	361
644.382	362
644.863	368
645.345	370
645.826	362
646.307	364
646.788	369
647.27	369
647.751	374
648.233	380
648.714	372
649.196	380
649.677	380
650.159	380
650.64	376
651.122	383
651.603	375
652.085	380
652.567	380
653.049	370
653.53	375
654.012	381
654.494	368
654.976	365
655.458	367
655.94	370
656.422	378
656.904	372
657.386	365
657.868	374
658.35	378
658.833	389
659.315	380
659.797	378
660.279	380
660.762	385
661.244	380
661.726	378
662.209	377
662.691	381
663.174	372
663.656	379
664.139	380
664.621	378
665.104	375
665.587	381
666.069	375
666.552	372
667.035	367
667.517	374
668	374
668.483	378
668.966	369
669.449	363
669.932	369
670.415	382
670.898	381
671.381	379
671.864	380
672.347	382
672.83	378
673.313	380
673.797	374
674.28	384
674.763	376
675.247	377
675.73	379
676.213	382
676.697	390
677.18	385
677.664	387
678.147	388
678.631	390
679.114	402
679.598	404
680.082	410
680.565	418
681.049	414
681.533	409
682.017	406
682.5	410
682.984	411
683.468	410
683.952	404
684.436	413
684.92	411
685.404	414
685.888	411
686.372	410
686.856	411
687.341	417
687.825	408
688.309	417
688.793	417
689.278	419
689.762	424
690.246	423
690.731	415
691.215	417
691.7	405
692.184	402
692.669	409
693.153	412
693.638	409
694.122	402
694.607	401
695.092	395
695.577	405
696.061	402
696.546	394
697.031	403
697.516	410
698.001	415
698.486	401
698.971	410
699.456	404
699.941	409
700.426	411
700.911	415
701.396	408
701.881	406
702.366	405
702.852	409
703.337	407
703.822	404
704.308	394
704.793	400
705.278	400
705.764	399
706.249	406
706.735	407
707.22	412
707.706	405
708.191	407
708.677	410
709.163	408
709.648	413
710.134	411
710.62	413
711.106	410
711.592	412
712.077	415
712.563	398
713.049	400
713.535	413
714.021	416
714.507	413
714.993	407
715.479	412
715.966	410
716.452	405
716.938	409
717.424	393
717.91	407
718.397	399
718.883	402
719.369	399
719.856	407
720.342	410
720.829	402
721.315	405
721.802	392
722.288	403
722.775	389
723.262	383
723.748	397
724.235	389
724.722	397
725.208	390
725.695	394
726.182	388
726.669	388
727.156	391
727.643	383
728.13	386
728.617	386
729.104	382
729.591	380
730.078	385
730.565	382
731.052	388
731.539	387
732.027	383
732.514	373
733.001	378
733.488	382
733.976	381
734.463	387
734.951	386
735.438	385
735.926	376
736.413	386
736.901	376
737.388	374
737.876	374
738.364	371
738.851	370
739.339	372
739.827	373
740.314	364
740.802	364
741.29	371
741.778	367
742.266	372
742.754	364
743.242	379
743.73	371
744.218	369
744.706	359
745.194	370
745.682	365
746.17	370
746.659	379
747.147	368
747.635	371
748.123	377
748.612	369
749.1	363
749.589	363
750.077	368
750.566	353
751.054	356
751.543	358
752.031	359
752.52	354
753.008	351
753.497	341
753.986	341
754.474	346
754.963	349
755.452	347
755.941	335
756.43	337
756.919	336
757.408	327
757.896	333
758.385	335
758.875	333
759.364	332
759.853	324
760.342	323
760.831	333
761.32	337
761.809	339
762.299	330
762.788	330
763.277	336
763.767	329
764.256	322
764.745	317
765.235	325
765.724	313
766.214	326
766.703	318
767.193	314
767.683	321
768.172	313
768.662	312
769.152	315
769.641	315
770.131	304
770.621	299
771.111	297
771.601	302
772.09	301
772.58	298
773.07	299
773.56	309
774.05	295
774.54	290
775.031	291
775.521	292
776.011	291
776.501	294
776.991	293
777.482	299
777.972	285
778.462	282
778.953	292
779.443	289
779.933	291
780.424	285
780.914	287
781.405	286
781.895	283
782.386	281
782.877	277
783.367	272
783.858	272
784.349	272
784.839	268
785.33	269
785.821	269
786.312	268
786.803	266
787.293	267
787.784	261
788.275	256
788.766	258
789.257	264
789.748	253
790.24	252
790.731	250
791.222	250
791.713	248
792.204	253
792.696	254
793.187	256
793.678	253
794.169	252
794.661	254
795.152	249
795.644	244
796.135	251
796.627	249
797.118	236
797.61	242
798.101	241
798.593	244
799.085	239
799.576	235
800.068	231
800.56	238
801.052	230
801.544	225
802.035	228
802.527	228
803.019	229
803.511	231
804.003	226
804.495	228
804.987	220
805.479	217
805.971	214
806.464	224
806.956	216
807.448	213
807.94	214
808.433	212
808.925	216
809.417	220
809.91	217
810.402	213
810.894	214
811.387	214
811.879	211
812.372	209
812.865	213
813.357	202
813.85	215
814.342	207
814.835	203
815.328	204
815.821	199
816.313	197
816.806	195
817.299	201
817.792	205
818.285	202
818.778	210
819.271	209
819.764	195
820.257	200
820.75	195
821.243	192
821.736	191
822.229	196
822.722	193
823.216	202
