Data from lamp2bck_noballon_Subt4__40__443.txt Node

Date: Fri Apr 04 11:14:15 CEST 2025
User: fys-lab-0081
Spectrometer: S04999
Trigger mode: 0
Resolution mode: 1024 pixels
Integration Time (sec): 1.000000E-1
Scans to average: 1
Nonlinearity correction enabled: false
Boxcar width: 0
Baseline correction enabled: true
XAxis mode: Wavelengths
Number of Pixels in Spectrum: 1024
>>>>>Begin Spectral Data<<<<<
336.42	3
336.877	-3
337.334	0
337.792	2
338.249	-4
338.706	5
339.164	1
339.621	2
340.079	4
340.536	0
340.994	3
341.452	1
341.909	-1
342.367	0
342.825	2
343.283	2
343.741	4
344.198	-3
344.656	-2
345.114	1
345.572	-3
346.03	3
346.488	-3
346.947	1
347.405	1
347.863	0
348.321	0
348.779	-2
349.238	0
349.696	3
350.154	1
350.613	1
351.071	0
351.53	1
351.988	3
352.447	0
352.905	-2
353.364	-3
353.823	8
354.282	0
354.74	-2
355.199	1
355.658	1
356.117	3
356.576	-4
357.035	-2
357.494	1
357.953	0
358.412	-3
358.871	0
359.33	5
359.789	-3
360.249	-2
360.708	7
361.167	-4
361.626	7
362.086	4
362.545	0
363.005	-4
363.464	2
363.924	-2
364.383	5
364.843	-4
365.303	-1
365.762	1
366.222	-2
366.682	0
367.142	1
367.601	1
368.061	6
368.521	2
368.981	1
369.441	3
369.901	-3
370.361	5
370.821	5
371.282	0
371.742	-2
372.202	0
372.662	4
373.123	3
373.583	0
374.043	3
374.504	-3
374.964	0
375.425	1
375.885	2
376.346	5
376.806	2
377.267	4
377.728	-2
378.188	0
378.649	-1
379.11	1
379.571	1
380.032	3
380.493	-2
380.954	7
381.414	-1
381.876	3
382.337	3
382.798	-2
383.259	4
383.72	1
384.181	4
384.642	0
385.104	1
385.565	5
386.026	3
386.488	2
386.949	-1
387.411	4
387.872	3
388.334	0
388.795	-3
389.257	4
389.719	2
390.181	4
390.642	5
391.104	4
391.566	3
392.028	4
392.49	2
392.952	2
393.414	-1
393.876	5
394.338	6
394.8	2
395.262	2
395.724	0
396.186	3
396.648	7
397.111	0
397.573	0
398.035	4
398.498	4
398.96	4
399.423	3
399.885	2
400.348	7
400.81	6
401.273	4
401.736	5
402.198	3
402.661	8
403.124	5
403.587	8
404.049	5.5
404.512	3
404.975	9
405.438	8
405.901	2
406.364	-1
406.827	11
407.29	1
407.754	7
408.217	3
408.68	6
409.143	7
409.607	0
410.07	0
410.533	7
410.997	7
411.46	8
411.924	4
412.387	2
412.851	2
413.314	9
413.778	6
414.242	3
414.705	6
415.169	6
415.633	11
416.097	8
416.561	7
417.024	6
417.488	7
417.952	9
418.416	6
418.88	11
419.344	5
419.809	7
420.273	11
420.737	7
421.201	9
421.665	7
422.13	5
422.594	8
423.059	5
423.523	4
423.987	12
424.452	11
424.916	4
425.381	7
425.846	16
426.31	6
426.775	2
427.24	6
427.704	6
428.169	11
428.634	10
429.099	7
429.564	10
430.029	12
430.494	9
430.959	6
431.424	8
431.889	11
432.354	8
432.819	12
433.284	11
433.75	13
434.215	13
434.68	11
435.146	13
435.611	14
436.077	14
436.542	13
437.008	13
437.473	13
437.939	9
438.404	13
438.87	10
439.336	10
439.801	17
440.267	14
440.733	10
441.199	14
441.665	17
442.131	14
442.596	10
443.062	14
443.529	15
443.995	16
444.461	15
444.927	14
445.393	13
445.859	16
446.325	14
446.792	17
447.258	16
447.724	18
448.191	20
448.657	19
449.124	21
449.59	17
450.057	14
450.523	20
450.99	19
451.457	27
451.923	27
452.39	19
452.857	24
453.324	22
453.791	21
454.257	26
454.724	26
455.191	21
455.658	15
456.125	24
456.592	25
457.059	23
457.527	18
457.994	20
458.461	22
458.928	20
459.396	27
459.863	28
460.33	23
460.798	30
461.265	27
461.732	22
462.2	25
462.668	24
463.135	21
463.603	23
464.07	28
464.538	30
465.006	30
465.474	22
465.941	29
466.409	30
466.877	23
467.345	24
467.813	28
468.281	27
468.749	22
469.217	30
469.685	30
470.153	22
470.621	31
471.09	30
471.558	29
472.026	32
472.494	32
472.963	32
473.431	33
473.9	36
474.368	34
474.837	38
475.305	36
475.774	39
476.242	39
476.711	39
477.18	45
477.648	39
478.117	41
478.586	37
479.055	40
479.524	35
479.993	41
480.462	40
480.93	40
481.399	36
481.869	38
482.338	41
482.807	37
483.276	39
483.745	44
484.214	40
484.684	42
485.153	41
485.622	44
486.092	42
486.561	42
487.031	42
487.5	48
487.97	46
488.439	43
488.909	43
489.378	51
489.848	51
490.318	43
490.787	49
491.257	53
491.727	52
492.197	55
492.667	58
493.137	62
493.607	59
494.077	52
494.547	60
495.017	52
495.487	57
495.957	58
496.427	58
496.897	62
497.368	57
497.838	51
498.308	57
498.779	61
499.249	61
499.719	60
500.19	59
500.66	63
501.131	64
501.602	61
502.072	58
502.543	49
503.014	63
503.484	66
503.955	68
504.426	66
504.897	68
505.368	73
505.838	73
506.309	80
506.78	80
507.251	72
507.722	84
508.194	76
508.665	84
509.136	80
509.607	89
510.078	84
510.549	93
511.021	91
511.492	93
511.964	89
512.435	92
512.906	94
513.378	94
513.849	95
514.321	96
514.793	92
515.264	96
515.736	103
516.208	102
516.679	102
517.151	104
517.623	100
518.095	107
518.567	109
519.038	106
519.51	107
519.982	114
520.454	114
520.927	108
521.399	118
521.871	114
522.343	115
522.815	116
523.287	117
523.76	122
524.232	122
524.704	124
525.177	122
525.649	119
526.122	118
526.594	124
527.067	118
527.539	127
528.012	127
528.484	127
528.957	120
529.43	123
529.903	131
530.375	129
530.848	126
531.321	126
531.794	126
532.267	131
532.74	130
533.213	129
533.686	134
534.159	129
534.632	140
535.105	138
535.578	136
536.051	142
536.525	139
536.998	140
537.471	141
537.945	140
538.418	143
538.891	145
539.365	149
539.838	147
540.312	150
540.786	152
541.259	150
541.733	154
542.206	154
542.68	151
543.154	148
543.628	151
544.101	159
544.575	149
545.049	151
545.523	154
545.997	152
546.471	154
546.945	154
547.419	159
547.893	152
548.367	152
548.842	154
549.316	152
549.79	157
550.264	156
550.739	154
551.213	158
551.687	154
552.162	158
552.636	154
553.111	159
553.585	161
554.06	160
554.534	164
555.009	162
555.484	167
555.958	167
556.433	165
556.908	175
557.383	160
557.858	177
558.333	175
558.807	169
559.282	168
559.757	177
560.232	177
560.708	171
561.183	176
561.658	180
562.133	177
562.608	177
563.083	188
563.559	177
564.034	182
564.509	176
564.985	181
565.46	180
565.936	179
566.411	184
566.887	182
567.362	186
567.838	184
568.313	187
568.789	184
569.265	186
569.74	191
570.216	184
570.692	188
571.168	189
571.644	194
572.12	187
572.596	191
573.071	192
573.547	193
574.024	197
574.5	199
574.976	195
575.452	197
575.928	203
576.404	205
576.881	213
577.357	204
577.833	205
578.31	216
578.786	221
579.262	225
579.739	216
580.215	222
580.692	230
581.169	227
581.645	227
582.122	238
582.598	228
583.075	233
583.552	234
584.029	236
584.506	236
584.982	239
585.459	240
585.936	240
586.413	241
586.89	244
587.367	241
587.844	248
588.321	246
588.799	241
589.276	243
589.753	250
590.23	248
590.707	247
591.185	248
591.662	246
592.139	251
592.617	251
593.094	251
593.572	258
594.049	259
594.527	267
595.004	264
595.482	270
595.96	269
596.437	266
596.915	278
597.393	273
597.871	277
598.349	278
598.826	286
599.304	289
599.782	297
600.26	285
600.738	296
601.216	291
601.694	295
602.173	295
602.651	292
603.129	293
603.607	290
604.085	303
604.564	295
605.042	303
605.52	301
605.999	306
606.477	307
606.956	302
607.434	302
607.913	302
608.391	303
608.87	310
609.348	310
609.827	310
610.306	311
610.785	308
611.263	312
611.742	308
612.221	303
612.7	302
613.179	302
613.658	306
614.137	319
614.616	313
615.095	314
615.574	316
616.053	316
616.532	318
617.011	318
617.491	309
617.97	314
618.449	317
618.928	324
619.408	328
619.887	331
620.367	335
620.846	331
621.326	327
621.805	340
622.285	335
622.764	344
623.244	346
623.724	353
624.203	352
624.683	340
625.163	352
625.643	349
626.123	354
626.602	359
627.082	347
627.562	352
628.042	358
628.522	351
629.002	357
629.482	361
629.963	356
630.443	349
630.923	350
631.403	356
631.883	355
632.364	354
632.844	358
633.324	358
633.805	360
634.285	356
634.766	355
635.246	356
635.727	354
636.207	358
636.688	356
637.168	360
637.649	357
638.13	361
638.611	362
639.091	365
639.572	363
640.053	361
640.534	365
641.015	370
641.496	362
641.977	365
642.458	355
642.939	357
643.42	361
643.901	362
644.382	363
644.863	364
645.345	368
645.826	365
646.307	363
646.788	369
647.27	366
647.751	371
648.233	378
648.714	369
649.196	378
649.677	377
650.159	380
650.64	378
651.122	385
651.603	374
652.085	375
652.567	377
653.049	379
653.53	380
654.012	377
654.494	360
654.976	371
655.458	371
655.94	372
656.422	376
656.904	369
657.386	369
657.868	371
658.35	382
658.833	387
659.315	381
659.797	376
660.279	374
660.762	383
661.244	374
661.726	374
662.209	375
662.691	373
663.174	374
663.656	374
664.139	376
664.621	374
665.104	374
665.587	378
666.069	375
666.552	377
667.035	369
667.517	374
668	375
668.483	377
668.966	369
669.449	362
669.932	370
670.415	380
670.898	378
671.381	385
671.864	379
672.347	380
672.83	376
673.313	379
673.797	375
674.28	383
674.763	383
675.247	372
675.73	380
676.213	384
676.697	394
677.18	387
677.664	386
678.147	394
678.631	394
679.114	397
679.598	401
680.082	412
680.565	407
681.049	408
681.533	409
682.017	409
682.5	411
682.984	413
683.468	407
683.952	404
684.436	408
684.92	407
685.404	408
685.888	407
686.372	407
686.856	409
687.341	415
687.825	410
688.309	413
688.793	411
689.278	416
689.762	420
690.246	425
690.731	414
691.215	420
691.7	401
692.184	404
692.669	407
693.153	414
693.638	405
694.122	404
694.607	400
695.092	400
695.577	400
696.061	401
696.546	400
697.031	401
697.516	406
698.001	415
698.486	403
698.971	410
699.456	402
699.941	408
700.426	409
700.911	416
701.396	405
701.881	406
702.366	404
702.852	410
703.337	410
703.822	407
704.308	397
704.793	399
705.278	398
705.764	396
706.249	401
706.735	412
707.22	413
707.706	403
708.191	407
708.677	414
709.163	412
709.648	413
710.134	411
710.62	409
711.106	413
711.592	410
712.077	408
712.563	400
713.049	400
713.535	416
714.021	412
714.507	408
714.993	406
715.479	418
715.966	411
716.452	407
716.938	406
717.424	394
717.91	407
718.397	397
718.883	400
719.369	405
719.856	405
720.342	412
720.829	402
721.315	407
721.802	400
722.288	403
722.775	387
723.262	381
723.748	398
724.235	392
724.722	394
725.208	391
725.695	389
726.182	391
726.669	386
727.156	386
727.643	386
728.13	382
728.617	388
729.104	383
729.591	379
730.078	390
730.565	383
731.052	391
731.539	382
732.027	380
732.514	372
733.001	381
733.488	381
733.976	381
734.463	378
734.951	386
735.438	385
735.926	377
736.413	384
736.901	372
737.388	376
737.876	374
738.364	371
738.851	371
739.339	372
739.827	372
740.314	362
740.802	360
741.29	368
741.778	364
742.266	368
742.754	370
743.242	375
743.73	371
744.218	368
744.706	358
745.194	360
745.682	362
746.17	371
746.659	377
747.147	371
747.635	370
748.123	371
748.612	371
749.1	369
749.589	361
750.077	362
750.566	354
751.054	362
751.543	360
752.031	353
752.52	353
753.008	345
753.497	342
753.986	345
754.474	343
754.963	345
755.452	342
755.941	335
756.43	337
756.919	333
757.408	330
757.896	330
758.385	333
758.875	328
759.364	330
759.853	330
760.342	327
760.831	332
761.32	334
761.809	341
762.299	330
762.788	331
763.277	333
763.767	325
764.256	318
764.745	312
765.235	316
765.724	311
766.214	324
766.703	314
767.193	315
767.683	318
768.172	310
768.662	307
769.152	313
769.641	312
770.131	306
770.621	302
771.111	296
771.601	300
772.09	302
772.58	304
773.07	297
773.56	310
774.05	292
774.54	291
775.031	290
775.521	292
776.011	294
776.501	289
776.991	292
777.482	299
777.972	287
778.462	281
778.953	289
779.443	282
779.933	290
780.424	283
780.914	284
781.405	282
781.895	279
782.386	280
782.877	276
783.367	272
783.858	273
784.349	274
784.839	268
785.33	272
785.821	269
786.312	273
786.803	263
787.293	267
787.784	264
788.275	256
788.766	252
789.257	262
789.748	253
790.24	248
790.731	250
791.222	250
791.713	253
792.204	246
792.696	250
793.187	254
793.678	255
794.169	252
794.661	251
795.152	249
795.644	243
796.135	248
796.627	249
797.118	237
797.61	241
798.101	238
798.593	240
799.085	241
799.576	237
800.068	233
800.56	232
801.052	232
801.544	225
802.035	229
802.527	222
803.019	228
803.511	228
804.003	226
804.495	224
804.987	219
805.479	219
805.971	219
806.464	221
806.956	216
807.448	213
807.94	212
808.433	215
808.925	217
809.417	223
809.91	217
810.402	210
810.894	216
811.387	215
811.879	212
812.372	209
812.865	206
813.357	203
813.85	210
814.342	204
814.835	199
815.328	204
815.821	197
816.313	196
816.806	196
817.299	200
817.792	204
818.285	196
818.778	208
819.271	203
819.764	196
820.257	196
820.75	195
821.243	197
821.736	188
822.229	197
822.722	192
823.216	200
