Data from lamp5bck_Subt4__73__328.txt Node

Date: Wed Apr 09 10:15:52 CEST 2025
User: fys-lab-0081
Spectrometer: S04999
Trigger mode: 0
Resolution mode: 1024 pixels
Integration Time (sec): 1.000000E-1
Scans to average: 1
Nonlinearity correction enabled: false
Boxcar width: 0
Baseline correction enabled: true
XAxis mode: Wavelengths
Number of Pixels in Spectrum: 1024
>>>>>Begin Spectral Data<<<<<
336.42	2
336.877	1
337.334	-2
337.792	0
338.249	6
338.706	2
339.164	-4
339.621	-5
340.079	0
340.536	6
340.994	5
341.452	-8
341.909	0
342.367	0
342.825	0
343.283	0
343.741	-3
344.198	-2
344.656	4
345.114	1
345.572	0
346.03	3
346.488	3
346.947	0
347.405	3
347.863	0
348.321	2
348.779	5
349.238	2
349.696	1
350.154	0
350.613	2
351.071	3
351.53	3
351.988	3
352.447	-2
352.905	5
353.364	0
353.823	3
354.282	-1
354.74	-1
355.199	1
355.658	3
356.117	2
356.576	8
357.035	3
357.494	4
357.953	8
358.412	3
358.871	-6
359.33	-4
359.789	4
360.249	-2
360.708	1
361.167	1
361.626	1
362.086	1
362.545	-1
363.005	1
363.464	3
363.924	3
364.383	4
364.843	-1
365.303	3
365.762	-1
366.222	-2
366.682	3
367.142	4
367.601	5
368.061	0
368.521	4
368.981	3
369.441	7
369.901	7
370.361	4
370.821	2
371.282	4
371.742	8
372.202	6
372.662	6
373.123	6
373.583	5
374.043	6
374.504	-2
374.964	0
375.425	2
375.885	7
376.346	6
376.806	0
377.267	3
377.728	10
378.188	7
378.649	5
379.11	2
379.571	1
380.032	5
380.493	4
380.954	5
381.414	5
381.876	4
382.337	14
382.798	12
383.259	14
383.72	3
384.181	5
384.642	9
385.104	11
385.565	16
386.026	9
386.488	9
386.949	11
387.411	11
387.872	8
388.334	13
388.795	10
389.257	16
389.719	12
390.181	11
390.642	9
391.104	13
391.566	7
392.028	11
392.49	12
392.952	12
393.414	17
393.876	11
394.338	10
394.8	12
395.262	16
395.724	14
396.186	15
396.648	13
397.111	19
397.573	16
398.035	19
398.498	16
398.96	12
399.423	16
399.885	20
400.348	19
400.81	24
401.273	16
401.736	20
402.198	18
402.661	20
403.124	17
403.587	20
404.049	21
404.512	22
404.975	21
405.438	22
405.901	24
406.364	23
406.827	26
407.29	23
407.754	22
408.217	26
408.68	24
409.143	23
409.607	24
410.07	28
410.533	28
410.997	28
411.46	23
411.924	29
412.387	25
412.851	28
413.314	30
413.778	26
414.242	31
414.705	31
415.169	25
415.633	28
416.097	31
416.561	35
417.024	36
417.488	39
417.952	37
418.416	38
418.88	33
419.344	31
419.809	31
420.273	35
420.737	34
421.201	29
421.665	38
422.13	35
422.594	39
423.059	42
423.523	38
423.987	37
424.452	38
424.916	40
425.381	43
425.846	43
426.31	42
426.775	40
427.24	45
427.704	41
428.169	47
428.634	46
429.099	45
429.564	44
430.029	47
430.494	44
430.959	46
431.424	43
431.889	46
432.354	48
432.819	42
433.284	42
433.75	47
434.215	51
434.68	56
435.146	54
435.611	57
436.077	54
436.542	60
437.008	56
437.473	63
437.939	69
438.404	66
438.87	67
439.336	58
439.801	66
440.267	65
440.733	71
441.199	73
441.665	67
442.131	75
442.596	75
443.062	67
443.529	77
443.995	72
444.461	75
444.927	82
445.393	82
445.859	86
446.325	91
446.792	96
447.258	99
447.724	94
448.191	97
448.657	102
449.124	102
449.59	99
450.057	112
450.523	108
450.99	105
451.457	111
451.923	111
452.39	110
452.857	115
453.324	109
453.791	115
454.257	118
454.724	120
455.191	117
455.658	116
456.125	125
456.592	122
457.059	126
457.527	124
457.994	129
458.461	133
458.928	135
459.396	133
459.863	138
460.33	137
460.798	139
461.265	139
461.732	144
462.2	141
462.668	145
463.135	152
463.603	144
464.07	148
464.538	143
465.006	154
465.474	145
465.941	146
466.409	146
466.877	146
467.345	152
467.813	153
468.281	150
468.749	151
469.217	150
469.685	153
470.153	155
470.621	162
471.09	159
471.558	164
472.026	166
472.494	169
472.963	178
473.431	181
473.9	187
474.368	190
474.837	193
475.305	191
475.774	203
476.242	208
476.711	204
477.18	209
477.648	210
478.117	214
478.586	216
479.055	210
479.524	213
479.993	213
480.462	217
480.93	215
481.399	213
481.869	216
482.338	217
482.807	219
483.276	216
483.745	222
484.214	226
484.684	232
485.153	228
485.622	229
486.092	238
486.561	237
487.031	238
487.5	244
487.97	255
488.439	263
488.909	271
489.378	276
489.848	272
490.318	289
490.787	292
491.257	299
491.727	300
492.197	311
492.667	302
493.137	310
493.607	309
494.077	314
494.547	313
495.017	315
495.487	320
495.957	332
496.427	320
496.897	322
497.368	326
497.838	326
498.308	335
498.779	340
499.249	341
499.719	338
500.19	349
500.66	345
501.131	344
501.602	353
502.072	356
502.543	362
503.014	376
503.484	373
503.955	382
504.426	400
504.897	407
505.368	415
505.838	418
506.309	433
506.78	446
507.251	459
507.722	465
508.194	473
508.665	481
509.136	475
509.607	497
510.078	497
510.549	506
511.021	521
511.492	521
511.964	528
512.435	535
512.906	531
513.378	538
513.849	554
514.321	552
514.793	559
515.264	570
515.736	570
516.208	581
516.679	587
517.151	592
517.623	598
518.095	605
518.567	610
519.038	627
519.51	629
519.982	647
520.454	640
520.927	651
521.399	662
521.871	673
522.343	679
522.815	680
523.287	680
523.76	691
524.232	701
524.704	708
525.177	699
525.649	703
526.122	712
526.594	705
527.067	719
527.539	727
528.012	723
528.484	723
528.957	722
529.43	718
529.903	718
530.375	746
530.848	731
531.321	743
531.794	747
532.267	763
532.74	743
533.213	745
533.686	767
534.159	761
534.632	778
535.105	785
535.578	795
536.051	804
536.525	807
536.998	811
537.471	827
537.945	819
538.418	842
538.891	843
539.365	842
539.838	856
540.312	855
540.786	869
541.259	855
541.733	863
542.206	869
542.68	859
543.154	859
543.628	861
544.101	888
544.575	879
545.049	862
545.523	875
545.997	881
546.471	885
546.945	875
547.419	894
547.893	864
548.367	875
548.842	866
549.316	873
549.79	892
550.264	878
550.739	894
551.213	887
551.687	892
552.162	902
552.636	894
553.111	895
553.585	923
554.06	909
554.534	928
555.009	915
555.484	941
555.958	955
556.433	959
556.908	975
557.383	961
557.858	988
558.333	993
558.807	994
559.282	993
559.757	1021
560.232	1022
560.708	1009
561.183	1006
561.658	1022
562.133	1016
562.608	1008
563.083	1040
563.559	1006
564.034	1021
564.509	1019
564.985	1023
565.46	1019
565.936	1044
566.411	1046
566.887	1039
567.362	1043
567.838	1048
568.313	1056
568.789	1043
569.265	1044
569.74	1056
570.216	1044
570.692	1064
571.168	1062
571.644	1062
572.12	1065
572.596	1073
573.071	1075
573.547	1102
574.024	1113
574.5	1130
574.976	1138
575.452	1158
575.928	1171
576.404	1167
576.881	1208
577.357	1186
577.833	1195
578.31	1233
578.786	1246
579.262	1271
579.739	1258
580.215	1293
580.692	1288
581.169	1287
581.645	1282
582.122	1317
582.598	1320
583.075	1320
583.552	1335
584.029	1330
584.506	1328
584.982	1324
585.459	1344
585.936	1333
586.413	1343
586.89	1368
587.367	1346
587.844	1374
588.321	1369
588.799	1375
589.276	1359
589.753	1381
590.23	1385
590.707	1389
591.185	1390
591.662	1394
592.139	1421
592.617	1444
593.094	1445
593.572	1446
594.049	1463
594.527	1487
595.004	1492
595.482	1527
595.96	1508
596.437	1509
596.915	1556
597.393	1538
597.871	1569
598.349	1548
598.826	1579
599.304	1585
599.782	1616
600.26	1591
600.738	1634
601.216	1624
601.694	1641
602.173	1661
602.651	1663
603.129	1636
603.607	1659
604.085	1685
604.564	1676
605.042	1682
605.52	1679
605.999	1718
606.477	1682
606.956	1688
607.434	1706.5
607.913	1725
608.391	1731
608.87	1721
609.348	1700
609.827	1710
610.306	1726
610.785	1740
611.263	1743
611.742	1716
612.221	1689
612.7	1704
613.179	1728
613.658	1699
614.137	1732
614.616	1729
615.095	1701
615.574	1730
616.053	1757
616.532	1738
617.011	1745
617.491	1754
617.97	1761
618.449	1794
618.928	1813
619.408	1795
619.887	1814
620.367	1821
620.846	1852
621.326	1839
621.805	1884
622.285	1881
622.764	1905
623.244	1909
623.724	1927
624.203	1940
624.683	1901
625.163	1935
625.643	1935
626.123	1923
626.602	1962
627.082	1925
627.562	1928
628.042	1977
628.522	1949
629.002	1936
629.482	1948
629.963	1952
630.443	1943
630.923	1949
631.403	1941
631.883	1941
632.364	1958
632.844	1934
633.324	1947
633.805	1953
634.285	1931
634.766	1931
635.246	1932
635.727	1946
636.207	1964
636.688	1971
637.168	1956
637.649	1930
638.13	1929
638.611	1951
639.091	1953
639.572	1938
640.053	1933
640.534	1954
641.015	1954
641.496	1934
641.977	1971
642.458	1952
642.939	1952
643.42	1953
643.901	1958
644.382	1974
644.863	1971
645.345	1974
645.826	1967
646.307	1970
646.788	2009
647.27	1979
647.751	1993
648.233	2009
648.714	1962
649.196	2012
649.677	2018
650.159	2014
650.64	1988
651.122	2037
651.603	2011
652.085	2036
652.567	2032
653.049	2007
653.53	2005
654.012	2041
654.494	2011
654.976	2038
655.458	2035
655.94	2037
656.422	2069
656.904	2043
657.386	2022
657.868	2021
658.35	2008
658.833	2024
659.315	2040
659.797	2015
660.279	2016
660.762	2038
661.244	2009
661.726	1988
662.209	1990
662.691	1984
663.174	1939
663.656	1953
664.139	1961
664.621	1945
665.104	1934
665.587	1960
666.069	1973
666.552	1974
667.035	1948
667.517	1965
668	1973
668.483	1970
668.966	1961
669.449	1944
669.932	1958
670.415	1982
670.898	1962
671.381	1961
671.864	1985
672.347	1971
672.83	1969
673.313	1978
673.797	1976
674.28	2018
674.763	2020
675.247	2043
675.73	2032
676.213	2044
676.697	2052
677.18	2046
677.664	2055
678.147	2061
678.631	2063
679.114	2083
679.598	2077
680.082	2096
680.565	2108
681.049	2102
681.533	2102
682.017	2116
682.5	2106
682.984	2112
683.468	2102
683.952	2069
684.436	2117
684.92	2101
685.404	2111
685.888	2133
686.372	2122
686.856	2128
687.341	2149
687.825	2111
688.309	2124
688.793	2126
689.278	2093
689.762	2113
690.246	2099
690.731	2107
691.215	2133
691.7	2088
692.184	2110
692.669	2096
693.153	2109
693.638	2079
694.122	2078
694.607	2094
695.092	2080
695.577	2115
696.061	2065
696.546	2063
697.031	2064
697.516	2080
698.001	2084
698.486	2067
698.971	2101
699.456	2053
699.941	2058
700.426	2048
700.911	2067
701.396	2063
701.881	2084
702.366	2074
702.852	2067
703.337	2075
703.822	2067
704.308	2058
704.793	2080
705.278	2084
705.764	2097
706.249	2086
706.735	2075
707.22	2090
707.706	2050
708.191	2086
708.677	2095
709.163	2078
709.648	2104
710.134	2128
710.62	2101
711.106	2113
711.592	2156
712.077	2148
712.563	2094
713.049	2084
713.535	2128
714.021	2122
714.507	2110
714.993	2084
715.479	2105
715.966	2074
716.452	2083
716.938	2079
717.424	2028
717.91	2083
718.397	2077
718.883	2056
719.369	2061
719.856	2042
720.342	2065
720.829	2050
721.315	2065
721.802	2046
722.288	2056
722.775	1970
723.262	1920
723.748	2005
724.235	1994
724.722	2027
725.208	1992
725.695	1987
726.182	1973
726.669	1951
727.156	1957
727.643	1939
728.13	1937
728.617	1917
729.104	1917
729.591	1904
730.078	1917
730.565	1923
731.052	1891
731.539	1892
732.027	1889
732.514	1869
733.001	1896
733.488	1885
733.976	1877
734.463	1880
734.951	1880
735.438	1898
735.926	1888
736.413	1918
736.901	1901
737.388	1928
737.876	1921
738.364	1918
738.851	1931
739.339	1913
739.827	1929
740.314	1867
740.802	1883
741.29	1897
741.778	1876
742.266	1879
742.754	1884
743.242	1904
743.73	1850
744.218	1857
744.706	1833
745.194	1855
745.682	1834
746.17	1834
746.659	1843
747.147	1799
747.635	1810
748.123	1809
748.612	1785
749.1	1772
749.589	1794
750.077	1771
750.566	1760
751.054	1773
751.543	1777
752.031	1743
752.52	1739
753.008	1709
753.497	1719
753.986	1713
754.474	1701
754.963	1725
755.452	1700
755.941	1701
756.43	1696
756.919	1693
757.408	1680
757.896	1672
758.385	1679
758.875	1661
759.364	1652
759.853	1650
760.342	1616
760.831	1649
761.32	1646
761.809	1610
762.299	1626
762.788	1637
763.277	1625
763.767	1598
764.256	1610
764.745	1581
765.235	1608
765.724	1562
766.214	1587
766.703	1578
767.193	1554
767.683	1566
768.172	1539
768.662	1555
769.152	1544
769.641	1549
770.131	1507
770.621	1529
771.111	1504
771.601	1497
772.09	1478
772.58	1475
773.07	1477
773.56	1485
774.05	1464
774.54	1463
775.031	1456
775.521	1441
776.011	1434
776.501	1445
776.991	1412
777.482	1426
777.972	1388
778.462	1388
778.953	1410
779.443	1391
779.933	1381
780.424	1365
780.914	1377
781.405	1390
781.895	1369
782.386	1368
782.877	1363
783.367	1338
783.858	1334
784.349	1334
784.839	1321
785.33	1324
785.821	1320
786.312	1316
786.803	1317
787.293	1329
787.784	1310
788.275	1292
788.766	1276
789.257	1303
789.748	1274
790.24	1272
790.731	1285
791.222	1262
791.713	1251
792.204	1260
792.696	1230
793.187	1231
793.678	1219
794.169	1184
794.661	1195
795.152	1185
795.644	1180
796.135	1180
796.627	1192
797.118	1175
797.61	1165
798.101	1140
798.593	1151
799.085	1144
799.576	1141
800.068	1122
800.56	1120
801.052	1096
801.544	1097
802.035	1106
802.527	1081
803.019	1077
803.511	1066
804.003	1058
804.495	1061
804.987	1038
805.479	1021
805.971	1044
806.464	1043
806.956	1019
807.448	1020
807.94	1021
808.433	1014
808.925	1011
809.417	997
809.91	990
810.402	960
810.894	967
811.387	973
811.879	960
812.372	978
812.865	963
813.357	961
813.85	958
814.342	955
814.835	943
815.328	941
815.821	920
816.313	926
816.806	939
817.299	927
817.792	940
818.285	925
818.778	938
819.271	933
819.764	916
820.257	926
820.75	929
821.243	924
821.736	921
822.229	930
822.722	929
823.216	943
