Data from lamp5bck_Subt4__32__287.txt Node

Date: Wed Apr 09 10:15:47 CEST 2025
User: fys-lab-0081
Spectrometer: S04999
Trigger mode: 0
Resolution mode: 1024 pixels
Integration Time (sec): 1.000000E-1
Scans to average: 1
Nonlinearity correction enabled: false
Boxcar width: 0
Baseline correction enabled: true
XAxis mode: Wavelengths
Number of Pixels in Spectrum: 1024
>>>>>Begin Spectral Data<<<<<
336.42	0
336.877	1
337.334	-1
337.792	2
338.249	3
338.706	-1
339.164	-5
339.621	-1
340.079	3
340.536	3
340.994	7
341.452	-3
341.909	1
342.367	-1
342.825	1
343.283	2
343.741	-3
344.198	2
344.656	3
345.114	-3
345.572	2
346.03	5
346.488	2
346.947	2
347.405	3
347.863	1
348.321	2
348.779	0
349.238	2
349.696	1
350.154	-2
350.613	2
351.071	1
351.53	5
351.988	2
352.447	1
352.905	-1
353.364	-3
353.823	-1
354.282	0
354.74	-3
355.199	0
355.658	4
356.117	3
356.576	3
357.035	0
357.494	0
357.953	7
358.412	3
358.871	-5
359.33	3
359.789	4
360.249	-2
360.708	7
361.167	-2
361.626	6
362.086	1
362.545	6
363.005	7
363.464	0
363.924	1
364.383	8
364.843	-1
365.303	-1
365.762	2
366.222	1
366.682	3
367.142	7
367.601	2
368.061	5
368.521	4
368.981	4
369.441	9
369.901	9
370.361	5
370.821	1
371.282	1
371.742	2
372.202	9
372.662	9
373.123	4
373.583	-1
374.043	8
374.504	0
374.964	4
375.425	2
375.885	4
376.346	7
376.806	4
377.267	8
377.728	6
378.188	2
378.649	5
379.11	5
379.571	4
380.032	2
380.493	2
380.954	6
381.414	1
381.876	4
382.337	8
382.798	9
383.259	13
383.72	9
384.181	8
384.642	6
385.104	13
385.565	21
386.026	6
386.488	10
386.949	11
387.411	9
387.872	6
388.334	8
388.795	11
389.257	11
389.719	11
390.181	8
390.642	15
391.104	12
391.566	9
392.028	17
392.49	10
392.952	15
393.414	13
393.876	11
394.338	14
394.8	15
395.262	12
395.724	14
396.186	19
396.648	15
397.111	13
397.573	15
398.035	13
398.498	19
398.96	13
399.423	14
399.885	17
400.348	20
400.81	25
401.273	12
401.736	22
402.198	21
402.661	18
403.124	18
403.587	19
404.049	20.5
404.512	22
404.975	24
405.438	22
405.901	19
406.364	23
406.827	23
407.29	26
407.754	26
408.217	26
408.68	22
409.143	23
409.607	28
410.07	25
410.533	25
410.997	24
411.46	24
411.924	21
412.387	28
412.851	26
413.314	29
413.778	27
414.242	31
414.705	30
415.169	32
415.633	29
416.097	33
416.561	31
417.024	34
417.488	37
417.952	33
418.416	38
418.88	33
419.344	30
419.809	29
420.273	34
420.737	37
421.201	28
421.665	32
422.13	35
422.594	37
423.059	41
423.523	38
423.987	40
424.452	39
424.916	43
425.381	42
425.846	43
426.31	40
426.775	40
427.24	49
427.704	37
428.169	43
428.634	46
429.099	47
429.564	47
430.029	46
430.494	49
430.959	48
431.424	45
431.889	50
432.354	49
432.819	47
433.284	45
433.75	49
434.215	51
434.68	57
435.146	55
435.611	63
436.077	60
436.542	60
437.008	61
437.473	62
437.939	65
438.404	64
438.87	67
439.336	64
439.801	66
440.267	62
440.733	72
441.199	73
441.665	63
442.131	72
442.596	70
443.062	66
443.529	75
443.995	75
444.461	75
444.927	85
445.393	79
445.859	80
446.325	88
446.792	96
447.258	97
447.724	97
448.191	97
448.657	100
449.124	104
449.59	103
450.057	116
450.523	108
450.99	110
451.457	105
451.923	116
452.39	109
452.857	116
453.324	110
453.791	119
454.257	121
454.724	115
455.191	120
455.658	115
456.125	128
456.592	123
457.059	128
457.527	131
457.994	132
458.461	130
458.928	139
459.396	135
459.863	137
460.33	139
460.798	142
461.265	141
461.732	145
462.2	142
462.668	146
463.135	150
463.603	145
464.07	143
464.538	146
465.006	150
465.474	147
465.941	145
466.409	145
466.877	144
467.345	155
467.813	151
468.281	150
468.749	149
469.217	154
469.685	157
470.153	160
470.621	160
471.09	160
471.558	160
472.026	165
472.494	173
472.963	177
473.431	182
473.9	184
474.368	191
474.837	192
475.305	189
475.774	202
476.242	212
476.711	205
477.18	213
477.648	215
478.117	213
478.586	217
479.055	212
479.524	217
479.993	212
480.462	213
480.93	217
481.399	215
481.869	217
482.338	222
482.807	219
483.276	216
483.745	228
484.214	223
484.684	232
485.153	233
485.622	230
486.092	239
486.561	238
487.031	239
487.5	248
487.97	257
488.439	267
488.909	268
489.378	273
489.848	277
490.318	290
490.787	293
491.257	299
491.727	298
492.197	307
492.667	306
493.137	306
493.607	307
494.077	317
494.547	311
495.017	319
495.487	320
495.957	327
496.427	323
496.897	321
497.368	331
497.838	326
498.308	333
498.779	332
499.249	337
499.719	339
500.19	343
500.66	347
501.131	350
501.602	351
502.072	353
502.543	362
503.014	370
503.484	376
503.955	385
504.426	406
504.897	406
505.368	416
505.838	422
506.309	433
506.78	447
507.251	459
507.722	469
508.194	480
508.665	477
509.136	478
509.607	501
510.078	500
510.549	505
511.021	520
511.492	522
511.964	528
512.435	536
512.906	531
513.378	542
513.849	551
514.321	557
514.793	563
515.264	563
515.736	573
516.208	584
516.679	585
517.151	593
517.623	600
518.095	609
518.567	614
519.038	628
519.51	624
519.982	645
520.454	641
520.927	653
521.399	658
521.871	676
522.343	676
522.815	679
523.287	679
523.76	691
524.232	708
524.704	709
525.177	707
525.649	708
526.122	715
526.594	706
527.067	723
527.539	731
528.012	722
528.484	726
528.957	725
529.43	723
529.903	715
530.375	743
530.848	729
531.321	745
531.794	738
532.267	758
532.74	751
533.213	745
533.686	766
534.159	762
534.632	780
535.105	791
535.578	795
536.051	803
536.525	808
536.998	811
537.471	833
537.945	817
538.418	835
538.891	836
539.365	854
539.838	856
540.312	856
540.786	859
541.259	856
541.733	870
542.206	868
542.68	863
543.154	860
543.628	863
544.101	891
544.575	883
545.049	860
545.523	876
545.997	881
546.471	881
546.945	875
547.419	896
547.893	868
548.367	880
548.842	870
549.316	873
549.79	885
550.264	882
550.739	893
551.213	887
551.687	893
552.162	904
552.636	899
553.111	896
553.585	919
554.06	917
554.534	929
555.009	921
555.484	940
555.958	960
556.433	960
556.908	975
557.383	964
557.858	986
558.333	998
558.807	992
559.282	993
559.757	1023
560.232	1027
560.708	1012
561.183	1001
561.658	1020
562.133	1020
562.608	1011
563.083	1039
563.559	1004
564.034	1025
564.509	1026
564.985	1028
565.46	1019
565.936	1042
566.411	1049
566.887	1033
567.362	1046
567.838	1049
568.313	1056
568.789	1045
569.265	1037
569.74	1052
570.216	1049
570.692	1062
571.168	1062
571.644	1059
572.12	1066
572.596	1075
573.071	1076
573.547	1101
574.024	1114
574.5	1130
574.976	1142
575.452	1165
575.928	1170
576.404	1165
576.881	1212
577.357	1190
577.833	1199
578.31	1231
578.786	1250
579.262	1272
579.739	1258
580.215	1287
580.692	1285
581.169	1287
581.645	1286
582.122	1321
582.598	1323
583.075	1319
583.552	1334
584.029	1334
584.506	1330
584.982	1319
585.459	1346
585.936	1338
586.413	1347
586.89	1367
587.367	1353
587.844	1377
588.321	1371
588.799	1372
589.276	1361
589.753	1383
590.23	1401
590.707	1399
591.185	1393
591.662	1396
592.139	1422
592.617	1443
593.094	1440
593.572	1446
594.049	1469
594.527	1484
595.004	1499
595.482	1535
595.96	1514
596.437	1513
596.915	1554
597.393	1534
597.871	1568
598.349	1549
598.826	1582
599.304	1580
599.782	1618
600.26	1594
600.738	1635
601.216	1624
601.694	1639
602.173	1664
602.651	1658
603.129	1642
603.607	1666
604.085	1672
604.564	1685
605.042	1689
605.52	1677
605.999	1717
606.477	1683
606.956	1695
607.434	1709
607.913	1723
608.391	1729
608.87	1721
609.348	1701
609.827	1713
610.306	1722
610.785	1735
611.263	1740
611.742	1717
612.221	1690
612.7	1708
613.179	1722
613.658	1707
614.137	1735
614.616	1736
615.095	1698
615.574	1725
616.053	1758
616.532	1740
617.011	1754
617.491	1762
617.97	1768
618.449	1790
618.928	1810
619.408	1798
619.887	1821
620.367	1823
620.846	1855
621.326	1845
621.805	1884
622.285	1877
622.764	1903
623.244	1913
623.724	1920
624.203	1940
624.683	1895
625.163	1940
625.643	1940
626.123	1916
626.602	1959
627.082	1928
627.562	1929
628.042	1976
628.522	1954
629.002	1935
629.482	1946
629.963	1945
630.443	1943
630.923	1943
631.403	1944
631.883	1941
632.364	1946
632.844	1935
633.324	1947
633.805	1953
634.285	1941
634.766	1929
635.246	1940
635.727	1948
636.207	1964
636.688	1969
637.168	1955
637.649	1926
638.13	1931
638.611	1953
639.091	1954
639.572	1933
640.053	1931
640.534	1955
641.015	1956
641.496	1932
641.977	1971
642.458	1952
642.939	1955
643.42	1956
643.901	1961
644.382	1979
644.863	1972
645.345	1979
645.826	1975
646.307	1971
646.788	2008
647.27	1982
647.751	1992
648.233	2002
648.714	1958
649.196	2013
649.677	2017
650.159	2018
650.64	1994
651.122	2032
651.603	2011
652.085	2034
652.567	2030
653.049	2007
653.53	2006
654.012	2044
654.494	2014
654.976	2045
655.458	2036
655.94	2037
656.422	2075
656.904	2050
657.386	2021
657.868	2021
658.35	2012
658.833	2025
659.315	2039
659.797	2024
660.279	2021
660.762	2035
661.244	2012
661.726	1986
662.209	1987
662.691	1986
663.174	1953
663.656	1956
664.139	1963
664.621	1946
665.104	1930
665.587	1959
666.069	1971
666.552	1972
667.035	1953
667.517	1965
668	1979
668.483	1974
668.966	1959
669.449	1952
669.932	1957
670.415	1982
670.898	1972
671.381	1969
671.864	1983
672.347	1979
672.83	1973
673.313	1982
673.797	1974
674.28	2021
674.763	2022
675.247	2046
675.73	2035
676.213	2045
676.697	2050
677.18	2047
677.664	2059
678.147	2060
678.631	2070
679.114	2079
679.598	2080
680.082	2098
680.565	2111
681.049	2113
681.533	2107
682.017	2119
682.5	2106
682.984	2101
683.468	2106
683.952	2068
684.436	2118
684.92	2102
685.404	2112
685.888	2131
686.372	2119
686.856	2128
687.341	2141
687.825	2113
688.309	2127
688.793	2117
689.278	2093
689.762	2108
690.246	2102
690.731	2106
691.215	2127
691.7	2076
692.184	2101
692.669	2092
693.153	2107
693.638	2075
694.122	2076
694.607	2095
695.092	2082
695.577	2114
696.061	2075
696.546	2072
697.031	2062
697.516	2080
698.001	2082
698.486	2072
698.971	2102
699.456	2050
699.941	2051
700.426	2048
700.911	2076
701.396	2066
701.881	2079
702.366	2073
702.852	2068
703.337	2083
703.822	2068
704.308	2063
704.793	2079
705.278	2088
705.764	2103
706.249	2088
706.735	2072
707.22	2092
707.706	2053
708.191	2097
708.677	2103
709.163	2085
709.648	2100
710.134	2132
710.62	2111
711.106	2117
711.592	2160
712.077	2151
712.563	2094
713.049	2088
713.535	2131
714.021	2127
714.507	2112
714.993	2085
715.479	2100
715.966	2076
716.452	2083
716.938	2086
717.424	2025
717.91	2086
718.397	2075
718.883	2055
719.369	2065
719.856	2039
720.342	2067
720.829	2051
721.315	2063
721.802	2052
722.288	2056
722.775	1973
723.262	1921
723.748	2000
724.235	2005
724.722	2030
725.208	1997
725.695	1987
726.182	1978
726.669	1943
727.156	1962
727.643	1941
728.13	1937
728.617	1916
729.104	1917
729.591	1899
730.078	1916
730.565	1925
731.052	1889
731.539	1896
732.027	1891
732.514	1878
733.001	1891
733.488	1892
733.976	1880
734.463	1875
734.951	1881
735.438	1900
735.926	1893
736.413	1918
736.901	1908
737.388	1933
737.876	1923
738.364	1914
738.851	1930
739.339	1916
739.827	1931
740.314	1865
740.802	1886
741.29	1896
741.778	1872
742.266	1877
742.754	1895
743.242	1895
743.73	1854
744.218	1856
744.706	1839
745.194	1848
745.682	1827
746.17	1845
746.659	1846
747.147	1801
747.635	1812
748.123	1809
748.612	1780
749.1	1770
749.589	1791
750.077	1782
750.566	1765
751.054	1770
751.543	1778
752.031	1747
752.52	1741
753.008	1707
753.497	1719
753.986	1710
754.474	1703
754.963	1727
755.452	1704
755.941	1697
756.43	1697
756.919	1695
757.408	1683
757.896	1674
758.385	1679
758.875	1661
759.364	1649
759.853	1652
760.342	1627
760.831	1650
761.32	1647
761.809	1611
762.299	1629
762.788	1632
763.277	1626
763.767	1605
764.256	1602
764.745	1582
765.235	1614
765.724	1561
766.214	1584
766.703	1575
767.193	1564
767.683	1567
768.172	1533
768.662	1550
769.152	1551
769.641	1556
770.131	1511
770.621	1527
771.111	1498
771.601	1498
772.09	1492
772.58	1472
773.07	1480
773.56	1487
774.05	1471
774.54	1461
775.031	1445
775.521	1443
776.011	1431
776.501	1449
776.991	1415
777.482	1423
777.972	1401
778.462	1393
778.953	1405
779.443	1390
779.933	1378
780.424	1370
780.914	1379
781.405	1386
781.895	1374
782.386	1369
782.877	1364
783.367	1336
783.858	1323
784.349	1332
784.839	1326
785.33	1325
785.821	1327
786.312	1308
786.803	1321
787.293	1330
787.784	1307
788.275	1298
788.766	1275
789.257	1303
789.748	1272
790.24	1268
790.731	1287
791.222	1266
791.713	1254
792.204	1261
792.696	1229
793.187	1240
793.678	1219
794.169	1185
794.661	1200
795.152	1192
795.644	1183
796.135	1181
796.627	1194
797.118	1177
797.61	1162
798.101	1144
798.593	1157
799.085	1146
799.576	1146
800.068	1115
800.56	1120
801.052	1096
801.544	1099
802.035	1104
802.527	1088
803.019	1077
803.511	1070
804.003	1067
804.495	1062
804.987	1050
805.479	1023
805.971	1041
806.464	1040
806.956	1016
807.448	1024
807.94	1025
808.433	1016
808.925	1010
809.417	998
809.91	990
810.402	967
810.894	961
811.387	973
811.879	955
812.372	976
812.865	959
813.357	962
813.85	957
814.342	955
814.835	943
815.328	938
815.821	923
816.313	931
816.806	938
817.299	934
817.792	938
818.285	932
818.778	931
819.271	933
819.764	923
820.257	920
820.75	932
821.243	929
821.736	922
822.229	933
822.722	924
823.216	947
