Data from lamp5bck_Subt4__33__288.txt Node

Date: Wed Apr 09 10:15:47 CEST 2025
User: fys-lab-0081
Spectrometer: S04999
Trigger mode: 0
Resolution mode: 1024 pixels
Integration Time (sec): 1.000000E-1
Scans to average: 1
Nonlinearity correction enabled: false
Boxcar width: 0
Baseline correction enabled: true
XAxis mode: Wavelengths
Number of Pixels in Spectrum: 1024
>>>>>Begin Spectral Data<<<<<
336.42	-2
336.877	2
337.334	1
337.792	-2
338.249	2
338.706	2
339.164	-1
339.621	-1
340.079	-2
340.536	3
340.994	9
341.452	-2
341.909	0
342.367	-4
342.825	1
343.283	2
343.741	2
344.198	1
344.656	-2
345.114	2
345.572	0
346.03	0
346.488	0
346.947	-1
347.405	3
347.863	-1
348.321	3
348.779	1
349.238	3
349.696	4
350.154	2
350.613	-4
351.071	-2
351.53	4
351.988	1
352.447	0
352.905	0
353.364	-2
353.823	5
354.282	2
354.74	-2
355.199	4
355.658	4
356.117	5
356.576	8
357.035	1
357.494	0
357.953	5
358.412	8
358.871	-5
359.33	2
359.789	4
360.249	0
360.708	3
361.167	-1
361.626	3
362.086	0
362.545	2
363.005	8
363.464	1
363.924	-1
364.383	7
364.843	0
365.303	2
365.762	3
366.222	-1
366.682	1
367.142	3
367.601	7
368.061	7
368.521	6
368.981	5
369.441	8
369.901	9
370.361	5
370.821	-1
371.282	2
371.742	1
372.202	7
372.662	4
373.123	4
373.583	2
374.043	5
374.504	3
374.964	4
375.425	-2
375.885	3
376.346	5
376.806	6
377.267	9
377.728	8
378.188	3
378.649	7
379.11	6
379.571	6
380.032	3
380.493	-1
380.954	9
381.414	5
381.876	9
382.337	9
382.798	11
383.259	11
383.72	3
384.181	7
384.642	6
385.104	15
385.565	18
386.026	8
386.488	7
386.949	17
387.411	10
387.872	7
388.334	9
388.795	11
389.257	16
389.719	13
390.181	6
390.642	18
391.104	11
391.566	10
392.028	14
392.49	7
392.952	17
393.414	13
393.876	13
394.338	13
394.8	14
395.262	13
395.724	15
396.186	14
396.648	18
397.111	18
397.573	20
398.035	17
398.498	19
398.96	17
399.423	15
399.885	19
400.348	17
400.81	22
401.273	13
401.736	21
402.198	19
402.661	16
403.124	19
403.587	17
404.049	19.5
404.512	22
404.975	23
405.438	16
405.901	21
406.364	24
406.827	25
407.29	19
407.754	25
408.217	25
408.68	24
409.143	25
409.607	28
410.07	26
410.533	26
410.997	29
411.46	21
411.924	27
412.387	25
412.851	27
413.314	29
413.778	27
414.242	26
414.705	30
415.169	30
415.633	29
416.097	30
416.561	31
417.024	35
417.488	36
417.952	34
418.416	31
418.88	37
419.344	36
419.809	30
420.273	34
420.737	33
421.201	28
421.665	38
422.13	36
422.594	36
423.059	39
423.523	38
423.987	37
424.452	37
424.916	43
425.381	42
425.846	44
426.31	40
426.775	43
427.24	45
427.704	38
428.169	48
428.634	45
429.099	45
429.564	46
430.029	48
430.494	47
430.959	45
431.424	42
431.889	47
432.354	48
432.819	49
433.284	50
433.75	48
434.215	52
434.68	56
435.146	52
435.611	57
436.077	59
436.542	62
437.008	59
437.473	63
437.939	66
438.404	64
438.87	68
439.336	64
439.801	64
440.267	65
440.733	72
441.199	71
441.665	65
442.131	76
442.596	73
443.062	67
443.529	70
443.995	78
444.461	73
444.927	81
445.393	80
445.859	83
446.325	90
446.792	99
447.258	91
447.724	99
448.191	99
448.657	98
449.124	102
449.59	99
450.057	115
450.523	108
450.99	109
451.457	107
451.923	112
452.39	107
452.857	115
453.324	112
453.791	116
454.257	117
454.724	123
455.191	120
455.658	116
456.125	125
456.592	122
457.059	124
457.527	126
457.994	132
458.461	130
458.928	137
459.396	135
459.863	143
460.33	138
460.798	138
461.265	141
461.732	144
462.2	145
462.668	147
463.135	149
463.603	141
464.07	144
464.538	147
465.006	151
465.474	149
465.941	145
466.409	147
466.877	144
467.345	153
467.813	152
468.281	151
468.749	151
469.217	150
469.685	152
470.153	155
470.621	161
471.09	160
471.558	164
472.026	162
472.494	171
472.963	175
473.431	180
473.9	186
474.368	186
474.837	192
475.305	195
475.774	208
476.242	205
476.711	202
477.18	211
477.648	210
478.117	217
478.586	215
479.055	206
479.524	216
479.993	213
480.462	216
480.93	214
481.399	213
481.869	217
482.338	216
482.807	217
483.276	217
483.745	221
484.214	225
484.684	233
485.153	230
485.622	232
486.092	235
486.561	236
487.031	239
487.5	244
487.97	256
488.439	261
488.909	269
489.378	275
489.848	279
490.318	284
490.787	290
491.257	302
491.727	298
492.197	311
492.667	307
493.137	303
493.607	310
494.077	317
494.547	312
495.017	317
495.487	319
495.957	334
496.427	323
496.897	325
497.368	326
497.838	326
498.308	335
498.779	337
499.249	339
499.719	339
500.19	348
500.66	346
501.131	346
501.602	350
502.072	350
502.543	364
503.014	376
503.484	371
503.955	386
504.426	406
504.897	407
505.368	415
505.838	418
506.309	434
506.78	450
507.251	461
507.722	465
508.194	479
508.665	487
509.136	477
509.607	496
510.078	504
510.549	512
511.021	520
511.492	520
511.964	527
512.435	540
512.906	533
513.378	540
513.849	552
514.321	557
514.793	562
515.264	567
515.736	570
516.208	582
516.679	584
517.151	592
517.623	595
518.095	608
518.567	610
519.038	629
519.51	628
519.982	643
520.454	651
520.927	657
521.399	664
521.871	676
522.343	674
522.815	680
523.287	675
523.76	694
524.232	701
524.704	711
525.177	697
525.649	707
526.122	718
526.594	704
527.067	722
527.539	726
528.012	721
528.484	729
528.957	724
529.43	724
529.903	714
530.375	740
530.848	732
531.321	745
531.794	737
532.267	761
532.74	750
533.213	749
533.686	766
534.159	756
534.632	782
535.105	783
535.578	794
536.051	800
536.525	807
536.998	812
537.471	822
537.945	819
538.418	838
538.891	836
539.365	847
539.838	854
540.312	856
540.786	863
541.259	855
541.733	865
542.206	870
542.68	864
543.154	855
543.628	865
544.101	895
544.575	879
545.049	862
545.523	876
545.997	878
546.471	885
546.945	879
547.419	896
547.893	861
548.367	875
548.842	874
549.316	874
549.79	882
550.264	883
550.739	893
551.213	885
551.687	893
552.162	904
552.636	898
553.111	893
553.585	923
554.06	905
554.534	927
555.009	918
555.484	938
555.958	961
556.433	961
556.908	972
557.383	959
557.858	986
558.333	998
558.807	994
559.282	995
559.757	1024
560.232	1024
560.708	1009
561.183	1008
561.658	1020
562.133	1020
562.608	1009
563.083	1029
563.559	1008
564.034	1020
564.509	1021
564.985	1026
565.46	1018
565.936	1038
566.411	1043
566.887	1032
567.362	1044
567.838	1045
568.313	1061
568.789	1046
569.265	1040
569.74	1052
570.216	1042
570.692	1063
571.168	1060
571.644	1062
572.12	1068
572.596	1076
573.071	1078
573.547	1091
574.024	1116
574.5	1129
574.976	1142
575.452	1162
575.928	1166
576.404	1167
576.881	1211
577.357	1187
577.833	1197
578.31	1228
578.786	1253
579.262	1280
579.739	1257
580.215	1290
580.692	1286
581.169	1286
581.645	1286
582.122	1320
582.598	1318
583.075	1320
583.552	1339
584.029	1332
584.506	1329
584.982	1323
585.459	1341
585.936	1340
586.413	1347
586.89	1365
587.367	1352
587.844	1378
588.321	1369
588.799	1367
589.276	1355
589.753	1382
590.23	1396
590.707	1388
591.185	1394
591.662	1395
592.139	1417
592.617	1450
593.094	1431
593.572	1440
594.049	1467
594.527	1481
595.004	1498
595.482	1530
595.96	1511
596.437	1504
596.915	1553
597.393	1532
597.871	1571
598.349	1555
598.826	1576
599.304	1587
599.782	1618
600.26	1592
600.738	1633
601.216	1624
601.694	1639
602.173	1665
602.651	1661
603.129	1637
603.607	1662
604.085	1681
604.564	1683
605.042	1684
605.52	1674
605.999	1721
606.477	1683
606.956	1691
607.434	1706.5
607.913	1722
608.391	1726
608.87	1730
609.348	1700
609.827	1716
610.306	1721
610.785	1742
611.263	1735
611.742	1718
612.221	1690
612.7	1710
613.179	1726
613.658	1701
614.137	1733
614.616	1735
615.095	1700
615.574	1727
616.053	1756
616.532	1739
617.011	1744
617.491	1756
617.97	1761
618.449	1795
618.928	1804
619.408	1798
619.887	1820
620.367	1822
620.846	1860
621.326	1839
621.805	1882
622.285	1886
622.764	1900
623.244	1908
623.724	1937
624.203	1936
624.683	1900
625.163	1946
625.643	1934
626.123	1929
626.602	1959
627.082	1926
627.562	1927
628.042	1980
628.522	1952
629.002	1943
629.482	1948
629.963	1949
630.443	1938
630.923	1947
631.403	1940
631.883	1941
632.364	1955
632.844	1940
633.324	1954
633.805	1962
634.285	1935
634.766	1930
635.246	1935
635.727	1949
636.207	1960
636.688	1968
637.168	1961
637.649	1933
638.13	1922
638.611	1957
639.091	1957
639.572	1936
640.053	1933
640.534	1954
641.015	1963
641.496	1935
641.977	1967
642.458	1945
642.939	1949
643.42	1958
643.901	1959
644.382	1973
644.863	1968
645.345	1978
645.826	1965
646.307	1967
646.788	2012
647.27	1988
647.751	1990
648.233	2009
648.714	1962
649.196	2013
649.677	2020
650.159	2022
650.64	1999
651.122	2026
651.603	2013
652.085	2036
652.567	2038
653.049	2010
653.53	2006
654.012	2039
654.494	2009
654.976	2039
655.458	2041
655.94	2037
656.422	2078
656.904	2052
657.386	2022
657.868	2023
658.35	2017
658.833	2028
659.315	2043
659.797	2021
660.279	2019
660.762	2032
661.244	2013
661.726	1983
662.209	1991
662.691	1979
663.174	1941
663.656	1962
664.139	1961
664.621	1943
665.104	1933
665.587	1964
666.069	1978
666.552	1971
667.035	1946
667.517	1959
668	1976
668.483	1976
668.966	1958
669.449	1945
669.932	1959
670.415	1976
670.898	1965
671.381	1966
671.864	1985
672.347	1976
672.83	1974
673.313	1976
673.797	1978
674.28	2016
674.763	2028
675.247	2040
675.73	2032
676.213	2051
676.697	2052
677.18	2048
677.664	2062
678.147	2066
678.631	2069
679.114	2090
679.598	2080
680.082	2100
680.565	2105
681.049	2112
681.533	2102
682.017	2119
682.5	2101
682.984	2112
683.468	2105
683.952	2066
684.436	2114
684.92	2105
685.404	2104
685.888	2133
686.372	2120
686.856	2125
687.341	2149
687.825	2115
688.309	2124
688.793	2122
689.278	2087
689.762	2111
690.246	2093
690.731	2110
691.215	2135
691.7	2085
692.184	2107
692.669	2097
693.153	2108
693.638	2080
694.122	2075
694.607	2098
695.092	2080
695.577	2112
696.061	2071
696.546	2067
697.031	2058
697.516	2081
698.001	2082
698.486	2069
698.971	2106
699.456	2056
699.941	2056
700.426	2047
700.911	2078
701.396	2069
701.881	2081
702.366	2074
702.852	2069
703.337	2073
703.822	2068
704.308	2058
704.793	2076
705.278	2085
705.764	2102
706.249	2097
706.735	2074
707.22	2092
707.706	2055
708.191	2093
708.677	2098
709.163	2090
709.648	2101
710.134	2134
710.62	2109
711.106	2118
711.592	2154
712.077	2149
712.563	2095
713.049	2091
713.535	2133
714.021	2121
714.507	2112
714.993	2085
715.479	2100
715.966	2082
716.452	2085
716.938	2081
717.424	2031
717.91	2087
718.397	2080
718.883	2060
719.369	2063
719.856	2046
720.342	2069
720.829	2048
721.315	2064
721.802	2053
722.288	2060
722.775	1968
723.262	1915
723.748	2005
724.235	1999
724.722	2033
725.208	1984
725.695	1989
726.182	1983
726.669	1946
727.156	1954
727.643	1940
728.13	1939
728.617	1919
729.104	1922
729.591	1902
730.078	1912
730.565	1920
731.052	1889
731.539	1892
732.027	1883
732.514	1871
733.001	1898
733.488	1889
733.976	1878
734.463	1879
734.951	1875
735.438	1895
735.926	1889
736.413	1918
736.901	1905
737.388	1931
737.876	1928
738.364	1919
738.851	1929
739.339	1914
739.827	1929
740.314	1874
740.802	1891
741.29	1899
741.778	1871
742.266	1882
742.754	1890
743.242	1904
743.73	1859
744.218	1853
744.706	1834
745.194	1846
745.682	1835
746.17	1840
746.659	1845
747.147	1802
747.635	1812
748.123	1814
748.612	1783
749.1	1777
749.589	1791
750.077	1783
750.566	1771
751.054	1769
751.543	1777
752.031	1745
752.52	1733
753.008	1719
753.497	1731
753.986	1711
754.474	1698
754.963	1725
755.452	1708
755.941	1697
756.43	1702
756.919	1695
757.408	1682
757.896	1677
758.385	1677
758.875	1665
759.364	1648
759.853	1651
760.342	1619
760.831	1650
761.32	1653
761.809	1612
762.299	1627
762.788	1638
763.277	1625
763.767	1604
764.256	1603
764.745	1585
765.235	1614
765.724	1560
766.214	1583
766.703	1574
767.193	1563
767.683	1567
768.172	1536
768.662	1554
769.152	1549
769.641	1554
770.131	1507
770.621	1527
771.111	1503
771.601	1499
772.09	1485
772.58	1478
773.07	1482
773.56	1495
774.05	1462
774.54	1458
775.031	1451
775.521	1437
776.011	1430
776.501	1446
776.991	1413
777.482	1426
777.972	1392
778.462	1391
778.953	1401
779.443	1389
779.933	1382
780.424	1368
780.914	1379
781.405	1388
781.895	1374
782.386	1374
782.877	1364
783.367	1335
783.858	1333
784.349	1333
784.839	1322
785.33	1323
785.821	1323
786.312	1314
786.803	1324
787.293	1329
787.784	1308
788.275	1292
788.766	1279
789.257	1307
789.748	1276
790.24	1269
790.731	1285
791.222	1261
791.713	1254
792.204	1259
792.696	1227
793.187	1239
793.678	1221
794.169	1184
794.661	1199
795.152	1188
795.644	1178
796.135	1186
796.627	1197
797.118	1174
797.61	1165
798.101	1143
798.593	1157
799.085	1142
799.576	1149
800.068	1126
800.56	1122
801.052	1096
801.544	1096
802.035	1106
802.527	1085
803.019	1078
803.511	1070
804.003	1059
804.495	1064
804.987	1051
805.479	1021
805.971	1040
806.464	1039
806.956	1020
807.448	1022
807.94	1028
808.433	1009
808.925	1013
809.417	993
809.91	988
810.402	961
810.894	964
811.387	973
811.879	964
812.372	980
812.865	964
813.357	961
813.85	959
814.342	944
814.835	950
815.328	937
815.821	926
816.313	928
816.806	941
817.299	929
817.792	937
818.285	927
818.778	931
819.271	935
819.764	917
820.257	927
820.75	924
821.243	922
821.736	921
822.229	934
822.722	923
823.216	946
