Data from lamp5bck_Subt4__92__347.txt Node

Date: Wed Apr 09 10:15:54 CEST 2025
User: fys-lab-0081
Spectrometer: S04999
Trigger mode: 0
Resolution mode: 1024 pixels
Integration Time (sec): 1.000000E-1
Scans to average: 1
Nonlinearity correction enabled: false
Boxcar width: 0
Baseline correction enabled: true
XAxis mode: Wavelengths
Number of Pixels in Spectrum: 1024
>>>>>Begin Spectral Data<<<<<
336.42	0
336.877	1
337.334	1
337.792	3
338.249	1
338.706	2
339.164	0
339.621	1
340.079	5
340.536	7
340.994	7
341.452	0
341.909	0
342.367	-3
342.825	1
343.283	1
343.741	4
344.198	-1
344.656	-1
345.114	-2
345.572	4
346.03	5
346.488	3
346.947	1
347.405	5
347.863	-2
348.321	1
348.779	2
349.238	-2
349.696	2
350.154	2
350.613	-3
351.071	-1
351.53	4
351.988	3
352.447	3
352.905	-5
353.364	-1
353.823	0
354.282	2
354.74	-5
355.199	1
355.658	2
356.117	5
356.576	1
357.035	1
357.494	4
357.953	3
358.412	4
358.871	-4
359.33	-1
359.789	1
360.249	-2
360.708	3
361.167	5
361.626	5
362.086	4
362.545	5
363.005	9
363.464	-4
363.924	1
364.383	7
364.843	3
365.303	4
365.762	0
366.222	2
366.682	4
367.142	1
367.601	0
368.061	-2
368.521	4
368.981	0
369.441	7
369.901	9
370.361	0
370.821	2
371.282	8
371.742	8
372.202	5
372.662	5
373.123	7
373.583	5
374.043	2
374.504	-1
374.964	4
375.425	3
375.885	0
376.346	4
376.806	4
377.267	6
377.728	8
378.188	4
378.649	3
379.11	5
379.571	5
380.032	5
380.493	6
380.954	7
381.414	4
381.876	5
382.337	5
382.798	11
383.259	13
383.72	7
384.181	7
384.642	5
385.104	8
385.565	18
386.026	10
386.488	5
386.949	10
387.411	12
387.872	6
388.334	13
388.795	9
389.257	14
389.719	14
390.181	10
390.642	13
391.104	10
391.566	6
392.028	18
392.49	8
392.952	14
393.414	14
393.876	11
394.338	13
394.8	14
395.262	11
395.724	15
396.186	15
396.648	17
397.111	14
397.573	19
398.035	16
398.498	16
398.96	14
399.423	16
399.885	25
400.348	19
400.81	23
401.273	15
401.736	20
402.198	23
402.661	17
403.124	20
403.587	19
404.049	21
404.512	23
404.975	21
405.438	21
405.901	21
406.364	26
406.827	24
407.29	25
407.754	24
408.217	31
408.68	18
409.143	22
409.607	28
410.07	25
410.533	23
410.997	22
411.46	23
411.924	29
412.387	25
412.851	23
413.314	27
413.778	25
414.242	30
414.705	31
415.169	24
415.633	31
416.097	31
416.561	33
417.024	38
417.488	38
417.952	33
418.416	38
418.88	32
419.344	34
419.809	32
420.273	36
420.737	36
421.201	29
421.665	38
422.13	40
422.594	37
423.059	38
423.523	35
423.987	40
424.452	39
424.916	43
425.381	45
425.846	40
426.31	42
426.775	43
427.24	42
427.704	41
428.169	47
428.634	49
429.099	46
429.564	44
430.029	46
430.494	49
430.959	45
431.424	45
431.889	46
432.354	49
432.819	47
433.284	46
433.75	45
434.215	53
434.68	54
435.146	53
435.611	56
436.077	59
436.542	55
437.008	64
437.473	58
437.939	64
438.404	67
438.87	69
439.336	62
439.801	62
440.267	61
440.733	76
441.199	71
441.665	64
442.131	73
442.596	74
443.062	67
443.529	78
443.995	72
444.461	75
444.927	86
445.393	82
445.859	85
446.325	89
446.792	93
447.258	97
447.724	94
448.191	96
448.657	95
449.124	106
449.59	103
450.057	115
450.523	110
450.99	111
451.457	110
451.923	114
452.39	112
452.857	114
453.324	110
453.791	115
454.257	122
454.724	120
455.191	120
455.658	116
456.125	125
456.592	126
457.059	124
457.527	125
457.994	132
458.461	133
458.928	134
459.396	133
459.863	139
460.33	142
460.798	142
461.265	140
461.732	143
462.2	140
462.668	148
463.135	150
463.603	143
464.07	147
464.538	144
465.006	155
465.474	148
465.941	147
466.409	146
466.877	146
467.345	151
467.813	153
468.281	150
468.749	151
469.217	153
469.685	155
470.153	156
470.621	160
471.09	162
471.558	166
472.026	166
472.494	170
472.963	175
473.431	183
473.9	184
474.368	189
474.837	192
475.305	198
475.774	198
476.242	210
476.711	203
477.18	214
477.648	208
478.117	218
478.586	214
479.055	209
479.524	213
479.993	214
480.462	213
480.93	215
481.399	213
481.869	218
482.338	217
482.807	218
483.276	217
483.745	224
484.214	224
484.684	231
485.153	231
485.622	230
486.092	241
486.561	239
487.031	241
487.5	244
487.97	257
488.439	264
488.909	266
489.378	276
489.848	280
490.318	284
490.787	293
491.257	301
491.727	297
492.197	308
492.667	305
493.137	307
493.607	310
494.077	320
494.547	312
495.017	319
495.487	321
495.957	330
496.427	322
496.897	319
497.368	329
497.838	331
498.308	330
498.779	338
499.249	337
499.719	342
500.19	345
500.66	347
501.131	348
501.602	358
502.072	352
502.543	361
503.014	377
503.484	376
503.955	384
504.426	405
504.897	408
505.368	412
505.838	418
506.309	432
506.78	447
507.251	459
507.722	465
508.194	480
508.665	481
509.136	484
509.607	494
510.078	506
510.549	508
511.021	524
511.492	521
511.964	528
512.435	536
512.906	530
513.378	539
513.849	555
514.321	559
514.793	564
515.264	567
515.736	575
516.208	583
516.679	588
517.151	594
517.623	599
518.095	611
518.567	614
519.038	625
519.51	630
519.982	643
520.454	648
520.927	648
521.399	662
521.871	683
522.343	681
522.815	681
523.287	679
523.76	694
524.232	702
524.704	712
525.177	700
525.649	703
526.122	717
526.594	707
527.067	724
527.539	731
528.012	725
528.484	725
528.957	728
529.43	723
529.903	715
530.375	743
530.848	733
531.321	747
531.794	738
532.267	758
532.74	751
533.213	751
533.686	759
534.159	758
534.632	784
535.105	792
535.578	795
536.051	800
536.525	801
536.998	808
537.471	831
537.945	819
538.418	840
538.891	835
539.365	846
539.838	853
540.312	857
540.786	866
541.259	859
541.733	860
542.206	875
542.68	863
543.154	857
543.628	861
544.101	898
544.575	884
545.049	865
545.523	877
545.997	883
546.471	887
546.945	877
547.419	897
547.893	867
548.367	876
548.842	872
549.316	871
549.79	892
550.264	882
550.739	897
551.213	887
551.687	895
552.162	899
552.636	898
553.111	898
553.585	923
554.06	909
554.534	926
555.009	920
555.484	948
555.958	960
556.433	958
556.908	969
557.383	964
557.858	990
558.333	996
558.807	991
559.282	995
559.757	1018
560.232	1029
560.708	1013
561.183	1008
561.658	1018
562.133	1022
562.608	1009
563.083	1039
563.559	1005
564.034	1025
564.509	1022
564.985	1023
565.46	1025
565.936	1046
566.411	1047
566.887	1046
567.362	1043
567.838	1047
568.313	1060
568.789	1042
569.265	1041
569.74	1054
570.216	1043
570.692	1065
571.168	1063
571.644	1059
572.12	1062
572.596	1076
573.071	1083
573.547	1101
574.024	1114
574.5	1129
574.976	1132
575.452	1163
575.928	1168
576.404	1168
576.881	1208
577.357	1192
577.833	1199
578.31	1230
578.786	1247
579.262	1275
579.739	1257
580.215	1290
580.692	1289
581.169	1285
581.645	1287
582.122	1322
582.598	1326
583.075	1320
583.552	1337
584.029	1338
584.506	1329
584.982	1320
585.459	1341
585.936	1333
586.413	1343
586.89	1366
587.367	1351
587.844	1376
588.321	1369
588.799	1375
589.276	1357
589.753	1383
590.23	1396
590.707	1397
591.185	1393
591.662	1394
592.139	1421
592.617	1448
593.094	1444
593.572	1447
594.049	1466
594.527	1482
595.004	1504
595.482	1530
595.96	1516
596.437	1510
596.915	1568
597.393	1535
597.871	1568
598.349	1550
598.826	1581
599.304	1586
599.782	1621
600.26	1594
600.738	1631
601.216	1625
601.694	1642
602.173	1658
602.651	1663
603.129	1639
603.607	1666
604.085	1681
604.564	1685
605.042	1684
605.52	1677
605.999	1728
606.477	1684
606.956	1694
607.434	1712.5
607.913	1731
608.391	1733
608.87	1728
609.348	1704
609.827	1711
610.306	1733
610.785	1738
611.263	1740
611.742	1725
612.221	1689
612.7	1713
613.179	1726
613.658	1705
614.137	1736
614.616	1740
615.095	1703
615.574	1729
616.053	1756
616.532	1736
617.011	1748
617.491	1756
617.97	1765
618.449	1797
618.928	1820
619.408	1795
619.887	1816
620.367	1828
620.846	1855
621.326	1841
621.805	1888
622.285	1893
622.764	1901
623.244	1912
623.724	1927
624.203	1934
624.683	1903
625.163	1940
625.643	1935
626.123	1920
626.602	1958
627.082	1929
627.562	1930
628.042	1969
628.522	1952
629.002	1937
629.482	1948
629.963	1944
630.443	1945
630.923	1946
631.403	1940
631.883	1950
632.364	1948
632.844	1935
633.324	1954
633.805	1955
634.285	1936
634.766	1930
635.246	1939
635.727	1946
636.207	1973
636.688	1971
637.168	1964
637.649	1930
638.13	1928
638.611	1948
639.091	1958
639.572	1935
640.053	1938
640.534	1959
641.015	1961
641.496	1930
641.977	1970
642.458	1946
642.939	1948
643.42	1956
643.901	1963
644.382	1980
644.863	1971
645.345	1976
645.826	1966
646.307	1971
646.788	2008
647.27	1989
647.751	1992
648.233	2007
648.714	1961
649.196	2022
649.677	2018
650.159	2018
650.64	1996
651.122	2030
651.603	2011
652.085	2038
652.567	2040
653.049	2012
653.53	2010
654.012	2040
654.494	2013
654.976	2040
655.458	2040
655.94	2048
656.422	2076
656.904	2046
657.386	2030
657.868	2031
658.35	2010
658.833	2031
659.315	2047
659.797	2016
660.279	2027
660.762	2035
661.244	2013
661.726	1985
662.209	1992
662.691	1987
663.174	1947
663.656	1953
664.139	1965
664.621	1947
665.104	1933
665.587	1968
666.069	1976
666.552	1973
667.035	1945
667.517	1958
668	1974
668.483	1974
668.966	1962
669.449	1950
669.932	1951
670.415	1986
670.898	1966
671.381	1968
671.864	1983
672.347	1977
672.83	1979
673.313	1983
673.797	1976
674.28	2011
674.763	2027
675.247	2042
675.73	2030
676.213	2046
676.697	2053
677.18	2048
677.664	2063
678.147	2055
678.631	2067
679.114	2083
679.598	2081
680.082	2098
680.565	2106
681.049	2104
681.533	2103
682.017	2118
682.5	2106
682.984	2109
683.468	2108
683.952	2075
684.436	2127
684.92	2100
685.404	2113
685.888	2121
686.372	2121
686.856	2124
687.341	2149
687.825	2119
688.309	2130
688.793	2124
689.278	2093
689.762	2104
690.246	2104
690.731	2113
691.215	2135
691.7	2081
692.184	2109
692.669	2095
693.153	2108
693.638	2081
694.122	2080
694.607	2098
695.092	2078
695.577	2116
696.061	2068
696.546	2066
697.031	2063
697.516	2084
698.001	2081
698.486	2077
698.971	2096
699.456	2055
699.941	2058
700.426	2052
700.911	2079
701.396	2072
701.881	2086
702.366	2078
702.852	2074
703.337	2083
703.822	2066
704.308	2060
704.793	2085
705.278	2093
705.764	2097
706.249	2092
706.735	2075
707.22	2089
707.706	2054
708.191	2095
708.677	2100
709.163	2084
709.648	2112
710.134	2127
710.62	2110
711.106	2115
711.592	2156
712.077	2151
712.563	2105
713.049	2094
713.535	2137
714.021	2127
714.507	2118
714.993	2095
715.479	2098
715.966	2086
716.452	2083
716.938	2082
717.424	2030
717.91	2087
718.397	2083
718.883	2066
719.369	2062
719.856	2036
720.342	2063
720.829	2053
721.315	2067
721.802	2056
722.288	2061
722.775	1969
723.262	1922
723.748	1997
724.235	2002
724.722	2034
725.208	1994
725.695	1989
726.182	1980
726.669	1950
727.156	1960
727.643	1944
728.13	1933
728.617	1919
729.104	1922
729.591	1902
730.078	1918
730.565	1921
731.052	1891
731.539	1892
732.027	1878
732.514	1871
733.001	1900
733.488	1892
733.976	1884
734.463	1881
734.951	1875
735.438	1906
735.926	1890
736.413	1917
736.901	1908
737.388	1929
737.876	1929
738.364	1916
738.851	1925
739.339	1921
739.827	1939
740.314	1878
740.802	1889
741.29	1894
741.778	1877
742.266	1880
742.754	1894
743.242	1909
743.73	1858
744.218	1858
744.706	1832
745.194	1854
745.682	1829
746.17	1837
746.659	1843
747.147	1807
747.635	1810
748.123	1803
748.612	1782
749.1	1771
749.589	1794
750.077	1786
750.566	1764
751.054	1772
751.543	1776
752.031	1748
752.52	1737
753.008	1706
753.497	1728
753.986	1714
754.474	1700
754.963	1728
755.452	1701
755.941	1700
756.43	1706
756.919	1697
757.408	1685
757.896	1681
758.385	1677
758.875	1668
759.364	1648
759.853	1653
760.342	1620
760.831	1661
761.32	1642
761.809	1618
762.299	1627
762.788	1632
763.277	1624
763.767	1598
764.256	1606
764.745	1578
765.235	1617
765.724	1565
766.214	1585
766.703	1582
767.193	1563
767.683	1566
768.172	1544
768.662	1552
769.152	1544
769.641	1552
770.131	1509
770.621	1523
771.111	1501
771.601	1499
772.09	1486
772.58	1472
773.07	1483
773.56	1492
774.05	1464
774.54	1464
775.031	1456
775.521	1439
776.011	1430
776.501	1445
776.991	1415
777.482	1426
777.972	1396
778.462	1397
778.953	1400
779.443	1394
779.933	1383
780.424	1368
780.914	1379
781.405	1386
781.895	1377
782.386	1366
782.877	1366
783.367	1337
783.858	1332
784.349	1330
784.839	1326
785.33	1323
785.821	1326
786.312	1310
786.803	1321
787.293	1332
787.784	1308
788.275	1294
788.766	1280
789.257	1301
789.748	1278
790.24	1266
790.731	1283
791.222	1261
791.713	1259
792.204	1260
792.696	1224
793.187	1237
793.678	1215
794.169	1187
794.661	1198
795.152	1186
795.644	1181
796.135	1185
796.627	1198
797.118	1179
797.61	1165
798.101	1150
798.593	1158
799.085	1142
799.576	1146
800.068	1120
800.56	1125
801.052	1094
801.544	1099
802.035	1107
802.527	1085
803.019	1075
803.511	1061
804.003	1056
804.495	1066
804.987	1050
805.479	1019
805.971	1045
806.464	1036
806.956	1022
807.448	1025
807.94	1026
808.433	1009
808.925	1007
809.417	994
809.91	988
810.402	961
810.894	966
811.387	972
811.879	957
812.372	975
812.865	967
813.357	964
813.85	953
814.342	951
814.835	948
815.328	938
815.821	916
816.313	934
816.806	935
817.299	926
817.792	936
818.285	925
818.778	937
819.271	936
819.764	918
820.257	925
820.75	925
821.243	928
821.736	918
822.229	934
822.722	926
823.216	944
