Data from lamp5bck_Subt4__22__277.txt Node

Date: Wed Apr 09 10:15:46 CEST 2025
User: fys-lab-0081
Spectrometer: S04999
Trigger mode: 0
Resolution mode: 1024 pixels
Integration Time (sec): 1.000000E-1
Scans to average: 1
Nonlinearity correction enabled: false
Boxcar width: 0
Baseline correction enabled: true
XAxis mode: Wavelengths
Number of Pixels in Spectrum: 1024
>>>>>Begin Spectral Data<<<<<
336.42	0
336.877	1
337.334	3
337.792	-2
338.249	4
338.706	-1
339.164	2
339.621	2
340.079	0
340.536	6
340.994	3
341.452	-6
341.909	1
342.367	-1
342.825	-2
343.283	2
343.741	0
344.198	2
344.656	0
345.114	-2
345.572	1
346.03	4
346.488	3
346.947	-2
347.405	5
347.863	1
348.321	3
348.779	2
349.238	2
349.696	3
350.154	1
350.613	-1
351.071	-1
351.53	4
351.988	4
352.447	1
352.905	4
353.364	-3
353.823	2
354.282	0
354.74	-3
355.199	3
355.658	2
356.117	-2
356.576	6
357.035	1
357.494	4
357.953	7
358.412	5
358.871	-2
359.33	-2
359.789	6
360.249	-1
360.708	2
361.167	3
361.626	1
362.086	-1
362.545	2
363.005	9
363.464	-2
363.924	-2
364.383	7
364.843	0
365.303	2
365.762	0
366.222	-1
366.682	1
367.142	5
367.601	5
368.061	-1
368.521	9
368.981	-1
369.441	3
369.901	8
370.361	-1
370.821	2
371.282	8
371.742	5
372.202	3
372.662	7
373.123	5
373.583	1
374.043	3
374.504	-3
374.964	4
375.425	1
375.885	5
376.346	2
376.806	-2
377.267	7
377.728	12
378.188	4
378.649	7
379.11	6
379.571	3
380.032	4
380.493	4
380.954	6
381.414	2
381.876	4
382.337	8
382.798	9
383.259	12
383.72	9
384.181	12
384.642	9
385.104	13
385.565	17
386.026	8
386.488	6
386.949	9
387.411	10
387.872	9
388.334	15
388.795	11
389.257	16
389.719	10
390.181	9
390.642	16
391.104	12
391.566	7
392.028	16
392.49	7
392.952	15
393.414	14
393.876	17
394.338	15
394.8	10
395.262	17
395.724	14
396.186	19
396.648	14
397.111	17
397.573	14
398.035	15
398.498	18
398.96	13
399.423	13
399.885	19
400.348	16
400.81	23
401.273	12
401.736	20
402.198	20
402.661	22
403.124	20
403.587	23
404.049	23
404.512	23
404.975	17
405.438	20
405.901	18
406.364	24
406.827	28
407.29	26
407.754	23
408.217	22
408.68	21
409.143	26
409.607	33
410.07	26
410.533	27
410.997	24
411.46	25
411.924	25
412.387	25
412.851	27
413.314	33
413.778	26
414.242	28
414.705	27
415.169	31
415.633	30
416.097	33
416.561	34
417.024	36
417.488	36
417.952	32
418.416	44
418.88	32
419.344	34
419.809	31
420.273	37
420.737	33
421.201	28
421.665	37
422.13	35
422.594	39
423.059	42
423.523	40
423.987	38
424.452	39
424.916	43
425.381	42
425.846	36
426.31	42
426.775	41
427.24	49
427.704	38
428.169	49
428.634	47
429.099	44
429.564	41
430.029	45
430.494	46
430.959	49
431.424	45
431.889	47
432.354	45
432.819	46
433.284	45
433.75	42
434.215	51
434.68	53
435.146	53
435.611	61
436.077	57
436.542	58
437.008	57
437.473	64
437.939	66
438.404	64
438.87	65
439.336	67
439.801	68
440.267	65
440.733	73
441.199	68
441.665	65
442.131	73
442.596	71
443.062	68
443.529	72
443.995	75
444.461	75
444.927	88
445.393	81
445.859	85
446.325	87
446.792	97
447.258	98
447.724	94
448.191	99
448.657	100
449.124	100
449.59	104
450.057	113
450.523	112
450.99	108
451.457	113
451.923	113
452.39	107
452.857	115
453.324	114
453.791	115
454.257	119
454.724	121
455.191	118
455.658	117
456.125	125
456.592	124
457.059	130
457.527	126
457.994	135
458.461	136
458.928	143
459.396	136
459.863	140
460.33	141
460.798	137
461.265	137
461.732	143
462.2	143
462.668	145
463.135	148
463.603	142
464.07	143
464.538	147
465.006	151
465.474	145
465.941	147
466.409	148
466.877	148
467.345	149
467.813	151
468.281	152
468.749	153
469.217	153
469.685	158
470.153	156
470.621	155
471.09	160
471.558	164
472.026	168
472.494	168
472.963	176
473.431	181
473.9	188
474.368	188
474.837	193
475.305	194
475.774	205
476.242	209
476.711	201
477.18	214
477.648	214
478.117	214
478.586	216
479.055	206
479.524	214
479.993	219
480.462	212
480.93	218
481.399	213
481.869	217
482.338	215
482.807	219
483.276	215
483.745	227
484.214	225
484.684	233
485.153	231
485.622	223
486.092	241
486.561	233
487.031	236
487.5	246
487.97	255
488.439	259
488.909	270
489.378	272
489.848	275
490.318	288
490.787	292
491.257	306
491.727	298
492.197	311
492.667	305
493.137	310
493.607	308
494.077	315
494.547	314
495.017	318
495.487	319
495.957	327
496.427	325
496.897	320
497.368	328
497.838	332
498.308	328
498.779	333
499.249	342
499.719	338
500.19	351
500.66	346
501.131	349
501.602	355
502.072	349
502.543	361
503.014	376
503.484	375
503.955	383
504.426	401
504.897	412
505.368	416
505.838	425
506.309	430
506.78	446
507.251	459
507.722	464
508.194	480
508.665	483
509.136	478
509.607	498
510.078	505
510.549	516
511.021	521
511.492	523
511.964	532
512.435	536
512.906	532
513.378	545
513.849	553
514.321	557
514.793	560
515.264	572
515.736	573
516.208	583
516.679	590
517.151	590
517.623	596
518.095	608
518.567	616
519.038	628
519.51	631
519.982	640
520.454	645
520.927	653
521.399	662
521.871	679
522.343	681
522.815	681
523.287	679
523.76	693
524.232	706
524.704	708
525.177	699
525.649	700
526.122	715
526.594	707
527.067	719
527.539	727
528.012	724
528.484	725
528.957	725
529.43	720
529.903	716
530.375	746
530.848	731
531.321	739
531.794	742
532.267	766
532.74	751
533.213	749
533.686	768
534.159	759
534.632	778
535.105	793
535.578	803
536.051	800
536.525	804
536.998	815
537.471	829
537.945	823
538.418	838
538.891	842
539.365	848
539.838	855
540.312	855
540.786	865
541.259	857
541.733	865
542.206	865
542.68	861
543.154	855
543.628	861
544.101	892
544.575	886
545.049	864
545.523	882
545.997	876
546.471	887
546.945	874
547.419	899
547.893	863
548.367	876
548.842	872
549.316	874
549.79	889
550.264	879
550.739	898
551.213	888
551.687	894
552.162	903
552.636	898
553.111	896
553.585	924
554.06	910
554.534	926
555.009	919
555.484	941
555.958	957
556.433	960
556.908	975
557.383	967
557.858	989
558.333	996
558.807	991
559.282	994
559.757	1021
560.232	1023
560.708	1016
561.183	1009
561.658	1021
562.133	1017
562.608	1008
563.083	1036
563.559	1006
564.034	1029
564.509	1023
564.985	1023
565.46	1018
565.936	1043
566.411	1049
566.887	1040
567.362	1048
567.838	1050
568.313	1058
568.789	1043
569.265	1040
569.74	1056
570.216	1042
570.692	1063
571.168	1070
571.644	1064
572.12	1068
572.596	1074
573.071	1079
573.547	1109
574.024	1112
574.5	1130
574.976	1143
575.452	1159
575.928	1167
576.404	1171
576.881	1205
577.357	1196
577.833	1200
578.31	1231
578.786	1251
579.262	1280
579.739	1261
580.215	1297
580.692	1289
581.169	1285
581.645	1294
582.122	1322
582.598	1320
583.075	1323
583.552	1331
584.029	1334
584.506	1336
584.982	1321
585.459	1344
585.936	1338
586.413	1349
586.89	1363
587.367	1344
587.844	1376
588.321	1368
588.799	1371
589.276	1362
589.753	1382
590.23	1394
590.707	1391
591.185	1393
591.662	1392
592.139	1415
592.617	1449
593.094	1442
593.572	1445
594.049	1469
594.527	1481
595.004	1497
595.482	1529
595.96	1511
596.437	1514
596.915	1557
597.393	1535
597.871	1566
598.349	1548
598.826	1587
599.304	1589
599.782	1616
600.26	1598
600.738	1630
601.216	1624
601.694	1643
602.173	1662
602.651	1663
603.129	1637
603.607	1660
604.085	1675
604.564	1682
605.042	1688
605.52	1681
605.999	1730
606.477	1685
606.956	1686
607.434	1703.5
607.913	1721
608.391	1731
608.87	1728
609.348	1704
609.827	1714
610.306	1721
610.785	1738
611.263	1744
611.742	1722
612.221	1690
612.7	1714
613.179	1731
613.658	1706
614.137	1737
614.616	1738
615.095	1700
615.574	1732
616.053	1753
616.532	1736
617.011	1756
617.491	1763
617.97	1761
618.449	1795
618.928	1817
619.408	1797
619.887	1814
620.367	1833
620.846	1857
621.326	1847
621.805	1888
622.285	1882
622.764	1895
623.244	1912
623.724	1928
624.203	1935
624.683	1896
625.163	1943
625.643	1939
626.123	1924
626.602	1958
627.082	1927
627.562	1931
628.042	1983
628.522	1952
629.002	1941
629.482	1949
629.963	1944
630.443	1947
630.923	1952
631.403	1950
631.883	1943
632.364	1960
632.844	1938
633.324	1960
633.805	1958
634.285	1941
634.766	1931
635.246	1934
635.727	1950
636.207	1968
636.688	1966
637.168	1957
637.649	1928
638.13	1926
638.611	1949
639.091	1951
639.572	1938
640.053	1936
640.534	1961
641.015	1961
641.496	1935
641.977	1978
642.458	1950
642.939	1952
643.42	1956
643.901	1959
644.382	1981
644.863	1972
645.345	1982
645.826	1976
646.307	1971
646.788	2007
647.27	1985
647.751	1995
648.233	2006
648.714	1966
649.196	2015
649.677	2020
650.159	2024
650.64	1997
651.122	2034
651.603	2013
652.085	2028
652.567	2038
653.049	2012
653.53	2008
654.012	2041
654.494	2014
654.976	2036
655.458	2037
655.94	2046
656.422	2079
656.904	2049
657.386	2021
657.868	2026
658.35	2021
658.833	2028
659.315	2040
659.797	2021
660.279	2023
660.762	2035
661.244	2011
661.726	1984
662.209	1987
662.691	1982
663.174	1943
663.656	1964
664.139	1968
664.621	1946
665.104	1938
665.587	1962
666.069	1979
666.552	1969
667.035	1953
667.517	1959
668	1979
668.483	1976
668.966	1961
669.449	1951
669.932	1953
670.415	1984
670.898	1970
671.381	1968
671.864	1986
672.347	1973
672.83	1974
673.313	1984
673.797	1974
674.28	2017
674.763	2018
675.247	2041
675.73	2033
676.213	2042
676.697	2048
677.18	2049
677.664	2061
678.147	2064
678.631	2073
679.114	2081
679.598	2081
680.082	2100
680.565	2108
681.049	2107
681.533	2108
682.017	2117
682.5	2107
682.984	2106
683.468	2103
683.952	2068
684.436	2118
684.92	2102
685.404	2107
685.888	2132
686.372	2116
686.856	2135
687.341	2143
687.825	2111
688.309	2129
688.793	2122
689.278	2099
689.762	2110
690.246	2102
690.731	2111
691.215	2129
691.7	2081
692.184	2105
692.669	2096
693.153	2109
693.638	2077
694.122	2076
694.607	2094
695.092	2084
695.577	2115
696.061	2065
696.546	2063
697.031	2065
697.516	2079
698.001	2090
698.486	2072
698.971	2099
699.456	2057
699.941	2057
700.426	2055
700.911	2076
701.396	2068
701.881	2084
702.366	2079
702.852	2072
703.337	2074
703.822	2065
704.308	2063
704.793	2081
705.278	2088
705.764	2097
706.249	2094
706.735	2078
707.22	2091
707.706	2055
708.191	2096
708.677	2096
709.163	2087
709.648	2103
710.134	2133
710.62	2114
711.106	2123
711.592	2153
712.077	2147
712.563	2102
713.049	2096
713.535	2132
714.021	2123
714.507	2114
714.993	2089
715.479	2101
715.966	2083
716.452	2081
716.938	2085
717.424	2034
717.91	2089
718.397	2076
718.883	2062
719.369	2061
719.856	2043
720.342	2067
720.829	2051
721.315	2065
721.802	2055
722.288	2057
722.775	1973
723.262	1918
723.748	2001
724.235	2002
724.722	2032
725.208	1989
725.695	1988
726.182	1986
726.669	1951
727.156	1962
727.643	1941
728.13	1933
728.617	1920
729.104	1924
729.591	1906
730.078	1916
730.565	1922
731.052	1892
731.539	1895
732.027	1888
732.514	1870
733.001	1894
733.488	1893
733.976	1887
734.463	1886
734.951	1876
735.438	1901
735.926	1889
736.413	1921
736.901	1906
737.388	1930
737.876	1926
738.364	1919
738.851	1927
739.339	1919
739.827	1930
740.314	1872
740.802	1883
741.29	1899
741.778	1872
742.266	1875
742.754	1887
743.242	1906
743.73	1863
744.218	1853
744.706	1836
745.194	1856
745.682	1835
746.17	1836
746.659	1846
747.147	1807
747.635	1819
748.123	1810
748.612	1785
749.1	1776
749.589	1796
750.077	1780
750.566	1766
751.054	1773
751.543	1774
752.031	1750
752.52	1740
753.008	1711
753.497	1721
753.986	1715
754.474	1706
754.963	1723
755.452	1702
755.941	1700
756.43	1698
756.919	1702
757.408	1684
757.896	1679
758.385	1677
758.875	1664
759.364	1651
759.853	1653
760.342	1620
760.831	1657
761.32	1644
761.809	1618
762.299	1624
762.788	1636
763.277	1632
763.767	1607
764.256	1613
764.745	1577
765.235	1613
765.724	1565
766.214	1590
766.703	1583
767.193	1559
767.683	1571
768.172	1542
768.662	1555
769.152	1550
769.641	1552
770.131	1511
770.621	1534
771.111	1502
771.601	1492
772.09	1488
772.58	1475
773.07	1483
773.56	1492
774.05	1461
774.54	1464
775.031	1457
775.521	1441
776.011	1434
776.501	1442
776.991	1419
777.482	1425
777.972	1391
778.462	1395
778.953	1403
779.443	1393
779.933	1383
780.424	1361
780.914	1382
781.405	1389
781.895	1372
782.386	1372
782.877	1366
783.367	1345
783.858	1333
784.349	1336
784.839	1325
785.33	1329
785.821	1323
786.312	1313
786.803	1328
787.293	1329
787.784	1312
788.275	1296
788.766	1281
789.257	1301
789.748	1279
790.24	1269
790.731	1289
791.222	1263
791.713	1258
792.204	1259
792.696	1231
793.187	1238
793.678	1219
794.169	1184
794.661	1197
795.152	1185
795.644	1188
796.135	1182
796.627	1195
797.118	1170
797.61	1162
798.101	1150
798.593	1157
799.085	1141
799.576	1149
800.068	1125
800.56	1124
801.052	1101
801.544	1103
802.035	1101
802.527	1086
803.019	1075
803.511	1067
804.003	1059
804.495	1061
804.987	1049
805.479	1026
805.971	1041
806.464	1047
806.956	1021
807.448	1023
807.94	1022
808.433	1008
808.925	1011
809.417	996
809.91	991
810.402	958
810.894	966
811.387	970
811.879	960
812.372	980
812.865	963
813.357	964
813.85	958
814.342	947
814.835	949
815.328	936
815.821	924
816.313	927
816.806	932
817.299	927
817.792	933
818.285	924
818.778	935
819.271	942
819.764	920
820.257	928
820.75	929
821.243	926
821.736	915
822.229	924
822.722	929
823.216	944
