Data from lamp5bck_Subt4__30__285.txt Node

Date: Wed Apr 09 10:15:47 CEST 2025
User: fys-lab-0081
Spectrometer: S04999
Trigger mode: 0
Resolution mode: 1024 pixels
Integration Time (sec): 1.000000E-1
Scans to average: 1
Nonlinearity correction enabled: false
Boxcar width: 0
Baseline correction enabled: true
XAxis mode: Wavelengths
Number of Pixels in Spectrum: 1024
>>>>>Begin Spectral Data<<<<<
336.42	2
336.877	-1
337.334	0
337.792	0
338.249	6
338.706	4
339.164	0
339.621	-2
340.079	3
340.536	7
340.994	8
341.452	-7
341.909	0
342.367	-2
342.825	1
343.283	-2
343.741	2
344.198	0
344.656	2
345.114	-2
345.572	0
346.03	0
346.488	4
346.947	0
347.405	2
347.863	1
348.321	4
348.779	-2
349.238	6
349.696	1
350.154	0
350.613	-3
351.071	3
351.53	2
351.988	4
352.447	1
352.905	-1
353.364	-4
353.823	0
354.282	0
354.74	0
355.199	2
355.658	3
356.117	4
356.576	1
357.035	4
357.494	6
357.953	4
358.412	5
358.871	-4
359.33	1
359.789	3
360.249	0
360.708	6
361.167	1
361.626	4
362.086	2
362.545	1
363.005	5
363.464	-2
363.924	1
364.383	5
364.843	1
365.303	2
365.762	0
366.222	2
366.682	3
367.142	10
367.601	6
368.061	3
368.521	8
368.981	-2
369.441	3
369.901	10
370.361	2
370.821	3
371.282	5
371.742	5
372.202	4
372.662	5
373.123	4
373.583	4
374.043	4
374.504	-1
374.964	5
375.425	3
375.885	6
376.346	4
376.806	1
377.267	4
377.728	11
378.188	7
378.649	3
379.11	7
379.571	5
380.032	2
380.493	4
380.954	11
381.414	5
381.876	4
382.337	8
382.798	15
383.259	11
383.72	6
384.181	6
384.642	6
385.104	12
385.565	14
386.026	10
386.488	5
386.949	11
387.411	12
387.872	9
388.334	14
388.795	10
389.257	14
389.719	10
390.181	13
390.642	16
391.104	11
391.566	7
392.028	20
392.49	9
392.952	16
393.414	14
393.876	12
394.338	10
394.8	11
395.262	11
395.724	9
396.186	17
396.648	20
397.111	19
397.573	14
398.035	14
398.498	16
398.96	9
399.423	14
399.885	18
400.348	20
400.81	27
401.273	17
401.736	21
402.198	16
402.661	20
403.124	19
403.587	20
404.049	21.5
404.512	23
404.975	23
405.438	19
405.901	21
406.364	24
406.827	23
407.29	28
407.754	25
408.217	23
408.68	20
409.143	21
409.607	29
410.07	24
410.533	26
410.997	26
411.46	26
411.924	24
412.387	25
412.851	26
413.314	29
413.778	28
414.242	29
414.705	29
415.169	31
415.633	28
416.097	30
416.561	33
417.024	34
417.488	33
417.952	34
418.416	43
418.88	30
419.344	33
419.809	37
420.273	37
420.737	35
421.201	26
421.665	35
422.13	35
422.594	38
423.059	39
423.523	35
423.987	38
424.452	36
424.916	41
425.381	44
425.846	41
426.31	40
426.775	45
427.24	45
427.704	36
428.169	48
428.634	50
429.099	43
429.564	43
430.029	47
430.494	51
430.959	49
431.424	42
431.889	45
432.354	51
432.819	48
433.284	50
433.75	50
434.215	50
434.68	56
435.146	55
435.611	57
436.077	53
436.542	61
437.008	63
437.473	64
437.939	62
438.404	65
438.87	67
439.336	64
439.801	65
440.267	59
440.733	74
441.199	69
441.665	64
442.131	73
442.596	72
443.062	71
443.529	74
443.995	76
444.461	74
444.927	84
445.393	83
445.859	87
446.325	88
446.792	98
447.258	92
447.724	97
448.191	97
448.657	98
449.124	108
449.59	103
450.057	114
450.523	109
450.99	107
451.457	111
451.923	116
452.39	109
452.857	114
453.324	116
453.791	117
454.257	117
454.724	118
455.191	116
455.658	118
456.125	129
456.592	121
457.059	126
457.527	125
457.994	133
458.461	131
458.928	138
459.396	132
459.863	141
460.33	139
460.798	140
461.265	145
461.732	142
462.2	148
462.668	144
463.135	150
463.603	139
464.07	148
464.538	146
465.006	151
465.474	145
465.941	142
466.409	146
466.877	150
467.345	153
467.813	154
468.281	150
468.749	148
469.217	153
469.685	156
470.153	155
470.621	159
471.09	163
471.558	164
472.026	167
472.494	167
472.963	176
473.431	183
473.9	187
474.368	187
474.837	190
475.305	195
475.774	200
476.242	212
476.711	204
477.18	215
477.648	216
478.117	213
478.586	211
479.055	212
479.524	217
479.993	220
480.462	215
480.93	218
481.399	217
481.869	220
482.338	216
482.807	221
483.276	222
483.745	225
484.214	226
484.684	232
485.153	231
485.622	230
486.092	241
486.561	239
487.031	236
487.5	243
487.97	256
488.439	258
488.909	268
489.378	275
489.848	276
490.318	287
490.787	296
491.257	301
491.727	295
492.197	310
492.667	307
493.137	308
493.607	309
494.077	315
494.547	319
495.017	318
495.487	320
495.957	329
496.427	321
496.897	325
497.368	328
497.838	329
498.308	330
498.779	333
499.249	339
499.719	340
500.19	348
500.66	347
501.131	349
501.602	353
502.072	354
502.543	361
503.014	375
503.484	372
503.955	384
504.426	403
504.897	407
505.368	416
505.838	421
506.309	435
506.78	451
507.251	460
507.722	466
508.194	479
508.665	480
509.136	481
509.607	498
510.078	503
510.549	507
511.021	518
511.492	525
511.964	528
512.435	538
512.906	528
513.378	543
513.849	552
514.321	560
514.793	561
515.264	573
515.736	575
516.208	584
516.679	587
517.151	590
517.623	599
518.095	610
518.567	613
519.038	627
519.51	632
519.982	646
520.454	647
520.927	653
521.399	662
521.871	676
522.343	680
522.815	680
523.287	676
523.76	696
524.232	707
524.704	711
525.177	702
525.649	700
526.122	715
526.594	706
527.067	719
527.539	728
528.012	722
528.484	718
528.957	730
529.43	721
529.903	712
530.375	749
530.848	735
531.321	745
531.794	741
532.267	765
532.74	752
533.213	750
533.686	768
534.159	758
534.632	779
535.105	787
535.578	798
536.051	800
536.525	807
536.998	812
537.471	831
537.945	822
538.418	832
538.891	837
539.365	846
539.838	854
540.312	859
540.786	862
541.259	855
541.733	868
542.206	873
542.68	859
543.154	860
543.628	865
544.101	896
544.575	883
545.049	857
545.523	878
545.997	884
546.471	889
546.945	876
547.419	897
547.893	860
548.367	882
548.842	873
549.316	876
549.79	887
550.264	877
550.739	893
551.213	887
551.687	889
552.162	904
552.636	896
553.111	899
553.585	923
554.06	909
554.534	927
555.009	921
555.484	941
555.958	956
556.433	959
556.908	972
557.383	963
557.858	990
558.333	992
558.807	989
559.282	995
559.757	1020
560.232	1028
560.708	1011
561.183	1009
561.658	1023
562.133	1024
562.608	1005
563.083	1034
563.559	1008
564.034	1028
564.509	1014
564.985	1026
565.46	1019
565.936	1047
566.411	1045
566.887	1044
567.362	1046
567.838	1045
568.313	1061
568.789	1042
569.265	1038
569.74	1055
570.216	1046
570.692	1063
571.168	1059
571.644	1060
572.12	1069
572.596	1078
573.071	1077
573.547	1100
574.024	1107
574.5	1130
574.976	1136
575.452	1157
575.928	1170
576.404	1170
576.881	1208
577.357	1194
577.833	1201
578.31	1231
578.786	1253
579.262	1277
579.739	1257
580.215	1292
580.692	1285
581.169	1286
581.645	1278
582.122	1324
582.598	1318
583.075	1318
583.552	1336
584.029	1336
584.506	1333
584.982	1316
585.459	1346
585.936	1338
586.413	1348
586.89	1371
587.367	1351
587.844	1376
588.321	1374
588.799	1370
589.276	1361
589.753	1384
590.23	1391
590.707	1395
591.185	1393
591.662	1398
592.139	1410
592.617	1449
593.094	1449
593.572	1444
594.049	1464
594.527	1485
595.004	1497
595.482	1533
595.96	1509
596.437	1511
596.915	1555
597.393	1536
597.871	1574
598.349	1549
598.826	1579
599.304	1585
599.782	1616
600.26	1590
600.738	1630
601.216	1628
601.694	1642
602.173	1662
602.651	1665
603.129	1641
603.607	1666
604.085	1678
604.564	1684
605.042	1689
605.52	1678
605.999	1728
606.477	1682
606.956	1686
607.434	1705
607.913	1724
608.391	1732
608.87	1728
609.348	1703
609.827	1714
610.306	1727
610.785	1737
611.263	1735
611.742	1721
612.221	1691
612.7	1710
613.179	1726
613.658	1710
614.137	1732
614.616	1741
615.095	1695
615.574	1727
616.053	1756
616.532	1740
617.011	1749
617.491	1760
617.97	1759
618.449	1791
618.928	1821
619.408	1795
619.887	1816
620.367	1825
620.846	1854
621.326	1849
621.805	1885
622.285	1884
622.764	1905
623.244	1908
623.724	1930
624.203	1936
624.683	1902
625.163	1940
625.643	1937
626.123	1928
626.602	1961
627.082	1925
627.562	1932
628.042	1969
628.522	1947
629.002	1941
629.482	1950
629.963	1945
630.443	1944
630.923	1949
631.403	1940
631.883	1944
632.364	1952
632.844	1938
633.324	1955
633.805	1953
634.285	1938
634.766	1929
635.246	1941
635.727	1947
636.207	1962
636.688	1974
637.168	1957
637.649	1931
638.13	1924
638.611	1948
639.091	1953
639.572	1935
640.053	1934
640.534	1954
641.015	1959
641.496	1936
641.977	1972
642.458	1947
642.939	1958
643.42	1953
643.901	1960
644.382	1981
644.863	1969
645.345	1976
645.826	1964
646.307	1964
646.788	2012
647.27	1992
647.751	1995
648.233	2008
648.714	1969
649.196	2014
649.677	2019
650.159	2018
650.64	1997
651.122	2035
651.603	2013
652.085	2033
652.567	2042
653.049	2008
653.53	2006
654.012	2047
654.494	2018
654.976	2037
655.458	2038
655.94	2040
656.422	2079
656.904	2047
657.386	2025
657.868	2023
658.35	2015
658.833	2031
659.315	2038
659.797	2026
660.279	2019
660.762	2033
661.244	2015
661.726	1985
662.209	1987
662.691	1989
663.174	1945
663.656	1961
664.139	1963
664.621	1945
665.104	1934
665.587	1963
666.069	1976
666.552	1976
667.035	1952
667.517	1959
668	1970
668.483	1978
668.966	1961
669.449	1952
669.932	1959
670.415	1974
670.898	1968
671.381	1970
671.864	1984
672.347	1979
672.83	1974
673.313	1981
673.797	1977
674.28	2021
674.763	2023
675.247	2046
675.73	2041
676.213	2049
676.697	2043
677.18	2052
677.664	2057
678.147	2067
678.631	2068
679.114	2083
679.598	2078
680.082	2102
680.565	2098
681.049	2106
681.533	2107
682.017	2107
682.5	2098
682.984	2106
683.468	2107
683.952	2065
684.436	2118
684.92	2103
685.404	2106
685.888	2128
686.372	2124
686.856	2123
687.341	2149
687.825	2116
688.309	2123
688.793	2121
689.278	2096
689.762	2113
690.246	2094
690.731	2108
691.215	2137
691.7	2077
692.184	2107
692.669	2096
693.153	2107
693.638	2079
694.122	2080
694.607	2101
695.092	2088
695.577	2113
696.061	2067
696.546	2068
697.031	2061
697.516	2089
698.001	2085
698.486	2075
698.971	2108
699.456	2052
699.941	2055
700.426	2049
700.911	2079
701.396	2061
701.881	2090
702.366	2075
702.852	2071
703.337	2075
703.822	2068
704.308	2056
704.793	2076
705.278	2085
705.764	2108
706.249	2085
706.735	2076
707.22	2093
707.706	2064
708.191	2094
708.677	2102
709.163	2082
709.648	2110
710.134	2131
710.62	2112
711.106	2115
711.592	2160
712.077	2156
712.563	2099
713.049	2082
713.535	2133
714.021	2121
714.507	2114
714.993	2083
715.479	2110
715.966	2085
716.452	2091
716.938	2080
717.424	2028
717.91	2083
718.397	2079
718.883	2066
719.369	2065
719.856	2044
720.342	2071
720.829	2046
721.315	2071
721.802	2046
722.288	2059
722.775	1971
723.262	1918
723.748	2009
724.235	2002
724.722	2033
725.208	1990
725.695	1995
726.182	1977
726.669	1953
727.156	1958
727.643	1938
728.13	1940
728.617	1918
729.104	1924
729.591	1902
730.078	1913
730.565	1925
731.052	1883
731.539	1891
732.027	1883
732.514	1869
733.001	1895
733.488	1884
733.976	1882
734.463	1883
734.951	1876
735.438	1898
735.926	1892
736.413	1920
736.901	1897
737.388	1932
737.876	1928
738.364	1914
738.851	1928
739.339	1915
739.827	1933
740.314	1872
740.802	1885
741.29	1890
741.778	1875
742.266	1887
742.754	1887
743.242	1907
743.73	1859
744.218	1853
744.706	1835
745.194	1854
745.682	1829
746.17	1835
746.659	1844
747.147	1800
747.635	1806
748.123	1812
748.612	1782
749.1	1770
749.589	1796
750.077	1776
750.566	1767
751.054	1771
751.543	1777
752.031	1743
752.52	1746
753.008	1711
753.497	1719
753.986	1713
754.474	1707
754.963	1734
755.452	1702
755.941	1703
756.43	1694
756.919	1697
757.408	1681
757.896	1678
758.385	1676
758.875	1672
759.364	1656
759.853	1647
760.342	1617
760.831	1653
761.32	1651
761.809	1613
762.299	1629
762.788	1639
763.277	1626
763.767	1602
764.256	1608
764.745	1573
765.235	1614
765.724	1563
766.214	1587
766.703	1577
767.193	1562
767.683	1570
768.172	1540
768.662	1548
769.152	1545
769.641	1555
770.131	1513
770.621	1528
771.111	1506
771.601	1498
772.09	1490
772.58	1475
773.07	1481
773.56	1492
774.05	1468
774.54	1466
775.031	1456
775.521	1441
776.011	1435
776.501	1445
776.991	1415
777.482	1429
777.972	1394
778.462	1390
778.953	1401
779.443	1393
779.933	1381
780.424	1369
780.914	1374
781.405	1386
781.895	1371
782.386	1371
782.877	1367
783.367	1343
783.858	1327
784.349	1336
784.839	1327
785.33	1326
785.821	1325
786.312	1312
786.803	1324
787.293	1328
787.784	1317
788.275	1290
788.766	1285
789.257	1307
789.748	1275
790.24	1268
790.731	1288
791.222	1265
791.713	1257
792.204	1263
792.696	1228
793.187	1234
793.678	1217
794.169	1185
794.661	1200
795.152	1189
795.644	1184
796.135	1183
796.627	1200
797.118	1174
797.61	1167
798.101	1145
798.593	1151
799.085	1149
799.576	1147
800.068	1132
800.56	1117
801.052	1096
801.544	1102
802.035	1107
802.527	1082
803.019	1074
803.511	1072
804.003	1064
804.495	1064
804.987	1050
805.479	1020
805.971	1044
806.464	1048
806.956	1023
807.448	1026
807.94	1026
808.433	1016
808.925	1008
809.417	994
809.91	990
810.402	960
810.894	965
811.387	973
811.879	960
812.372	971
812.865	965
813.357	968
813.85	956
814.342	946
814.835	947
815.328	943
815.821	930
816.313	934
816.806	931
817.299	928
817.792	933
818.285	927
818.778	933
819.271	936
819.764	919
820.257	925
820.75	928
821.243	928
821.736	915
822.229	933
822.722	924
823.216	940
