Data from lamp5bck_Subt4__18__273.txt Node

Date: Wed Apr 09 10:15:45 CEST 2025
User: fys-lab-0081
Spectrometer: S04999
Trigger mode: 0
Resolution mode: 1024 pixels
Integration Time (sec): 1.000000E-1
Scans to average: 1
Nonlinearity correction enabled: false
Boxcar width: 0
Baseline correction enabled: true
XAxis mode: Wavelengths
Number of Pixels in Spectrum: 1024
>>>>>Begin Spectral Data<<<<<
336.42	-2
336.877	-2
337.334	1
337.792	-3
338.249	5
338.706	8
339.164	1
339.621	-1
340.079	2
340.536	6
340.994	8
341.452	-1
341.909	-1
342.367	-1
342.825	-3
343.283	0
343.741	0
344.198	3
344.656	0
345.114	-3
345.572	0
346.03	2
346.488	4
346.947	-3
347.405	2
347.863	0
348.321	4
348.779	2
349.238	3
349.696	-1
350.154	3
350.613	-1
351.071	5
351.53	7
351.988	5
352.447	0
352.905	1
353.364	-4
353.823	1
354.282	-1
354.74	0
355.199	3
355.658	0
356.117	1
356.576	3
357.035	0
357.494	1
357.953	5
358.412	5
358.871	-4
359.33	4
359.789	2
360.249	-1
360.708	6
361.167	0
361.626	1
362.086	3
362.545	3
363.005	9
363.464	0
363.924	1
364.383	2
364.843	2
365.303	5
365.762	3
366.222	2
366.682	2
367.142	7
367.601	4
368.061	1
368.521	3
368.981	2
369.441	3
369.901	6
370.361	2
370.821	0
371.282	5
371.742	6
372.202	6
372.662	6
373.123	3
373.583	4
374.043	5
374.504	-1
374.964	0
375.425	3
375.885	7
376.346	3
376.806	1
377.267	7
377.728	10
378.188	8
378.649	2
379.11	5
379.571	5
380.032	0
380.493	3
380.954	5
381.414	5
381.876	5
382.337	10
382.798	7
383.259	11
383.72	6
384.181	8
384.642	6
385.104	9
385.565	17
386.026	9
386.488	8
386.949	13
387.411	11
387.872	5
388.334	14
388.795	7
389.257	9
389.719	13
390.181	8
390.642	14
391.104	11
391.566	7
392.028	16
392.49	10
392.952	15
393.414	13
393.876	11
394.338	13
394.8	13
395.262	15
395.724	11
396.186	16
396.648	16
397.111	18
397.573	18
398.035	13
398.498	13
398.96	11
399.423	17
399.885	22
400.348	19
400.81	19
401.273	15
401.736	17
402.198	17
402.661	15
403.124	16
403.587	25
404.049	23
404.512	21
404.975	22
405.438	23
405.901	21
406.364	23
406.827	25
407.29	20
407.754	25
408.217	24
408.68	24
409.143	20
409.607	26
410.07	25
410.533	19
410.997	29
411.46	22
411.924	29
412.387	27
412.851	27
413.314	28
413.778	30
414.242	30
414.705	30
415.169	28
415.633	31
416.097	33
416.561	28
417.024	33
417.488	36
417.952	33
418.416	35
418.88	33
419.344	33
419.809	34
420.273	35
420.737	34
421.201	26
421.665	37
422.13	31
422.594	39
423.059	40
423.523	39
423.987	40
424.452	38
424.916	39
425.381	42
425.846	40
426.31	42
426.775	39
427.24	46
427.704	41
428.169	47
428.634	45
429.099	42
429.564	44
430.029	47
430.494	46
430.959	47
431.424	42
431.889	45
432.354	46
432.819	52
433.284	44
433.75	47
434.215	54
434.68	52
435.146	56
435.611	58
436.077	59
436.542	59
437.008	65
437.473	61
437.939	68
438.404	62
438.87	67
439.336	65
439.801	63
440.267	63
440.733	73
441.199	73
441.665	64
442.131	75
442.596	72
443.062	68
443.529	72
443.995	75
444.461	75
444.927	83
445.393	82
445.859	86
446.325	86
446.792	96
447.258	92
447.724	97
448.191	96
448.657	94
449.124	102
449.59	99
450.057	112
450.523	106
450.99	106
451.457	111
451.923	117
452.39	109
452.857	117
453.324	113
453.791	115
454.257	114
454.724	120
455.191	118
455.658	116
456.125	128
456.592	120
457.059	122
457.527	125
457.994	130
458.461	129
458.928	138
459.396	132
459.863	139
460.33	141
460.798	140
461.265	140
461.732	141
462.2	144
462.668	146
463.135	144
463.603	144
464.07	141
464.538	149
465.006	155
465.474	145
465.941	145
466.409	144
466.877	145
467.345	155
467.813	150
468.281	150
468.749	152
469.217	152
469.685	154
470.153	153
470.621	159
471.09	158
471.558	160
472.026	162
472.494	173
472.963	172
473.431	181
473.9	185
474.368	187
474.837	189
475.305	194
475.774	202
476.242	208
476.711	202
477.18	208
477.648	213
478.117	214
478.586	210
479.055	206
479.524	215
479.993	213
480.462	215
480.93	217
481.399	216
481.869	215
482.338	216
482.807	213
483.276	217
483.745	221
484.214	228
484.684	225
485.153	227
485.622	230
486.092	240
486.561	238
487.031	238
487.5	248
487.97	258
488.439	258
488.909	263
489.378	273
489.848	276
490.318	286
490.787	292
491.257	300
491.727	295
492.197	304
492.667	307
493.137	299
493.607	309
494.077	316
494.547	310
495.017	315
495.487	321
495.957	327
496.427	321
496.897	319
497.368	319
497.838	324
498.308	333
498.779	333
499.249	333
499.719	335
500.19	347
500.66	343
501.131	348
501.602	352
502.072	350
502.543	362
503.014	373
503.484	373
503.955	382
504.426	400
504.897	404
505.368	411
505.838	419
506.309	428
506.78	446
507.251	455
507.722	464
508.194	467
508.665	479
509.136	478
509.607	490
510.078	497
510.549	500
511.021	519
511.492	519
511.964	521
512.435	534
512.906	529
513.378	534
513.849	548
514.321	555
514.793	555
515.264	566
515.736	567
516.208	578
516.679	586
517.151	591
517.623	595
518.095	604
518.567	611
519.038	625
519.51	628
519.982	640
520.454	641
520.927	646
521.399	658
521.871	675
522.343	677
522.815	675
523.287	675
523.76	687
524.232	700
524.704	707
525.177	695
525.649	699
526.122	711
526.594	697
527.067	716
527.539	721
528.012	719
528.484	718
528.957	721
529.43	718
529.903	711
530.375	739
530.848	727
531.321	736
531.794	736
532.267	756
532.74	746
533.213	746
533.686	759
534.159	752
534.632	778
535.105	786
535.578	795
536.051	793
536.525	797
536.998	810
537.471	827
537.945	817
538.418	839
538.891	830
539.365	842
539.838	854
540.312	854
540.786	856
541.259	844
541.733	862
542.206	867
542.68	854
543.154	852
543.628	857
544.101	886
544.575	879
545.049	854
545.523	868
545.997	873
546.471	877
546.945	874
547.419	889
547.893	858
548.367	877
548.842	868
549.316	870
549.79	882
550.264	872
550.739	893
551.213	882
551.687	885
552.162	894
552.636	892
553.111	892
553.585	921
554.06	904
554.534	917
555.009	916
555.484	937
555.958	947
556.433	953
556.908	964
557.383	961
557.858	982
558.333	991
558.807	985
559.282	986
559.757	1013
560.232	1021
560.708	1007
561.183	997
561.658	1014
562.133	1015
562.608	1001
563.083	1028
563.559	1003
564.034	1016
564.509	1012
564.985	1022
565.46	1011
565.936	1041
566.411	1044
566.887	1035
567.362	1036
567.838	1038
568.313	1056
568.789	1035
569.265	1032
569.74	1044
570.216	1035
570.692	1053
571.168	1056
571.644	1056
572.12	1059
572.596	1077
573.071	1076
573.547	1095
574.024	1106
574.5	1126
574.976	1132
575.452	1153
575.928	1159
576.404	1159
576.881	1203
577.357	1182
577.833	1194
578.31	1225
578.786	1244
579.262	1268
579.739	1251
580.215	1284
580.692	1274
581.169	1277
581.645	1275
582.122	1312
582.598	1316
583.075	1317
583.552	1320
584.029	1323
584.506	1320
584.982	1311
585.459	1337
585.936	1331
586.413	1336
586.89	1359
587.367	1339
587.844	1366
588.321	1359
588.799	1361
589.276	1352
589.753	1372
590.23	1388
590.707	1383
591.185	1382
591.662	1387
592.139	1408
592.617	1443
593.094	1439
593.572	1437
594.049	1461
594.527	1479
595.004	1489
595.482	1518
595.96	1504
596.437	1504
596.915	1549
597.393	1529
597.871	1562
598.349	1539
598.826	1576
599.304	1576
599.782	1602
600.26	1583
600.738	1624
601.216	1619
601.694	1630
602.173	1654
602.651	1656
603.129	1627
603.607	1658
604.085	1677
604.564	1672
605.042	1674
605.52	1667
605.999	1712
606.477	1675
606.956	1680
607.434	1696.5
607.913	1713
608.391	1725
608.87	1715
609.348	1693
609.827	1705
610.306	1719
610.785	1729
611.263	1734
611.742	1714
612.221	1681
612.7	1706
613.179	1719
613.658	1698
614.137	1721
614.616	1725
615.095	1692
615.574	1723
616.053	1745
616.532	1725
617.011	1740
617.491	1754
617.97	1752
618.449	1785
618.928	1805
619.408	1790
619.887	1808
620.367	1820
620.846	1841
621.326	1834
621.805	1876
622.285	1877
622.764	1892
623.244	1899
623.724	1920
624.203	1930
624.683	1890
625.163	1930
625.643	1931
626.123	1916
626.602	1956
627.082	1915
627.562	1923
628.042	1957
628.522	1943
629.002	1921
629.482	1931
629.963	1936
630.443	1934
630.923	1937
631.403	1932
631.883	1931
632.364	1942
632.844	1928
633.324	1944
633.805	1950
634.285	1926
634.766	1924
635.246	1925
635.727	1936
636.207	1959
636.688	1961
637.168	1960
637.649	1915
638.13	1915
638.611	1942
639.091	1942
639.572	1927
640.053	1927
640.534	1946
641.015	1949
641.496	1926
641.977	1954
642.458	1935
642.939	1943
643.42	1945
643.901	1949
644.382	1963
644.863	1964
645.345	1964
645.826	1954
646.307	1953
646.788	1995
647.27	1975
647.751	1980
648.233	2001
648.714	1954
649.196	2003
649.677	2013
650.159	2015
650.64	1990
651.122	2026
651.603	2001
652.085	2023
652.567	2031
653.049	1998
653.53	1990
654.012	2026
654.494	2001
654.976	2021
655.458	2027
655.94	2037
656.422	2062
656.904	2034
657.386	2012
657.868	2011
658.35	2004
658.833	2021
659.315	2028
659.797	2012
660.279	2007
660.762	2022
661.244	2003
661.726	1966
662.209	1979
662.691	1971
663.174	1931
663.656	1945
664.139	1950
664.621	1932
665.104	1928
665.587	1958
666.069	1965
666.552	1958
667.035	1935
667.517	1948
668	1968
668.483	1971
668.966	1955
669.449	1937
669.932	1951
670.415	1968
670.898	1962
671.381	1962
671.864	1978
672.347	1956
672.83	1968
673.313	1970
673.797	1971
674.28	2007
674.763	2017
675.247	2029
675.73	2027
676.213	2035
676.697	2040
677.18	2043
677.664	2043
678.147	2045
678.631	2063
679.114	2076
679.598	2069
680.082	2092
680.565	2098
681.049	2103
681.533	2097
682.017	2109
682.5	2096
682.984	2104
683.468	2093
683.952	2053
684.436	2105
684.92	2089
685.404	2102
685.888	2120
686.372	2109
686.856	2109
687.341	2130
687.825	2107
688.309	2114
688.793	2114
689.278	2085
689.762	2103
690.246	2083
690.731	2095
691.215	2121
691.7	2076
692.184	2099
692.669	2093
693.153	2098
693.638	2064
694.122	2074
694.607	2095
695.092	2070
695.577	2104
696.061	2059
696.546	2062
697.031	2060
697.516	2075
698.001	2077
698.486	2064
698.971	2094
699.456	2046
699.941	2043
700.426	2041
700.911	2067
701.396	2055
701.881	2075
702.366	2063
702.852	2058
703.337	2065
703.822	2057
704.308	2050
704.793	2064
705.278	2077
705.764	2096
706.249	2079
706.735	2067
707.22	2075
707.706	2048
708.191	2084
708.677	2095
709.163	2077
709.648	2093
710.134	2119
710.62	2098
711.106	2104
711.592	2146
712.077	2145
712.563	2090
713.049	2076
713.535	2123
714.021	2115
714.507	2101
714.993	2073
715.479	2091
715.966	2072
716.452	2084
716.938	2074
717.424	2024
717.91	2077
718.397	2075
718.883	2056
719.369	2053
719.856	2027
720.342	2059
720.829	2039
721.315	2054
721.802	2045
722.288	2047
722.775	1962
723.262	1908
723.748	1993
724.235	1991
724.722	2025
725.208	1977
725.695	1985
726.182	1969
726.669	1943
727.156	1953
727.643	1932
728.13	1923
728.617	1913
729.104	1910
729.591	1890
730.078	1910
730.565	1911
731.052	1885
731.539	1888
732.027	1877
732.514	1863
733.001	1886
733.488	1882
733.976	1875
734.463	1869
734.951	1867
735.438	1891
735.926	1884
736.413	1908
736.901	1899
737.388	1921
737.876	1921
738.364	1904
738.851	1923
739.339	1910
739.827	1923
740.314	1859
740.802	1885
741.29	1887
741.778	1870
742.266	1868
742.754	1882
743.242	1901
743.73	1854
744.218	1841
744.706	1826
745.194	1844
745.682	1825
746.17	1828
746.659	1839
747.147	1798
747.635	1803
748.123	1797
748.612	1776
749.1	1764
749.589	1781
750.077	1774
750.566	1757
751.054	1767
751.543	1767
752.031	1735
752.52	1735
753.008	1705
753.497	1713
753.986	1705
754.474	1694
754.963	1724
755.452	1697
755.941	1692
756.43	1696
756.919	1690
757.408	1682
757.896	1671
758.385	1671
758.875	1657
759.364	1643
759.853	1639
760.342	1617
760.831	1644
761.32	1633
761.809	1606
762.299	1619
762.788	1629
763.277	1618
763.767	1597
764.256	1594
764.745	1577
765.235	1606
765.724	1564
766.214	1579
766.703	1569
767.193	1554
767.683	1562
768.172	1536
768.662	1536
769.152	1538
769.641	1552
770.131	1507
770.621	1516
771.111	1498
771.601	1496
772.09	1478
772.58	1464
773.07	1474
773.56	1483
774.05	1456
774.54	1460
775.031	1449
775.521	1435
776.011	1434
776.501	1446
776.991	1406
777.482	1424
777.972	1386
778.462	1387
778.953	1405
779.443	1384
779.933	1378
780.424	1361
780.914	1371
781.405	1378
781.895	1364
782.386	1362
782.877	1362
783.367	1331
783.858	1320
784.349	1329
784.839	1314
785.33	1318
785.821	1320
786.312	1312
786.803	1317
787.293	1320
787.784	1305
788.275	1292
788.766	1271
789.257	1297
789.748	1269
790.24	1263
790.731	1281
791.222	1261
791.713	1252
792.204	1248
792.696	1226
793.187	1234
793.678	1218
794.169	1186
794.661	1186
795.152	1183
795.644	1174
796.135	1179
796.627	1188
797.118	1169
797.61	1160
798.101	1140
798.593	1157
799.085	1145
799.576	1138
800.068	1121
800.56	1118
801.052	1098
801.544	1092
802.035	1100
802.527	1080
803.019	1075
803.511	1069
804.003	1055
804.495	1060
804.987	1045
805.479	1020
805.971	1040
806.464	1041
806.956	1018
807.448	1016
807.94	1016
808.433	1009
808.925	1007
809.417	997
809.91	982
810.402	961
810.894	961
811.387	970
811.879	955
812.372	974
812.865	962
813.357	959
813.85	954
814.342	947
814.835	936
815.328	936
815.821	920
816.313	924
816.806	931
817.299	926
817.792	932
818.285	924
818.778	931
819.271	934
819.764	919
820.257	917
820.75	927
821.243	924
821.736	918
822.229	927
822.722	918
823.216	943
