Data from lamp5bck_Subt4__19__274.txt Node

Date: Wed Apr 09 10:15:45 CEST 2025
User: fys-lab-0081
Spectrometer: S04999
Trigger mode: 0
Resolution mode: 1024 pixels
Integration Time (sec): 1.000000E-1
Scans to average: 1
Nonlinearity correction enabled: false
Boxcar width: 0
Baseline correction enabled: true
XAxis mode: Wavelengths
Number of Pixels in Spectrum: 1024
>>>>>Begin Spectral Data<<<<<
336.42	4
336.877	2
337.334	-1
337.792	-4
338.249	5
338.706	3
339.164	-2
339.621	0
340.079	5
340.536	4
340.994	6
341.452	-4
341.909	2
342.367	-2
342.825	-2
343.283	0
343.741	2
344.198	1
344.656	2
345.114	-3
345.572	1
346.03	4
346.488	4
346.947	-2
347.405	-2
347.863	3
348.321	2
348.779	0
349.238	2
349.696	1
350.154	7
350.613	-2
351.071	3
351.53	4
351.988	2
352.447	-1
352.905	2
353.364	-2
353.823	-1
354.282	2
354.74	0
355.199	5
355.658	4
356.117	1
356.576	6
357.035	4
357.494	3
357.953	3
358.412	4
358.871	-9
359.33	2
359.789	6
360.249	0
360.708	5
361.167	-2
361.626	3
362.086	2
362.545	1
363.005	7
363.464	-2
363.924	0
364.383	4
364.843	-1
365.303	2
365.762	0
366.222	1
366.682	3
367.142	4
367.601	4
368.061	5
368.521	4
368.981	1
369.441	2
369.901	5
370.361	2
370.821	1
371.282	7
371.742	4
372.202	8
372.662	8
373.123	7
373.583	3
374.043	3
374.504	-1
374.964	4
375.425	3
375.885	4
376.346	5
376.806	2
377.267	8
377.728	6
378.188	8
378.649	6
379.11	4
379.571	1
380.032	3
380.493	2
380.954	9
381.414	6
381.876	5
382.337	7
382.798	10
383.259	12
383.72	6
384.181	6
384.642	4
385.104	13
385.565	18
386.026	10
386.488	9
386.949	10
387.411	10
387.872	7
388.334	11
388.795	11
389.257	14
389.719	10
390.181	8
390.642	16
391.104	14
391.566	9
392.028	12
392.49	10
392.952	14
393.414	17
393.876	12
394.338	13
394.8	13
395.262	14
395.724	13
396.186	18
396.648	17
397.111	13
397.573	16
398.035	20
398.498	15
398.96	13
399.423	16
399.885	20
400.348	17
400.81	23
401.273	10
401.736	21
402.198	20
402.661	20
403.124	18
403.587	18
404.049	20
404.512	22
404.975	21
405.438	19
405.901	21
406.364	24
406.827	25
407.29	23
407.754	24
408.217	24
408.68	25
409.143	24
409.607	28
410.07	25
410.533	25
410.997	23
411.46	26
411.924	27
412.387	28
412.851	28
413.314	29
413.778	24
414.242	29
414.705	28
415.169	31
415.633	26
416.097	31
416.561	31
417.024	34
417.488	37
417.952	37
418.416	39
418.88	34
419.344	35
419.809	31
420.273	33
420.737	36
421.201	26
421.665	37
422.13	33
422.594	36
423.059	41
423.523	33
423.987	39
424.452	38
424.916	43
425.381	41
425.846	42
426.31	40
426.775	42
427.24	40
427.704	37
428.169	45
428.634	50
429.099	42
429.564	45
430.029	48
430.494	47
430.959	45
431.424	45
431.889	44
432.354	43
432.819	49
433.284	43
433.75	46
434.215	54
434.68	53
435.146	54
435.611	60
436.077	60
436.542	55
437.008	64
437.473	60
437.939	63
438.404	66
438.87	64
439.336	64
439.801	64
440.267	66
440.733	73
441.199	74
441.665	67
442.131	72
442.596	73
443.062	69
443.529	73
443.995	73
444.461	71
444.927	82
445.393	79
445.859	87
446.325	89
446.792	97
447.258	94
447.724	99
448.191	96
448.657	97
449.124	104
449.59	104
450.057	108
450.523	107
450.99	111
451.457	108
451.923	116
452.39	110
452.857	113
453.324	109
453.791	115
454.257	118
454.724	114
455.191	116
455.658	113
456.125	125
456.592	122
457.059	124
457.527	125
457.994	129
458.461	135
458.928	138
459.396	134
459.863	140
460.33	140
460.798	136
461.265	139
461.732	141
462.2	144
462.668	139
463.135	149
463.603	142
464.07	140
464.538	146
465.006	153
465.474	150
465.941	144
466.409	146
466.877	145
467.345	152
467.813	151
468.281	150
468.749	149
469.217	154
469.685	155
470.153	158
470.621	153
471.09	160
471.558	164
472.026	164
472.494	172
472.963	174
473.431	180
473.9	185
474.368	190
474.837	189
475.305	193
475.774	203
476.242	210
476.711	206
477.18	210
477.648	214
478.117	210
478.586	210
479.055	209
479.524	214
479.993	213
480.462	214
480.93	213
481.399	213
481.869	211
482.338	219
482.807	218
483.276	216
483.745	222
484.214	226
484.684	231
485.153	228
485.622	226
486.092	239
486.561	236
487.031	237
487.5	244
487.97	251
488.439	257
488.909	266
489.378	271
489.848	275
490.318	284
490.787	288
491.257	298
491.727	298
492.197	310
492.667	305
493.137	306
493.607	307
494.077	311
494.547	313
495.017	317
495.487	315
495.957	323
496.427	317
496.897	319
497.368	325
497.838	325
498.308	330
498.779	331
499.249	337
499.719	341
500.19	344
500.66	343
501.131	343
501.602	352
502.072	355
502.543	359
503.014	370
503.484	372
503.955	384
504.426	401
504.897	406
505.368	414
505.838	421
506.309	432
506.78	447
507.251	456
507.722	461
508.194	473
508.665	479
509.136	479
509.607	492
510.078	502
510.549	503
511.021	517
511.492	519
511.964	524
512.435	534
512.906	527
513.378	535
513.849	551
514.321	552
514.793	555
515.264	564
515.736	565
516.208	583
516.679	581
517.151	589
517.623	592
518.095	609
518.567	614
519.038	622
519.51	625
519.982	641
520.454	642
520.927	647
521.399	657
521.871	675
522.343	672
522.815	675
523.287	677
523.76	690
524.232	698
524.704	704
525.177	696
525.649	697
526.122	712
526.594	702
527.067	716
527.539	724
528.012	719
528.484	721
528.957	721
529.43	718
529.903	712
530.375	735
530.848	730
531.321	738
531.794	738
532.267	754
532.74	744
533.213	742
533.686	765
534.159	758
534.632	775
535.105	784
535.578	795
536.051	797
536.525	803
536.998	805
537.471	826
537.945	820
538.418	831
538.891	835
539.365	845
539.838	850
540.312	853
540.786	858
541.259	847
541.733	862
542.206	870
542.68	857
543.154	850
543.628	859
544.101	883
544.575	878
545.049	857
545.523	870
545.997	872
546.471	879
546.945	875
547.419	892
547.893	860
548.367	871
548.842	866
549.316	872
549.79	882
550.264	872
550.739	892
551.213	885
551.687	883
552.162	896
552.636	894
553.111	890
553.585	912
554.06	903
554.534	922
555.009	914
555.484	934
555.958	946
556.433	953
556.908	964
557.383	958
557.858	983
558.333	987
558.807	981
559.282	985
559.757	1021
560.232	1022
560.708	1005
561.183	1000
561.658	1014
562.133	1013
562.608	1000
563.083	1027
563.559	1002
564.034	1011
564.509	1016
564.985	1022
565.46	1015
565.936	1040
566.411	1042
566.887	1033
567.362	1037
567.838	1042
568.313	1054
568.789	1034
569.265	1034
569.74	1049
570.216	1039
570.692	1056
571.168	1056
571.644	1055
572.12	1061
572.596	1069
573.071	1074
573.547	1098
574.024	1110
574.5	1120
574.976	1129
575.452	1154
575.928	1159
576.404	1162
576.881	1203
577.357	1181
577.833	1189
578.31	1223
578.786	1247
579.262	1268
579.739	1250
580.215	1283
580.692	1281
581.169	1280
581.645	1276
582.122	1318
582.598	1307
583.075	1313
583.552	1328
584.029	1327
584.506	1323
584.982	1314
585.459	1336
585.936	1328
586.413	1341
586.89	1359
587.367	1345
587.844	1371
588.321	1364
588.799	1358
589.276	1353
589.753	1375
590.23	1392
590.707	1389
591.185	1387
591.662	1389
592.139	1413
592.617	1439
593.094	1438
593.572	1435
594.049	1455
594.527	1478
595.004	1488
595.482	1523
595.96	1500
596.437	1509
596.915	1548
597.393	1523
597.871	1564
598.349	1537
598.826	1572
599.304	1575
599.782	1604
600.26	1586
600.738	1622
601.216	1614
601.694	1637
602.173	1655
602.651	1654
603.129	1630
603.607	1655
604.085	1673
604.564	1673
605.042	1677
605.52	1670
605.999	1715
606.477	1672
606.956	1672
607.434	1696
607.913	1720
608.391	1717
608.87	1714
609.348	1695
609.827	1702
610.306	1712
610.785	1731
611.263	1731
611.742	1710
612.221	1686
612.7	1705
613.179	1718
613.658	1695
614.137	1722
614.616	1728
615.095	1699
615.574	1724
616.053	1744
616.532	1730
617.011	1737
617.491	1746
617.97	1757
618.449	1788
618.928	1803
619.408	1791
619.887	1807
620.367	1816
620.846	1840
621.326	1835
621.805	1877
622.285	1874
622.764	1896
623.244	1897
623.724	1915
624.203	1930
624.683	1888
625.163	1933
625.643	1934
626.123	1918
626.602	1948
627.082	1916
627.562	1917
628.042	1961
628.522	1945
629.002	1926
629.482	1935
629.963	1933
630.443	1928
630.923	1937
631.403	1936
631.883	1927
632.364	1944
632.844	1924
633.324	1948
633.805	1946
634.285	1931
634.766	1927
635.246	1928
635.727	1934
636.207	1956
636.688	1958
637.168	1955
637.649	1922
638.13	1919
638.611	1941
639.091	1943
639.572	1933
640.053	1923
640.534	1952
641.015	1949
641.496	1928
641.977	1964
642.458	1936
642.939	1939
643.42	1945
643.901	1949
644.382	1962
644.863	1965
645.345	1967
645.826	1958
646.307	1958
646.788	2001
647.27	1972
647.751	1985
648.233	2005
648.714	1955
649.196	2006
649.677	2009
650.159	2006
650.64	1985
651.122	2026
651.603	2000
652.085	2024
652.567	2023
653.049	2003
653.53	1994
654.012	2028
654.494	2009
654.976	2027
655.458	2031
655.94	2034
656.422	2065
656.904	2039
657.386	2014
657.868	2018
658.35	2003
658.833	2017
659.315	2031
659.797	2012
660.279	2011
660.762	2022
661.244	2000
661.726	1968
662.209	1978
662.691	1972
663.174	1933
663.656	1950
664.139	1958
664.621	1933
665.104	1926
665.587	1953
666.069	1968
666.552	1964
667.035	1938
667.517	1960
668	1962
668.483	1965
668.966	1955
669.449	1939
669.932	1949
670.415	1970
670.898	1953
671.381	1954
671.864	1978
672.347	1969
672.83	1964
673.313	1971
673.797	1968
674.28	2009
674.763	2014
675.247	2034
675.73	2028
676.213	2030
676.697	2039
677.18	2041
677.664	2041
678.147	2054
678.631	2054
679.114	2079
679.598	2066
680.082	2087
680.565	2096
681.049	2101
681.533	2093
682.017	2109
682.5	2091
682.984	2096
683.468	2093
683.952	2062
684.436	2109
684.92	2089
685.404	2099
685.888	2122
686.372	2106
686.856	2113
687.341	2131
687.825	2100
688.309	2118
688.793	2111
689.278	2083
689.762	2102
690.246	2085
690.731	2099
691.215	2122
691.7	2068
692.184	2094
692.669	2084
693.153	2099
693.638	2074
694.122	2074
694.607	2089
695.092	2071
695.577	2107
696.061	2069
696.546	2055
697.031	2055
697.516	2071
698.001	2075
698.486	2062
698.971	2091
699.456	2039
699.941	2054
700.426	2038
700.911	2067
701.396	2052
701.881	2075
702.366	2060
702.852	2062
703.337	2069
703.822	2048
704.308	2048
704.793	2070
705.278	2075
705.764	2090
706.249	2081
706.735	2064
707.22	2082
707.706	2042
708.191	2082
708.677	2093
709.163	2076
709.648	2093
710.134	2119
710.62	2096
711.106	2103
711.592	2151
712.077	2137
712.563	2085
713.049	2078
713.535	2128
714.021	2116
714.507	2102
714.993	2073
715.479	2090
715.966	2078
716.452	2078
716.938	2075
717.424	2018
717.91	2074
718.397	2071
718.883	2055
719.369	2056
719.856	2033
720.342	2061
720.829	2039
721.315	2060
721.802	2045
722.288	2048
722.775	1963
723.262	1910
723.748	1998
724.235	1993
724.722	2012
725.208	1984
725.695	1980
726.182	1971
726.669	1935
727.156	1958
727.643	1930
728.13	1927
728.617	1915
729.104	1914
729.591	1897
730.078	1914
730.565	1913
731.052	1875
731.539	1884
732.027	1877
732.514	1860
733.001	1886
733.488	1886
733.976	1876
734.463	1875
734.951	1866
735.438	1892
735.926	1881
736.413	1910
736.901	1895
737.388	1916
737.876	1924
738.364	1909
738.851	1918
739.339	1914
739.827	1922
740.314	1860
740.802	1878
741.29	1891
741.778	1868
742.266	1875
742.754	1882
743.242	1896
743.73	1854
744.218	1852
744.706	1821
745.194	1843
745.682	1829
746.17	1830
746.659	1834
747.147	1799
747.635	1802
748.123	1804
748.612	1778
749.1	1769
749.589	1783
750.077	1769
750.566	1755
751.054	1762
751.543	1772
752.031	1738
752.52	1730
753.008	1699
753.497	1713
753.986	1704
754.474	1699
754.963	1718
755.452	1700
755.941	1693
756.43	1694
756.919	1686
757.408	1674
757.896	1671
758.385	1670
758.875	1657
759.364	1644
759.853	1638
760.342	1608
760.831	1649
761.32	1638
761.809	1607
762.299	1620
762.788	1627
763.277	1624
763.767	1594
764.256	1595
764.745	1570
765.235	1598
765.724	1559
766.214	1580
766.703	1574
767.193	1552
767.683	1563
768.172	1530
768.662	1541
769.152	1543
769.641	1542
770.131	1510
770.621	1522
771.111	1490
771.601	1487
772.09	1485
772.58	1468
773.07	1477
773.56	1479
774.05	1455
774.54	1457
775.031	1450
775.521	1431
776.011	1435
776.501	1441
776.991	1408
777.482	1423
777.972	1388
778.462	1386
778.953	1396
779.443	1388
779.933	1373
780.424	1355
780.914	1369
781.405	1382
781.895	1367
782.386	1362
782.877	1358
783.367	1335
783.858	1333
784.349	1328
784.839	1322
785.33	1317
785.821	1318
786.312	1310
786.803	1313
787.293	1325
787.784	1306
788.275	1284
788.766	1275
789.257	1298
789.748	1275
790.24	1265
790.731	1275
791.222	1257
791.713	1252
792.204	1260
792.696	1223
793.187	1224
793.678	1213
794.169	1180
794.661	1185
795.152	1184
795.644	1181
796.135	1182
796.627	1193
797.118	1171
797.61	1164
798.101	1142
798.593	1149
799.085	1142
799.576	1142
800.068	1118
800.56	1122
801.052	1093
801.544	1089
802.035	1098
802.527	1078
803.019	1070
803.511	1059
804.003	1057
804.495	1056
804.987	1043
805.479	1018
805.971	1040
806.464	1040
806.956	1018
807.448	1017
807.94	1026
808.433	1013
808.925	1005
809.417	993
809.91	991
810.402	960
810.894	963
811.387	969
811.879	954
812.372	967
812.865	963
813.357	954
813.85	953
814.342	945
814.835	941
815.328	936
815.821	917
816.313	920
816.806	933
817.299	925
817.792	932
818.285	912
818.778	930
819.271	932
819.764	913
820.257	916
820.75	926
821.243	924
821.736	915
822.229	928
822.722	919
823.216	940
