Data from lamp5bck_Subt4__56__311.txt Node

Date: Wed Apr 09 10:15:50 CEST 2025
User: fys-lab-0081
Spectrometer: S04999
Trigger mode: 0
Resolution mode: 1024 pixels
Integration Time (sec): 1.000000E-1
Scans to average: 1
Nonlinearity correction enabled: false
Boxcar width: 0
Baseline correction enabled: true
XAxis mode: Wavelengths
Number of Pixels in Spectrum: 1024
>>>>>Begin Spectral Data<<<<<
336.42	2
336.877	-1
337.334	-1
337.792	-3
338.249	7
338.706	1
339.164	-3
339.621	-1
340.079	4
340.536	6
340.994	5
341.452	-4
341.909	-1
342.367	3
342.825	-2
343.283	2
343.741	1
344.198	0
344.656	0
345.114	-2
345.572	0
346.03	4
346.488	2
346.947	-3
347.405	0
347.863	-2
348.321	4
348.779	0
349.238	2
349.696	3
350.154	-1
350.613	0
351.071	1
351.53	1
351.988	3
352.447	2
352.905	1
353.364	-5
353.823	1
354.282	-1
354.74	-3
355.199	3
355.658	4
356.117	2
356.576	6
357.035	2
357.494	2
357.953	2
358.412	6
358.871	-5
359.33	0
359.789	1
360.249	-2
360.708	7
361.167	2
361.626	3
362.086	1
362.545	4
363.005	2
363.464	-1
363.924	-1
364.383	2
364.843	-1
365.303	0
365.762	-1
366.222	0
366.682	4
367.142	10
367.601	4
368.061	0
368.521	5
368.981	0
369.441	7
369.901	8
370.361	0
370.821	2
371.282	3
371.742	8
372.202	4
372.662	5
373.123	3
373.583	3
374.043	5
374.504	-3
374.964	6
375.425	1
375.885	4
376.346	7
376.806	-1
377.267	4
377.728	3
378.188	4
378.649	8
379.11	4
379.571	4
380.032	2
380.493	8
380.954	7
381.414	5
381.876	5
382.337	8
382.798	7
383.259	13
383.72	6
384.181	7
384.642	7
385.104	12
385.565	18
386.026	4
386.488	8
386.949	10
387.411	9
387.872	12
388.334	11
388.795	9
389.257	15
389.719	14
390.181	9
390.642	19
391.104	13
391.566	12
392.028	14
392.49	9
392.952	14
393.414	15
393.876	12
394.338	12
394.8	15
395.262	14
395.724	13
396.186	12
396.648	16
397.111	15
397.573	18
398.035	20
398.498	16
398.96	8
399.423	13
399.885	23
400.348	19
400.81	22
401.273	11
401.736	22
402.198	21
402.661	19
403.124	15
403.587	23
404.049	22.5
404.512	22
404.975	21
405.438	19
405.901	20
406.364	26
406.827	25
407.29	26
407.754	22
408.217	28
408.68	18
409.143	25
409.607	29
410.07	26
410.533	26
410.997	22
411.46	24
411.924	26
412.387	27
412.851	25
413.314	24
413.778	27
414.242	34
414.705	32
415.169	28
415.633	33
416.097	31
416.561	34
417.024	34
417.488	36
417.952	37
418.416	41
418.88	34
419.344	31
419.809	31
420.273	36
420.737	35
421.201	28
421.665	37
422.13	37
422.594	37
423.059	40
423.523	37
423.987	36
424.452	38
424.916	42
425.381	41
425.846	41
426.31	38
426.775	40
427.24	46
427.704	38
428.169	46
428.634	44
429.099	40
429.564	46
430.029	45
430.494	45
430.959	50
431.424	48
431.889	45
432.354	48
432.819	50
433.284	48
433.75	49
434.215	52
434.68	58
435.146	52
435.611	60
436.077	62
436.542	61
437.008	62
437.473	60
437.939	66
438.404	68
438.87	65
439.336	64
439.801	61
440.267	64
440.733	73
441.199	72
441.665	64
442.131	69
442.596	72
443.062	66
443.529	74
443.995	73
444.461	73
444.927	84
445.393	84
445.859	84
446.325	86
446.792	96
447.258	94
447.724	95
448.191	96
448.657	100
449.124	106
449.59	99
450.057	111
450.523	111
450.99	115
451.457	109
451.923	115
452.39	107
452.857	115
453.324	109
453.791	119
454.257	117
454.724	115
455.191	122
455.658	116
456.125	123
456.592	124
457.059	124
457.527	127
457.994	129
458.461	130
458.928	137
459.396	137
459.863	139
460.33	138
460.798	141
461.265	141
461.732	141
462.2	149
462.668	149
463.135	151
463.603	140
464.07	144
464.538	149
465.006	152
465.474	147
465.941	146
466.409	149
466.877	147
467.345	153
467.813	150
468.281	149
468.749	150
469.217	151
469.685	157
470.153	159
470.621	158
471.09	160
471.558	160
472.026	166
472.494	168
472.963	175
473.431	182
473.9	184
474.368	190
474.837	191
475.305	191
475.774	199
476.242	207
476.711	205
477.18	212
477.648	216
478.117	212
478.586	215
479.055	207
479.524	215
479.993	216
480.462	218
480.93	216
481.399	215
481.869	216
482.338	215
482.807	216
483.276	218
483.745	223
484.214	224
484.684	230
485.153	227
485.622	229
486.092	238
486.561	239
487.031	238
487.5	243
487.97	259
488.439	261
488.909	265
489.378	276
489.848	274
490.318	287
490.787	286
491.257	299
491.727	297
492.197	314
492.667	308
493.137	305
493.607	309
494.077	315
494.547	313
495.017	315
495.487	315
495.957	329
496.427	324
496.897	321
497.368	323
497.838	328
498.308	331
498.779	337
499.249	337
499.719	341
500.19	344
500.66	346
501.131	351
501.602	351
502.072	347
502.543	361
503.014	370
503.484	374
503.955	385
504.426	406
504.897	401
505.368	413
505.838	418
506.309	436
506.78	446
507.251	458
507.722	463
508.194	472
508.665	481
509.136	484
509.607	496
510.078	501
510.549	506
511.021	521
511.492	522
511.964	526
512.435	534
512.906	530
513.378	541
513.849	552
514.321	557
514.793	562
515.264	566
515.736	574
516.208	585
516.679	586
517.151	588
517.623	594
518.095	606
518.567	614
519.038	622
519.51	627
519.982	643
520.454	641
520.927	649
521.399	661
521.871	676
522.343	678
522.815	678
523.287	680
523.76	691
524.232	701
524.704	705
525.177	696
525.649	696
526.122	713
526.594	700
527.067	722
527.539	727
528.012	722
528.484	724
528.957	721
529.43	718
529.903	717
530.375	740
530.848	731
531.321	741
531.794	740
532.267	759
532.74	750
533.213	747
533.686	762
534.159	764
534.632	776
535.105	785
535.578	796
536.051	801
536.525	806
536.998	815
537.471	826
537.945	818
538.418	833
538.891	835
539.365	844
539.838	848
540.312	850
540.786	860
541.259	855
541.733	863
542.206	864
542.68	858
543.154	859
543.628	864
544.101	892
544.575	883
545.049	857
545.523	875
545.997	880
546.471	881
546.945	870
547.419	893
547.893	862
548.367	874
548.842	867
549.316	871
549.79	886
550.264	877
550.739	892
551.213	881
551.687	894
552.162	902
552.636	897
553.111	896
553.585	921
554.06	904
554.534	927
555.009	920
555.484	941
555.958	953
556.433	957
556.908	975
557.383	959
557.858	985
558.333	993
558.807	984
559.282	988
559.757	1018
560.232	1024
560.708	1011
561.183	1007
561.658	1017
562.133	1018
562.608	1007
563.083	1032
563.559	1009
564.034	1019
564.509	1018
564.985	1026
565.46	1017
565.936	1041
566.411	1042
566.887	1040
567.362	1041
567.838	1048
568.313	1056
568.789	1039
569.265	1035
569.74	1052
570.216	1043
570.692	1056
571.168	1059
571.644	1055
572.12	1071
572.596	1070
573.071	1077
573.547	1098
574.024	1112
574.5	1128
574.976	1133
575.452	1162
575.928	1164
576.404	1166
576.881	1205
577.357	1187
577.833	1197
578.31	1227
578.786	1250
579.262	1274
579.739	1252
580.215	1287
580.692	1281
581.169	1284
581.645	1277
582.122	1315
582.598	1318
583.075	1322
583.552	1334
584.029	1330
584.506	1326
584.982	1315
585.459	1347
585.936	1328
586.413	1340
586.89	1360
587.367	1350
587.844	1371
588.321	1362
588.799	1359
589.276	1360
589.753	1380
590.23	1389
590.707	1387
591.185	1382
591.662	1389
592.139	1424
592.617	1445
593.094	1440
593.572	1446
594.049	1466
594.527	1480
595.004	1489
595.482	1530
595.96	1508
596.437	1506
596.915	1555
597.393	1534
597.871	1566
598.349	1546
598.826	1578
599.304	1578
599.782	1614
600.26	1590
600.738	1634
601.216	1622
601.694	1633
602.173	1654
602.651	1660
603.129	1638
603.607	1651
604.085	1672
604.564	1677
605.042	1688
605.52	1675
605.999	1716
606.477	1678
606.956	1681
607.434	1697
607.913	1713
608.391	1723
608.87	1723
609.348	1698
609.827	1705
610.306	1715
610.785	1735
611.263	1740
611.742	1714
612.221	1690
612.7	1708
613.179	1727
613.658	1702
614.137	1730
614.616	1733
615.095	1690
615.574	1729
616.053	1755
616.532	1734
617.011	1743
617.491	1754
617.97	1759
618.449	1793
618.928	1806
619.408	1792
619.887	1815
620.367	1826
620.846	1852
621.326	1836
621.805	1879
622.285	1880
622.764	1897
623.244	1905
623.724	1923
624.203	1929
624.683	1900
625.163	1935
625.643	1939
626.123	1920
626.602	1956
627.082	1913
627.562	1921
628.042	1970
628.522	1956
629.002	1933
629.482	1941
629.963	1937
630.443	1937
630.923	1948
631.403	1939
631.883	1937
632.364	1947
632.844	1928
633.324	1946
633.805	1954
634.285	1932
634.766	1921
635.246	1937
635.727	1942
636.207	1960
636.688	1961
637.168	1952
637.649	1925
638.13	1920
638.611	1944
639.091	1948
639.572	1934
640.053	1925
640.534	1949
641.015	1956
641.496	1932
641.977	1963
642.458	1939
642.939	1947
643.42	1954
643.901	1955
644.382	1965
644.863	1964
645.345	1974
645.826	1968
646.307	1962
646.788	2003
647.27	1985
647.751	1992
648.233	1999
648.714	1961
649.196	2005
649.677	2015
650.159	2017
650.64	1993
651.122	2027
651.603	2007
652.085	2027
652.567	2026
653.049	2002
653.53	2000
654.012	2036
654.494	2006
654.976	2039
655.458	2028
655.94	2042
656.422	2077
656.904	2042
657.386	2009
657.868	2015
658.35	2008
658.833	2021
659.315	2031
659.797	2020
660.279	2014
660.762	2027
661.244	2003
661.726	1976
662.209	1986
662.691	1985
663.174	1939
663.656	1952
664.139	1958
664.621	1939
665.104	1929
665.587	1961
666.069	1969
666.552	1962
667.035	1942
667.517	1958
668	1969
668.483	1972
668.966	1950
669.449	1948
669.932	1948
670.415	1975
670.898	1963
671.381	1962
671.864	1979
672.347	1972
672.83	1974
673.313	1977
673.797	1973
674.28	2004
674.763	2016
675.247	2035
675.73	2030
676.213	2042
676.697	2055
677.18	2047
677.664	2059
678.147	2061
678.631	2070
679.114	2077
679.598	2073
680.082	2094
680.565	2101
681.049	2103
681.533	2102
682.017	2107
682.5	2093
682.984	2097
683.468	2099
683.952	2062
684.436	2113
684.92	2101
685.404	2114
685.888	2125
686.372	2108
686.856	2124
687.341	2142
687.825	2115
688.309	2120
688.793	2121
689.278	2093
689.762	2108
690.246	2088
690.731	2101
691.215	2123
691.7	2077
692.184	2103
692.669	2090
693.153	2100
693.638	2066
694.122	2073
694.607	2098
695.092	2079
695.577	2109
696.061	2066
696.546	2057
697.031	2065
697.516	2075
698.001	2086
698.486	2068
698.971	2094
699.456	2051
699.941	2055
700.426	2043
700.911	2073
701.396	2059
701.881	2083
702.366	2076
702.852	2063
703.337	2071
703.822	2058
704.308	2057
704.793	2075
705.278	2091
705.764	2098
706.249	2082
706.735	2062
707.22	2085
707.706	2051
708.191	2090
708.677	2096
709.163	2080
709.648	2100
710.134	2128
710.62	2107
711.106	2110
711.592	2146
712.077	2151
712.563	2090
713.049	2078
713.535	2131
714.021	2124
714.507	2107
714.993	2075
715.479	2106
715.966	2074
716.452	2077
716.938	2080
717.424	2027
717.91	2077
718.397	2072
718.883	2061
719.369	2056
719.856	2033
720.342	2062
720.829	2049
721.315	2060
721.802	2047
722.288	2051
722.775	1966
723.262	1915
723.748	2000
724.235	1996
724.722	2037
725.208	1989
725.695	1986
726.182	1971
726.669	1938
727.156	1956
727.643	1942
728.13	1930
728.617	1913
729.104	1919
729.591	1896
730.078	1910
730.565	1922
731.052	1888
731.539	1888
732.027	1881
732.514	1869
733.001	1895
733.488	1887
733.976	1880
734.463	1878
734.951	1867
735.438	1892
735.926	1881
736.413	1912
736.901	1901
737.388	1931
737.876	1921
738.364	1913
738.851	1925
739.339	1915
739.827	1929
740.314	1867
740.802	1880
741.29	1892
741.778	1874
742.266	1877
742.754	1887
743.242	1902
743.73	1855
744.218	1853
744.706	1830
745.194	1847
745.682	1829
746.17	1835
746.659	1845
747.147	1798
747.635	1812
748.123	1805
748.612	1779
749.1	1772
749.589	1790
750.077	1769
750.566	1759
751.054	1765
751.543	1773
752.031	1745
752.52	1738
753.008	1705
753.497	1717
753.986	1706
754.474	1701
754.963	1727
755.452	1696
755.941	1700
756.43	1695
756.919	1697
757.408	1679
757.896	1674
758.385	1672
758.875	1660
759.364	1643
759.853	1647
760.342	1615
760.831	1647
761.32	1638
761.809	1612
762.299	1618
762.788	1635
763.277	1627
763.767	1604
764.256	1601
764.745	1575
765.235	1606
765.724	1561
766.214	1579
766.703	1574
767.193	1555
767.683	1566
768.172	1539
768.662	1552
769.152	1544
769.641	1547
770.131	1508
770.621	1522
771.111	1502
771.601	1497
772.09	1486
772.58	1469
773.07	1482
773.56	1487
774.05	1461
774.54	1461
775.031	1447
775.521	1437
776.011	1430
776.501	1440
776.991	1412
777.482	1419
777.972	1391
778.462	1388
778.953	1401
779.443	1393
779.933	1381
780.424	1366
780.914	1377
781.405	1385
781.895	1370
782.386	1366
782.877	1367
783.367	1334
783.858	1327
784.349	1328
784.839	1319
785.33	1323
785.821	1318
786.312	1307
786.803	1318
787.293	1329
787.784	1306
788.275	1296
788.766	1270
789.257	1298
789.748	1275
790.24	1266
790.731	1285
791.222	1265
791.713	1247
792.204	1259
792.696	1223
793.187	1232
793.678	1207
794.169	1178
794.661	1199
795.152	1184
795.644	1176
796.135	1182
796.627	1192
797.118	1171
797.61	1158
798.101	1147
798.593	1155
799.085	1139
799.576	1144
800.068	1118
800.56	1120
801.052	1090
801.544	1095
802.035	1105
802.527	1081
803.019	1076
803.511	1061
804.003	1060
804.495	1060
804.987	1047
805.479	1020
805.971	1041
806.464	1043
806.956	1019
807.448	1023
807.94	1020
808.433	1013
808.925	1007
809.417	997
809.91	993
810.402	958
810.894	966
811.387	965
811.879	958
812.372	976
812.865	956
813.357	963
813.85	956
814.342	951
814.835	939
815.328	933
815.821	928
816.313	924
816.806	937
817.299	924
817.792	934
818.285	918
818.778	933
819.271	937
819.764	916
820.257	920
820.75	924
821.243	921
821.736	917
822.229	925
822.722	928
823.216	945
