Data from lamp5bck_Subt4__10__265.txt Node

Date: Wed Apr 09 10:15:44 CEST 2025
User: fys-lab-0081
Spectrometer: S04999
Trigger mode: 0
Resolution mode: 1024 pixels
Integration Time (sec): 1.000000E-1
Scans to average: 1
Nonlinearity correction enabled: false
Boxcar width: 0
Baseline correction enabled: true
XAxis mode: Wavelengths
Number of Pixels in Spectrum: 1024
>>>>>Begin Spectral Data<<<<<
336.42	4
336.877	-4
337.334	0
337.792	-3
338.249	4
338.706	7
339.164	-1
339.621	-3
340.079	2
340.536	5
340.994	6
341.452	-2
341.909	1
342.367	0
342.825	-3
343.283	1
343.741	1
344.198	0
344.656	1
345.114	2
345.572	3
346.03	-1
346.488	-1
346.947	-4
347.405	2
347.863	2
348.321	1
348.779	-2
349.238	2
349.696	1
350.154	-1
350.613	1
351.071	3
351.53	3
351.988	6
352.447	1
352.905	-3
353.364	-1
353.823	-2
354.282	0
354.74	-1
355.199	1
355.658	3
356.117	2
356.576	6
357.035	1
357.494	4
357.953	3
358.412	6
358.871	-6
359.33	-1
359.789	4
360.249	-2
360.708	2
361.167	1
361.626	4
362.086	1
362.545	6
363.005	7
363.464	-3
363.924	0
364.383	-1
364.843	2
365.303	3
365.762	1
366.222	0
366.682	5
367.142	3
367.601	5
368.061	5
368.521	5
368.981	3
369.441	6
369.901	11
370.361	1
370.821	1
371.282	5
371.742	8
372.202	5
372.662	6
373.123	3
373.583	4
374.043	9
374.504	0
374.964	1
375.425	6
375.885	7
376.346	7
376.806	5
377.267	6
377.728	7
378.188	8
378.649	7
379.11	6
379.571	4
380.032	5
380.493	5
380.954	9
381.414	2
381.876	5
382.337	8
382.798	11
383.259	10
383.72	5
384.181	9
384.642	9
385.104	10
385.565	19
386.026	9
386.488	7
386.949	9
387.411	10
387.872	4
388.334	13
388.795	10
389.257	13
389.719	16
390.181	8
390.642	12
391.104	9
391.566	12
392.028	18
392.49	9
392.952	12
393.414	14
393.876	12
394.338	14
394.8	12
395.262	15
395.724	13
396.186	16
396.648	15
397.111	17
397.573	19
398.035	16
398.498	16
398.96	13
399.423	17
399.885	19
400.348	15
400.81	24
401.273	8
401.736	19
402.198	22
402.661	20
403.124	18
403.587	21
404.049	21
404.512	21
404.975	24
405.438	23
405.901	20
406.364	23
406.827	23
407.29	28
407.754	26
408.217	24
408.68	21
409.143	22
409.607	31
410.07	24
410.533	26
410.997	25
411.46	26
411.924	24
412.387	28
412.851	31
413.314	31
413.778	28
414.242	28
414.705	28
415.169	30
415.633	29
416.097	31
416.561	29
417.024	37
417.488	39
417.952	32
418.416	40
418.88	32
419.344	32
419.809	36
420.273	34
420.737	35
421.201	23
421.665	37
422.13	36
422.594	39
423.059	40
423.523	38
423.987	40
424.452	39
424.916	40
425.381	42
425.846	44
426.31	41
426.775	41
427.24	46
427.704	40
428.169	49
428.634	46
429.099	45
429.564	44
430.029	45
430.494	51
430.959	50
431.424	40
431.889	48
432.354	52
432.819	46
433.284	47
433.75	48
434.215	52
434.68	55
435.146	51
435.611	58
436.077	53
436.542	62
437.008	62
437.473	59
437.939	64
438.404	63
438.87	72
439.336	63
439.801	65
440.267	65
440.733	74
441.199	70
441.665	67
442.131	70
442.596	75
443.062	69
443.529	75
443.995	74
444.461	72
444.927	78
445.393	82
445.859	83
446.325	85
446.792	97
447.258	93
447.724	93
448.191	100
448.657	100
449.124	105
449.59	104
450.057	114
450.523	108
450.99	109
451.457	112
451.923	113
452.39	108
452.857	115
453.324	112
453.791	116
454.257	118
454.724	119
455.191	118
455.658	114
456.125	125
456.592	120
457.059	127
457.527	126
457.994	130
458.461	130
458.928	134
459.396	135
459.863	140
460.33	137
460.798	141
461.265	136
461.732	144
462.2	143
462.668	144
463.135	145
463.603	142
464.07	142
464.538	146
465.006	149
465.474	145
465.941	147
466.409	150
466.877	141
467.345	152
467.813	149
468.281	154
468.749	151
469.217	148
469.685	156
470.153	156
470.621	153
471.09	157
471.558	165
472.026	163
472.494	169
472.963	172
473.431	181
473.9	184
474.368	189
474.837	194
475.305	194
475.774	195
476.242	211
476.711	210
477.18	214
477.648	210
478.117	211
478.586	216
479.055	211
479.524	213
479.993	211
480.462	217
480.93	219
481.399	215
481.869	216
482.338	217
482.807	218
483.276	220
483.745	221
484.214	223
484.684	226
485.153	229
485.622	230
486.092	235
486.561	234
487.031	239
487.5	246
487.97	254
488.439	261
488.909	267
489.378	275
489.848	274
490.318	283
490.787	286
491.257	299
491.727	299
492.197	311
492.667	307
493.137	309
493.607	308
494.077	313
494.547	309
495.017	316
495.487	322
495.957	326
496.427	315
496.897	318
497.368	331
497.838	330
498.308	329
498.779	336
499.249	339
499.719	335
500.19	344
500.66	346
501.131	347
501.602	350
502.072	350
502.543	360
503.014	376
503.484	376
503.955	388
504.426	398
504.897	403
505.368	415
505.838	418
506.309	436
506.78	445
507.251	455
507.722	468
508.194	476
508.665	481
509.136	475
509.607	493
510.078	501
510.549	504
511.021	516
511.492	518
511.964	528
512.435	537
512.906	530
513.378	535
513.849	550
514.321	555
514.793	561
515.264	564
515.736	570
516.208	580
516.679	587
517.151	589
517.623	596
518.095	609
518.567	612
519.038	622
519.51	627
519.982	642
520.454	647
520.927	652
521.399	655
521.871	674
522.343	677
522.815	678
523.287	679
523.76	688
524.232	697
524.704	710
525.177	704
525.649	695
526.122	708
526.594	705
527.067	721
527.539	725
528.012	721
528.484	721
528.957	720
529.43	717
529.903	713
530.375	738
530.848	732
531.321	740
531.794	740
532.267	758
532.74	749
533.213	747
533.686	768
534.159	762
534.632	779
535.105	783
535.578	798
536.051	798
536.525	803
536.998	811
537.471	829
537.945	819
538.418	835
538.891	832
539.365	841
539.838	852
540.312	855
540.786	862
541.259	849
541.733	862
542.206	867
542.68	857
543.154	858
543.628	859
544.101	888
544.575	881
545.049	860
545.523	871
545.997	875
546.471	875
546.945	874
547.419	891
547.893	861
548.367	875
548.842	867
549.316	872
549.79	884
550.264	877
550.739	892
551.213	887
551.687	893
552.162	894
552.636	890
553.111	888
553.585	926
554.06	907
554.534	923
555.009	910
555.484	939
555.958	954
556.433	955
556.908	967
557.383	964
557.858	983
558.333	987
558.807	988
559.282	992
559.757	1023
560.232	1024
560.708	1014
561.183	1004
561.658	1014
562.133	1016
562.608	1007
563.083	1031
563.559	1003
564.034	1021
564.509	1009
564.985	1018
565.46	1015
565.936	1046
566.411	1045
566.887	1040
567.362	1040
567.838	1047
568.313	1053
568.789	1036
569.265	1040
569.74	1048
570.216	1045
570.692	1061
571.168	1060
571.644	1056
572.12	1060
572.596	1070
573.071	1073
573.547	1100
574.024	1111
574.5	1125
574.976	1133
575.452	1158
575.928	1168
576.404	1171
576.881	1207
577.357	1186
577.833	1196
578.31	1223
578.786	1245
579.262	1272
579.739	1251
580.215	1291
580.692	1286
581.169	1281
581.645	1283
582.122	1317
582.598	1317
583.075	1315
583.552	1330
584.029	1327
584.506	1329
584.982	1314
585.459	1342
585.936	1333
586.413	1342
586.89	1365
587.367	1347
587.844	1372
588.321	1367
588.799	1356
589.276	1359
589.753	1377
590.23	1393
590.707	1389
591.185	1389
591.662	1393
592.139	1415
592.617	1440
593.094	1443
593.572	1446
594.049	1458
594.527	1476
595.004	1489
595.482	1526
595.96	1506
596.437	1507
596.915	1552
597.393	1533
597.871	1562
598.349	1541
598.826	1581
599.304	1576
599.782	1611
600.26	1586
600.738	1626
601.216	1624
601.694	1638
602.173	1659
602.651	1660
603.129	1634
603.607	1655
604.085	1680
604.564	1682
605.042	1684
605.52	1667
605.999	1721
606.477	1678
606.956	1680
607.434	1699.5
607.913	1719
608.391	1722
608.87	1718
609.348	1695
609.827	1708
610.306	1715
610.785	1733
611.263	1736
611.742	1716
612.221	1688
612.7	1710
613.179	1721
613.658	1701
614.137	1727
614.616	1726
615.095	1693
615.574	1723
616.053	1757
616.532	1730
617.011	1743
617.491	1749
617.97	1757
618.449	1790
618.928	1802
619.408	1789
619.887	1815
620.367	1820
620.846	1845
621.326	1838
621.805	1877
622.285	1877
622.764	1893
623.244	1901
623.724	1921
624.203	1930
624.683	1893
625.163	1934
625.643	1937
626.123	1921
626.602	1958
627.082	1925
627.562	1922
628.042	1972
628.522	1945
629.002	1931
629.482	1941
629.963	1941
630.443	1935
630.923	1945
631.403	1943
631.883	1933
632.364	1948
632.844	1935
633.324	1938
633.805	1951
634.285	1932
634.766	1927
635.246	1931
635.727	1946
636.207	1958
636.688	1966
637.168	1953
637.649	1920
638.13	1920
638.611	1945
639.091	1946
639.572	1928
640.053	1933
640.534	1957
641.015	1957
641.496	1931
641.977	1962
642.458	1941
642.939	1944
643.42	1947
643.901	1953
644.382	1970
644.863	1963
645.345	1972
645.826	1960
646.307	1960
646.788	2006
647.27	1980
647.751	1981
648.233	2002
648.714	1956
649.196	2016
649.677	2009
650.159	2013
650.64	1990
651.122	2025
651.603	2009
652.085	2029
652.567	2028
653.049	2004
653.53	2004
654.012	2036
654.494	2002
654.976	2034
655.458	2031
655.94	2037
656.422	2071
656.904	2042
657.386	2016
657.868	2013
658.35	2003
658.833	2024
659.315	2037
659.797	2016
660.279	2008
660.762	2024
661.244	2004
661.726	1980
662.209	1984
662.691	1975
663.174	1941
663.656	1955
664.139	1955
664.621	1934
665.104	1932
665.587	1960
666.069	1967
666.552	1961
667.035	1942
667.517	1954
668	1976
668.483	1971
668.966	1951
669.449	1942
669.932	1946
670.415	1977
670.898	1960
671.381	1964
671.864	1982
672.347	1969
672.83	1967
673.313	1973
673.797	1972
674.28	2011
674.763	2019
675.247	2034
675.73	2032
676.213	2043
676.697	2048
677.18	2043
677.664	2055
678.147	2058
678.631	2064
679.114	2077
679.598	2076
680.082	2096
680.565	2105
681.049	2103
681.533	2100
682.017	2109
682.5	2102
682.984	2101
683.468	2097
683.952	2056
684.436	2111
684.92	2096
685.404	2111
685.888	2126
686.372	2106
686.856	2118
687.341	2140
687.825	2113
688.309	2127
688.793	2119
689.278	2087
689.762	2103
690.246	2092
690.731	2106
691.215	2128
691.7	2074
692.184	2098
692.669	2090
693.153	2104
693.638	2068
694.122	2071
694.607	2089
695.092	2080
695.577	2114
696.061	2067
696.546	2063
697.031	2059
697.516	2083
698.001	2083
698.486	2059
698.971	2099
699.456	2044
699.941	2052
700.426	2048
700.911	2069
701.396	2056
701.881	2079
702.366	2071
702.852	2060
703.337	2069
703.822	2058
704.308	2053
704.793	2071
705.278	2083
705.764	2089
706.249	2080
706.735	2066
707.22	2087
707.706	2053
708.191	2083
708.677	2095
709.163	2082
709.648	2102
710.134	2126
710.62	2103
711.106	2106
711.592	2144
712.077	2138
712.563	2094
713.049	2084
713.535	2126
714.021	2115
714.507	2103
714.993	2083
715.479	2097
715.966	2074
716.452	2079
716.938	2079
717.424	2028
717.91	2077
718.397	2075
718.883	2059
719.369	2056
719.856	2038
720.342	2062
720.829	2045
721.315	2063
721.802	2046
722.288	2051
722.775	1962
723.262	1914
723.748	2000
724.235	1991
724.722	2027
725.208	1983
725.695	1985
726.182	1971
726.669	1946
727.156	1949
727.643	1934
728.13	1931
728.617	1913
729.104	1921
729.591	1893
730.078	1912
730.565	1914
731.052	1891
731.539	1893
732.027	1885
732.514	1871
733.001	1892
733.488	1886
733.976	1876
734.463	1868
734.951	1870
735.438	1891
735.926	1885
736.413	1909
736.901	1896
737.388	1928
737.876	1918
738.364	1904
738.851	1926
739.339	1909
739.827	1926
740.314	1860
740.802	1883
741.29	1893
741.778	1876
742.266	1878
742.754	1879
743.242	1899
743.73	1857
744.218	1854
744.706	1828
745.194	1843
745.682	1837
746.17	1829
746.659	1841
747.147	1797
747.635	1812
748.123	1809
748.612	1775
749.1	1768
749.589	1792
750.077	1777
750.566	1763
751.054	1762
751.543	1776
752.031	1737
752.52	1741
753.008	1704
753.497	1712
753.986	1705
754.474	1705
754.963	1722
755.452	1700
755.941	1700
756.43	1689
756.919	1685
757.408	1681
757.896	1673
758.385	1668
758.875	1657
759.364	1656
759.853	1645
760.342	1616
760.831	1650
761.32	1643
761.809	1609
762.299	1626
762.788	1631
763.277	1620
763.767	1599
764.256	1610
764.745	1581
765.235	1605
765.724	1569
766.214	1580
766.703	1572
767.193	1561
767.683	1569
768.172	1537
768.662	1549
769.152	1543
769.641	1546
770.131	1505
770.621	1521
771.111	1505
771.601	1499
772.09	1481
772.58	1466
773.07	1480
773.56	1485
774.05	1460
774.54	1462
775.031	1447
775.521	1445
776.011	1428
776.501	1439
776.991	1412
777.482	1422
777.972	1390
778.462	1388
778.953	1403
779.443	1386
779.933	1372
780.424	1366
780.914	1371
781.405	1383
781.895	1364
782.386	1364
782.877	1363
783.367	1337
783.858	1329
784.349	1330
784.839	1325
785.33	1321
785.821	1321
786.312	1313
786.803	1323
787.293	1325
787.784	1307
788.275	1292
788.766	1278
789.257	1299
789.748	1271
790.24	1264
790.731	1282
791.222	1259
791.713	1251
792.204	1261
792.696	1221
793.187	1232
793.678	1214
794.169	1186
794.661	1188
795.152	1185
795.644	1184
796.135	1181
796.627	1194
797.118	1169
797.61	1156
798.101	1142
798.593	1157
799.085	1140
799.576	1138
800.068	1121
800.56	1116
801.052	1092
801.544	1098
802.035	1103
802.527	1081
803.019	1072
803.511	1063
804.003	1056
804.495	1061
804.987	1045
805.479	1021
805.971	1038
806.464	1041
806.956	1022
807.448	1021
807.94	1020
808.433	1009
808.925	1011
809.417	992
809.91	988
810.402	960
810.894	962
811.387	971
811.879	960
812.372	976
812.865	961
813.357	965
813.85	951
814.342	947
814.835	946
815.328	936
815.821	925
816.313	927
816.806	937
817.299	924
817.792	933
818.285	921
818.778	935
819.271	935
819.764	921
820.257	918
820.75	926
821.243	923
821.736	917
822.229	931
822.722	925
823.216	943
