Data from lamp5bck_Subt4__28__283.txt Node

Date: Wed Apr 09 10:15:47 CEST 2025
User: fys-lab-0081
Spectrometer: S04999
Trigger mode: 0
Resolution mode: 1024 pixels
Integration Time (sec): 1.000000E-1
Scans to average: 1
Nonlinearity correction enabled: false
Boxcar width: 0
Baseline correction enabled: true
XAxis mode: Wavelengths
Number of Pixels in Spectrum: 1024
>>>>>Begin Spectral Data<<<<<
336.42	2
336.877	-1
337.334	3
337.792	1
338.249	3
338.706	3
339.164	-4
339.621	0
340.079	3
340.536	2
340.994	6
341.452	0
341.909	3
342.367	3
342.825	-4
343.283	1
343.741	-3
344.198	1
344.656	1
345.114	-1
345.572	-1
346.03	5
346.488	5
346.947	0
347.405	-1
347.863	1
348.321	3
348.779	1
349.238	5
349.696	0
350.154	0
350.613	3
351.071	0
351.53	1
351.988	3
352.447	0
352.905	-1
353.364	2
353.823	-2
354.282	0
354.74	-3
355.199	1
355.658	-1
356.117	-2
356.576	1
357.035	5
357.494	2
357.953	7
358.412	8
358.871	-3
359.33	0
359.789	3
360.249	0
360.708	2
361.167	2
361.626	2
362.086	-4
362.545	4
363.005	7
363.464	0
363.924	2
364.383	5
364.843	-2
365.303	2
365.762	5
366.222	4
366.682	1
367.142	6
367.601	5
368.061	4
368.521	9
368.981	4
369.441	9
369.901	9
370.361	1
370.821	2
371.282	6
371.742	1
372.202	6
372.662	5
373.123	5
373.583	5
374.043	8
374.504	-4
374.964	4
375.425	5
375.885	8
376.346	11
376.806	1
377.267	-3
377.728	7
378.188	6
378.649	3
379.11	6
379.571	5
380.032	5
380.493	5
380.954	8
381.414	3
381.876	5
382.337	7
382.798	11
383.259	13
383.72	7
384.181	5
384.642	6
385.104	8
385.565	21
386.026	11
386.488	7
386.949	5
387.411	11
387.872	11
388.334	14
388.795	7
389.257	13
389.719	11
390.181	8
390.642	14
391.104	12
391.566	10
392.028	18
392.49	5
392.952	14
393.414	15
393.876	12
394.338	14
394.8	12
395.262	13
395.724	14
396.186	19
396.648	17
397.111	15
397.573	16
398.035	19
398.498	15
398.96	15
399.423	13
399.885	22
400.348	18
400.81	23
401.273	14
401.736	18
402.198	19
402.661	21
403.124	20
403.587	22
404.049	23.5
404.512	25
404.975	27
405.438	22
405.901	20
406.364	24
406.827	22
407.29	22
407.754	27
408.217	31
408.68	18
409.143	27
409.607	28
410.07	25
410.533	24
410.997	28
411.46	23
411.924	27
412.387	29
412.851	26
413.314	30
413.778	29
414.242	27
414.705	27
415.169	32
415.633	28
416.097	29
416.561	29
417.024	35
417.488	36
417.952	37
418.416	36
418.88	34
419.344	30
419.809	36
420.273	36
420.737	36
421.201	29
421.665	39
422.13	37
422.594	37
423.059	40
423.523	38
423.987	41
424.452	37
424.916	45
425.381	40
425.846	40
426.31	44
426.775	39
427.24	46
427.704	41
428.169	46
428.634	42
429.099	46
429.564	45
430.029	45
430.494	46
430.959	43
431.424	47
431.889	51
432.354	43
432.819	51
433.284	48
433.75	49
434.215	51
434.68	54
435.146	52
435.611	57
436.077	57
436.542	58
437.008	62
437.473	64
437.939	66
438.404	63
438.87	69
439.336	63
439.801	62
440.267	66
440.733	68
441.199	74
441.665	62
442.131	72
442.596	73
443.062	69
443.529	76
443.995	72
444.461	76
444.927	87
445.393	81
445.859	82
446.325	85
446.792	94
447.258	94
447.724	95
448.191	99
448.657	99
449.124	108
449.59	101
450.057	111
450.523	112
450.99	111
451.457	110
451.923	117
452.39	111
452.857	117
453.324	113
453.791	119
454.257	119
454.724	116
455.191	120
455.658	117
456.125	127
456.592	122
457.059	122
457.527	127
457.994	132
458.461	129
458.928	136
459.396	134
459.863	135
460.33	139
460.798	138
461.265	140
461.732	143
462.2	148
462.668	148
463.135	150
463.603	140
464.07	141
464.538	149
465.006	152
465.474	148
465.941	146
466.409	146
466.877	144
467.345	155
467.813	147
468.281	154
468.749	154
469.217	151
469.685	157
470.153	159
470.621	159
471.09	158
471.558	166
472.026	164
472.494	167
472.963	177
473.431	181
473.9	186
474.368	193
474.837	190
475.305	191
475.774	198
476.242	209
476.711	206
477.18	212
477.648	214
478.117	217
478.586	215
479.055	212
479.524	216
479.993	216
480.462	217
480.93	213
481.399	217
481.869	219
482.338	216
482.807	218
483.276	220
483.745	225
484.214	223
484.684	230
485.153	227
485.622	226
486.092	242
486.561	233
487.031	239
487.5	243
487.97	254
488.439	266
488.909	267
489.378	275
489.848	277
490.318	288
490.787	291
491.257	297
491.727	298
492.197	310
492.667	307
493.137	310
493.607	311
494.077	312
494.547	312
495.017	319
495.487	323
495.957	326
496.427	321
496.897	325
497.368	328
497.838	328
498.308	332
498.779	337
499.249	339
499.719	336
500.19	344
500.66	346
501.131	351
501.602	351
502.072	351
502.543	358
503.014	373
503.484	372
503.955	384
504.426	406
504.897	406
505.368	415
505.838	421
506.309	436
506.78	447
507.251	457
507.722	460
508.194	479
508.665	484
509.136	481
509.607	499
510.078	504
510.549	505
511.021	519
511.492	521
511.964	526
512.435	534
512.906	528
513.378	540
513.849	551
514.321	557
514.793	556
515.264	568
515.736	572
516.208	581
516.679	586
517.151	592
517.623	598
518.095	610
518.567	609
519.038	623
519.51	628
519.982	642
520.454	648
520.927	658
521.399	666
521.871	676
522.343	677
522.815	680
523.287	682
523.76	694
524.232	705
524.704	710
525.177	704
525.649	702
526.122	716
526.594	705
527.067	725
527.539	730
528.012	728
528.484	724
528.957	726
529.43	722
529.903	717
530.375	745
530.848	732
531.321	743
531.794	740
532.267	755
532.74	752
533.213	753
533.686	768
534.159	762
534.632	777
535.105	784
535.578	798
536.051	806
536.525	803
536.998	811
537.471	825
537.945	819
538.418	843
538.891	841
539.365	850
539.838	850
540.312	852
540.786	868
541.259	856
541.733	866
542.206	867
542.68	860
543.154	859
543.628	864
544.101	890
544.575	881
545.049	866
545.523	878
545.997	885
546.471	886
546.945	873
547.419	899
547.893	869
548.367	876
548.842	871
549.316	877
549.79	882
550.264	882
550.739	895
551.213	888
551.687	886
552.162	901
552.636	898
553.111	899
553.585	924
554.06	908
554.534	926
555.009	918
555.484	941
555.958	956
556.433	960
556.908	970
557.383	958
557.858	991
558.333	993
558.807	990
559.282	992
559.757	1024
560.232	1029
560.708	1012
561.183	1005
561.658	1018
562.133	1019
562.608	1003
563.083	1041
563.559	1007
564.034	1023
564.509	1018
564.985	1029
565.46	1020
565.936	1048
566.411	1041
566.887	1037
567.362	1045
567.838	1050
568.313	1057
568.789	1045
569.265	1036
569.74	1050
570.216	1041
570.692	1061
571.168	1061
571.644	1060
572.12	1062
572.596	1078
573.071	1078
573.547	1097
574.024	1115
574.5	1131
574.976	1141
575.452	1161
575.928	1169
576.404	1168
576.881	1206
577.357	1188
577.833	1200
578.31	1227
578.786	1252
579.262	1278
579.739	1254
580.215	1292
580.692	1283
581.169	1286
581.645	1280
582.122	1319
582.598	1322
583.075	1319
583.552	1330
584.029	1329
584.506	1330
584.982	1319
585.459	1347
585.936	1337
586.413	1344
586.89	1370
587.367	1346
587.844	1375
588.321	1366
588.799	1374
589.276	1361
589.753	1385
590.23	1401
590.707	1391
591.185	1392
591.662	1401
592.139	1422
592.617	1444
593.094	1441
593.572	1441
594.049	1469
594.527	1482
595.004	1496
595.482	1530
595.96	1513
596.437	1510
596.915	1557
597.393	1533
597.871	1571
598.349	1547
598.826	1583
599.304	1583
599.782	1620
600.26	1589
600.738	1637
601.216	1628
601.694	1637
602.173	1660
602.651	1661
603.129	1637
603.607	1661
604.085	1676
604.564	1686
605.042	1692
605.52	1669
605.999	1725
606.477	1685
606.956	1683
607.434	1703
607.913	1723
608.391	1733
608.87	1728
609.348	1702
609.827	1715
610.306	1725
610.785	1735
611.263	1739
611.742	1722
612.221	1689
612.7	1713
613.179	1730
613.658	1703
614.137	1731
614.616	1734
615.095	1695
615.574	1734
616.053	1755
616.532	1735
617.011	1748
617.491	1759
617.97	1768
618.449	1794
618.928	1813
619.408	1799
619.887	1815
620.367	1827
620.846	1854
621.326	1843
621.805	1889
622.285	1888
622.764	1904
623.244	1910
623.724	1931
624.203	1934
624.683	1899
625.163	1934
625.643	1941
626.123	1927
626.602	1962
627.082	1933
627.562	1926
628.042	1971
628.522	1950
629.002	1939
629.482	1946
629.963	1952
630.443	1937
630.923	1949
631.403	1946
631.883	1943
632.364	1949
632.844	1937
633.324	1956
633.805	1966
634.285	1938
634.766	1933
635.246	1938
635.727	1942
636.207	1965
636.688	1973
637.168	1960
637.649	1930
638.13	1928
638.611	1950
639.091	1955
639.572	1939
640.053	1937
640.534	1959
641.015	1960
641.496	1938
641.977	1974
642.458	1953
642.939	1950
643.42	1956
643.901	1963
644.382	1977
644.863	1974
645.345	1977
645.826	1970
646.307	1969
646.788	2014
647.27	1986
647.751	1988
648.233	2010
648.714	1958
649.196	2015
649.677	2020
650.159	2017
650.64	1991
651.122	2030
651.603	2015
652.085	2032
652.567	2035
653.049	2011
653.53	2008
654.012	2039
654.494	2009
654.976	2041
655.458	2038
655.94	2042
656.422	2076
656.904	2051
657.386	2027
657.868	2017
658.35	2014
658.833	2026
659.315	2043
659.797	2021
660.279	2015
660.762	2029
661.244	2015
661.726	1982
662.209	1985
662.691	1983
663.174	1941
663.656	1959
664.139	1962
664.621	1946
665.104	1931
665.587	1965
666.069	1977
666.552	1974
667.035	1950
667.517	1954
668	1967
668.483	1977
668.966	1966
669.449	1950
669.932	1960
670.415	1981
670.898	1969
671.381	1966
671.864	1984
672.347	1975
672.83	1981
673.313	1975
673.797	1972
674.28	2018
674.763	2028
675.247	2050
675.73	2036
676.213	2043
676.697	2054
677.18	2052
677.664	2058
678.147	2066
678.631	2075
679.114	2078
679.598	2080
680.082	2102
680.565	2106
681.049	2109
681.533	2106
682.017	2114
682.5	2108
682.984	2112
683.468	2110
683.952	2064
684.436	2121
684.92	2098
685.404	2111
685.888	2126
686.372	2120
686.856	2124
687.341	2149
687.825	2113
688.309	2125
688.793	2118
689.278	2089
689.762	2111
690.246	2092
690.731	2115
691.215	2130
691.7	2078
692.184	2108
692.669	2096
693.153	2104
693.638	2072
694.122	2082
694.607	2101
695.092	2084
695.577	2117
696.061	2064
696.546	2072
697.031	2069
697.516	2080
698.001	2079
698.486	2069
698.971	2102
699.456	2055
699.941	2059
700.426	2052
700.911	2076
701.396	2064
701.881	2085
702.366	2073
702.852	2067
703.337	2082
703.822	2064
704.308	2066
704.793	2069
705.278	2086
705.764	2104
706.249	2091
706.735	2074
707.22	2088
707.706	2055
708.191	2091
708.677	2102
709.163	2086
709.648	2102
710.134	2127
710.62	2108
711.106	2119
711.592	2161
712.077	2148
712.563	2092
713.049	2084
713.535	2133
714.021	2123
714.507	2109
714.993	2089
715.479	2103
715.966	2083
716.452	2083
716.938	2083
717.424	2029
717.91	2086
718.397	2086
718.883	2064
719.369	2060
719.856	2046
720.342	2071
720.829	2055
721.315	2064
721.802	2047
722.288	2055
722.775	1975
723.262	1925
723.748	2003
724.235	2001
724.722	2029
725.208	1994
725.695	1993
726.182	1983
726.669	1948
727.156	1959
727.643	1943
728.13	1930
728.617	1919
729.104	1919
729.591	1901
730.078	1922
730.565	1924
731.052	1888
731.539	1894
732.027	1886
732.514	1871
733.001	1897
733.488	1888
733.976	1882
734.463	1887
734.951	1878
735.438	1896
735.926	1894
736.413	1918
736.901	1901
737.388	1932
737.876	1927
738.364	1917
738.851	1927
739.339	1920
739.827	1934
740.314	1876
740.802	1888
741.29	1895
741.778	1881
742.266	1882
742.754	1891
743.242	1908
743.73	1861
744.218	1854
744.706	1834
745.194	1853
745.682	1835
746.17	1838
746.659	1847
747.147	1799
747.635	1806
748.123	1813
748.612	1781
749.1	1775
749.589	1796
750.077	1781
750.566	1763
751.054	1768
751.543	1770
752.031	1746
752.52	1742
753.008	1708
753.497	1725
753.986	1715
754.474	1705
754.963	1728
755.452	1707
755.941	1705
756.43	1689
756.919	1694
757.408	1689
757.896	1686
758.385	1676
758.875	1661
759.364	1658
759.853	1645
760.342	1622
760.831	1650
761.32	1643
761.809	1614
762.299	1628
762.788	1641
763.277	1627
763.767	1602
764.256	1604
764.745	1581
765.235	1612
765.724	1563
766.214	1588
766.703	1577
767.193	1562
767.683	1575
768.172	1535
768.662	1554
769.152	1550
769.641	1553
770.131	1510
770.621	1526
771.111	1508
771.601	1503
772.09	1492
772.58	1476
773.07	1481
773.56	1497
774.05	1467
774.54	1464
775.031	1454
775.521	1448
776.011	1438
776.501	1443
776.991	1413
777.482	1419
777.972	1392
778.462	1396
778.953	1406
779.443	1396
779.933	1384
780.424	1372
780.914	1381
781.405	1390
781.895	1373
782.386	1372
782.877	1368
783.367	1338
783.858	1329
784.349	1331
784.839	1326
785.33	1325
785.821	1329
786.312	1311
786.803	1319
787.293	1327
787.784	1306
788.275	1301
788.766	1275
789.257	1304
789.748	1277
790.24	1275
790.731	1286
791.222	1265
791.713	1257
792.204	1260
792.696	1226
793.187	1233
793.678	1220
794.169	1182
794.661	1200
795.152	1183
795.644	1179
796.135	1175
796.627	1196
797.118	1175
797.61	1164
798.101	1142
798.593	1159
799.085	1143
799.576	1143
800.068	1123
800.56	1122
801.052	1097
801.544	1097
802.035	1104
802.527	1086
803.019	1078
803.511	1063
804.003	1061
804.495	1069
804.987	1041
805.479	1022
805.971	1042
806.464	1045
806.956	1018
807.448	1023
807.94	1030
808.433	1017
808.925	1012
809.417	997
809.91	989
810.402	967
810.894	968
811.387	974
811.879	963
812.372	971
812.865	963
813.357	968
813.85	958
814.342	953
814.835	942
815.328	942
815.821	929
816.313	927
816.806	935
817.299	925
817.792	941
818.285	926
818.778	939
819.271	939
819.764	919
820.257	921
820.75	925
821.243	924
821.736	919
822.229	930
822.722	927
823.216	945
