Data from lamp5bck_Subt4__29__284.txt Node

Date: Wed Apr 09 10:15:47 CEST 2025
User: fys-lab-0081
Spectrometer: S04999
Trigger mode: 0
Resolution mode: 1024 pixels
Integration Time (sec): 1.000000E-1
Scans to average: 1
Nonlinearity correction enabled: false
Boxcar width: 0
Baseline correction enabled: true
XAxis mode: Wavelengths
Number of Pixels in Spectrum: 1024
>>>>>Begin Spectral Data<<<<<
336.42	-3
336.877	3
337.334	-2
337.792	0
338.249	8
338.706	0
339.164	-4
339.621	0
340.079	-1
340.536	5
340.994	5
341.452	0
341.909	1
342.367	-4
342.825	0
343.283	4
343.741	2
344.198	0
344.656	0
345.114	-2
345.572	3
346.03	0
346.488	6
346.947	-2
347.405	3
347.863	2
348.321	2
348.779	-2
349.238	6
349.696	0
350.154	1
350.613	-2
351.071	-1
351.53	7
351.988	4
352.447	-1
352.905	1
353.364	-6
353.823	0
354.282	0
354.74	-3
355.199	1
355.658	1
356.117	6
356.576	5
357.035	1
357.494	0
357.953	5
358.412	4
358.871	-3
359.33	0
359.789	2
360.249	-5
360.708	5
361.167	-2
361.626	1
362.086	-2
362.545	0
363.005	8
363.464	-1
363.924	2
364.383	5
364.843	0
365.303	4
365.762	-2
366.222	-2
366.682	1
367.142	4
367.601	1
368.061	2
368.521	9
368.981	4
369.441	5
369.901	12
370.361	4
370.821	0
371.282	4
371.742	7
372.202	4
372.662	9
373.123	7
373.583	0
374.043	3
374.504	1
374.964	3
375.425	1
375.885	5
376.346	3
376.806	3
377.267	5
377.728	6
378.188	5
378.649	4
379.11	8
379.571	7
380.032	1
380.493	4
380.954	8
381.414	1
381.876	6
382.337	5
382.798	12
383.259	14
383.72	5
384.181	9
384.642	6
385.104	9
385.565	17
386.026	8
386.488	8
386.949	12
387.411	9
387.872	8
388.334	12
388.795	10
389.257	14
389.719	12
390.181	8
390.642	15
391.104	11
391.566	9
392.028	14
392.49	12
392.952	13
393.414	16
393.876	17
394.338	15
394.8	11
395.262	16
395.724	11
396.186	16
396.648	18
397.111	19
397.573	16
398.035	21
398.498	15
398.96	13
399.423	13
399.885	19
400.348	19
400.81	22
401.273	16
401.736	21
402.198	19
402.661	19
403.124	20
403.587	20
404.049	21
404.512	22
404.975	22
405.438	21
405.901	18
406.364	21
406.827	25
407.29	29
407.754	26
408.217	26
408.68	21
409.143	24
409.607	30
410.07	24
410.533	23
410.997	27
411.46	24
411.924	24
412.387	25
412.851	24
413.314	31
413.778	27
414.242	31
414.705	26
415.169	29
415.633	33
416.097	35
416.561	29
417.024	33
417.488	36
417.952	36
418.416	36
418.88	34
419.344	35
419.809	35
420.273	33
420.737	31
421.201	28
421.665	38
422.13	42
422.594	36
423.059	39
423.523	32
423.987	41
424.452	37
424.916	42
425.381	40
425.846	38
426.31	44
426.775	41
427.24	47
427.704	38
428.169	47
428.634	47
429.099	44
429.564	44
430.029	43
430.494	51
430.959	50
431.424	43
431.889	44
432.354	47
432.819	49
433.284	47
433.75	47
434.215	52
434.68	54
435.146	59
435.611	58
436.077	56
436.542	62
437.008	62
437.473	63
437.939	64
438.404	61
438.87	67
439.336	66
439.801	65
440.267	68
440.733	73
441.199	72
441.665	65
442.131	74
442.596	70
443.062	64
443.529	74
443.995	79
444.461	74
444.927	83
445.393	82
445.859	84
446.325	88
446.792	96
447.258	96
447.724	94
448.191	101
448.657	100
449.124	105
449.59	99
450.057	109
450.523	109
450.99	106
451.457	108
451.923	115
452.39	110
452.857	114
453.324	113
453.791	116
454.257	115
454.724	116
455.191	118
455.658	117
456.125	125
456.592	125
457.059	124
457.527	123
457.994	127
458.461	130
458.928	139
459.396	132
459.863	138
460.33	138
460.798	144
461.265	140
461.732	147
462.2	145
462.668	147
463.135	151
463.603	143
464.07	143
464.538	144
465.006	152
465.474	149
465.941	145
466.409	146
466.877	146
467.345	151
467.813	152
468.281	149
468.749	151
469.217	156
469.685	156
470.153	156
470.621	155
471.09	163
471.558	167
472.026	168
472.494	169
472.963	172
473.431	180
473.9	183
474.368	191
474.837	189
475.305	193
475.774	201
476.242	209
476.711	204
477.18	209
477.648	216
478.117	215
478.586	216
479.055	214
479.524	216
479.993	218
480.462	218
480.93	217
481.399	216
481.869	218
482.338	220
482.807	222
483.276	220
483.745	223
484.214	222
484.684	230
485.153	230
485.622	229
486.092	236
486.561	237
487.031	243
487.5	249
487.97	253
488.439	263
488.909	270
489.378	276
489.848	277
490.318	285
490.787	289
491.257	298
491.727	299
492.197	309
492.667	307
493.137	303
493.607	313
494.077	318
494.547	314
495.017	316
495.487	323
495.957	330
496.427	325
496.897	319
497.368	324
497.838	326
498.308	332
498.779	335
499.249	337
499.719	339
500.19	349
500.66	346
501.131	351
501.602	351
502.072	352
502.543	362
503.014	370
503.484	375
503.955	390
504.426	399
504.897	411
505.368	416
505.838	421
506.309	430
506.78	448
507.251	457
507.722	466
508.194	479
508.665	484
509.136	478
509.607	497
510.078	504
510.549	509
511.021	522
511.492	519
511.964	526
512.435	536
512.906	528
513.378	541
513.849	553
514.321	559
514.793	561
515.264	570
515.736	571
516.208	586
516.679	587
517.151	598
517.623	596
518.095	609
518.567	616
519.038	625
519.51	630
519.982	645
520.454	649
520.927	656
521.399	661
521.871	674
522.343	676
522.815	684
523.287	677
523.76	693
524.232	703
524.704	714
525.177	701
525.649	705
526.122	715
526.594	705
527.067	723
527.539	730
528.012	722
528.484	722
528.957	724
529.43	723
529.903	714
530.375	741
530.848	727
531.321	739
531.794	742
532.267	760
532.74	747
533.213	747
533.686	768
534.159	761
534.632	775
535.105	786
535.578	798
536.051	805
536.525	806
536.998	816
537.471	827
537.945	821
538.418	844
538.891	840
539.365	846
539.838	849
540.312	860
540.786	863
541.259	860
541.733	862
542.206	873
542.68	862
543.154	856
543.628	858
544.101	894
544.575	885
545.049	862
545.523	877
545.997	881
546.471	886
546.945	873
547.419	898
547.893	860
548.367	878
548.842	869
549.316	877
549.79	887
550.264	880
550.739	895
551.213	887
551.687	896
552.162	899
552.636	896
553.111	898
553.585	923
554.06	910
554.534	932
555.009	921
555.484	940
555.958	958
556.433	960
556.908	974
557.383	965
557.858	988
558.333	993
558.807	989
559.282	993
559.757	1031
560.232	1029
560.708	1014
561.183	1008
561.658	1021
562.133	1017
562.608	1008
563.083	1038
563.559	1012
564.034	1024
564.509	1016
564.985	1029
565.46	1022
565.936	1046
566.411	1051
566.887	1042
567.362	1045
567.838	1049
568.313	1056
568.789	1046
569.265	1035
569.74	1056
570.216	1045
570.692	1063
571.168	1061
571.644	1060
572.12	1068
572.596	1083
573.071	1077
573.547	1103
574.024	1115
574.5	1128
574.976	1139
575.452	1162
575.928	1166
576.404	1169
576.881	1205
577.357	1195
577.833	1200
578.31	1229
578.786	1251
579.262	1271
579.739	1258
580.215	1294
580.692	1291
581.169	1285
581.645	1289
582.122	1316
582.598	1325
583.075	1323
583.552	1332
584.029	1338
584.506	1331
584.982	1316
585.459	1349
585.936	1336
586.413	1349
586.89	1371
587.367	1345
587.844	1376
588.321	1371
588.799	1365
589.276	1361
589.753	1379
590.23	1396
590.707	1390
591.185	1394
591.662	1394
592.139	1417
592.617	1448
593.094	1446
593.572	1444
594.049	1473
594.527	1484
595.004	1498
595.482	1530
595.96	1507
596.437	1516
596.915	1565
597.393	1532
597.871	1568
598.349	1547
598.826	1582
599.304	1583
599.782	1620
600.26	1595
600.738	1638
601.216	1632
601.694	1637
602.173	1661
602.651	1663
603.129	1639
603.607	1664
604.085	1678
604.564	1683
605.042	1679
605.52	1683
605.999	1730
606.477	1678
606.956	1685
607.434	1705
607.913	1725
608.391	1737
608.87	1726
609.348	1697
609.827	1719
610.306	1725
610.785	1738
611.263	1744
611.742	1724
612.221	1689
612.7	1711
613.179	1733
613.658	1709
614.137	1730
614.616	1732
615.095	1692
615.574	1730
616.053	1757
616.532	1735
617.011	1748
617.491	1756
617.97	1766
618.449	1799
618.928	1815
619.408	1803
619.887	1815
620.367	1825
620.846	1857
621.326	1843
621.805	1887
622.285	1881
622.764	1910
623.244	1913
623.724	1935
624.203	1936
624.683	1904
625.163	1944
625.643	1941
626.123	1928
626.602	1961
627.082	1923
627.562	1931
628.042	1976
628.522	1950
629.002	1934
629.482	1949
629.963	1946
630.443	1945
630.923	1944
631.403	1946
631.883	1940
632.364	1951
632.844	1934
633.324	1955
633.805	1957
634.285	1939
634.766	1931
635.246	1939
635.727	1955
636.207	1971
636.688	1969
637.168	1960
637.649	1933
638.13	1929
638.611	1951
639.091	1954
639.572	1942
640.053	1939
640.534	1965
641.015	1961
641.496	1944
641.977	1970
642.458	1954
642.939	1952
643.42	1961
643.901	1957
644.382	1982
644.863	1971
645.345	1985
645.826	1967
646.307	1969
646.788	2013
647.27	1985
647.751	2001
648.233	2010
648.714	1964
649.196	2020
649.677	2017
650.159	2022
650.64	1999
651.122	2034
651.603	2005
652.085	2036
652.567	2034
653.049	2007
653.53	2006
654.012	2037
654.494	2018
654.976	2036
655.458	2042
655.94	2039
656.422	2074
656.904	2049
657.386	2028
657.868	2029
658.35	2017
658.833	2030
659.315	2044
659.797	2020
660.279	2018
660.762	2033
661.244	2012
661.726	1979
662.209	1994
662.691	1990
663.174	1944
663.656	1962
664.139	1965
664.621	1946
665.104	1942
665.587	1965
666.069	1975
666.552	1969
667.035	1953
667.517	1961
668	1972
668.483	1971
668.966	1959
669.449	1957
669.932	1961
670.415	1978
670.898	1966
671.381	1965
671.864	1986
672.347	1983
672.83	1981
673.313	1978
673.797	1975
674.28	2019
674.763	2024
675.247	2045
675.73	2035
676.213	2045
676.697	2052
677.18	2050
677.664	2060
678.147	2059
678.631	2070
679.114	2083
679.598	2080
680.082	2106
680.565	2108
681.049	2109
681.533	2108
682.017	2118
682.5	2101
682.984	2108
683.468	2101
683.952	2069
684.436	2120
684.92	2097
685.404	2112
685.888	2127
686.372	2120
686.856	2128
687.341	2142
687.825	2116
688.309	2127
688.793	2126
689.278	2097
689.762	2111
690.246	2097
690.731	2111
691.215	2132
691.7	2079
692.184	2105
692.669	2098
693.153	2106
693.638	2077
694.122	2076
694.607	2099
695.092	2080
695.577	2122
696.061	2077
696.546	2067
697.031	2068
697.516	2081
698.001	2087
698.486	2075
698.971	2108
699.456	2058
699.941	2053
700.426	2052
700.911	2081
701.396	2072
701.881	2085
702.366	2076
702.852	2068
703.337	2075
703.822	2064
704.308	2060
704.793	2076
705.278	2094
705.764	2101
706.249	2083
706.735	2082
707.22	2100
707.706	2055
708.191	2098
708.677	2104
709.163	2086
709.648	2104
710.134	2132
710.62	2103
711.106	2117
711.592	2155
712.077	2153
712.563	2100
713.049	2091
713.535	2129
714.021	2127
714.507	2113
714.993	2085
715.479	2104
715.966	2077
716.452	2091
716.938	2085
717.424	2035
717.91	2088
718.397	2085
718.883	2063
719.369	2062
719.856	2041
720.342	2072
720.829	2049
721.315	2068
721.802	2055
722.288	2059
722.775	1979
723.262	1917
723.748	2007
724.235	2003
724.722	2034
725.208	1992
725.695	1990
726.182	1978
726.669	1949
727.156	1959
727.643	1941
728.13	1933
728.617	1922
729.104	1928
729.591	1899
730.078	1918
730.565	1920
731.052	1889
731.539	1896
732.027	1891
732.514	1864
733.001	1903
733.488	1894
733.976	1877
734.463	1884
734.951	1874
735.438	1906
735.926	1887
736.413	1918
736.901	1898
737.388	1932
737.876	1928
738.364	1915
738.851	1926
739.339	1923
739.827	1934
740.314	1871
740.802	1888
741.29	1900
741.778	1873
742.266	1882
742.754	1893
743.242	1900
743.73	1854
744.218	1856
744.706	1838
745.194	1854
745.682	1831
746.17	1835
746.659	1844
747.147	1807
747.635	1808
748.123	1809
748.612	1787
749.1	1775
749.589	1796
750.077	1783
750.566	1762
751.054	1769
751.543	1772
752.031	1744
752.52	1742
753.008	1707
753.497	1722
753.986	1713
754.474	1698
754.963	1721
755.452	1701
755.941	1698
756.43	1699
756.919	1693
757.408	1685
757.896	1680
758.385	1683
758.875	1666
759.364	1654
759.853	1650
760.342	1619
760.831	1658
761.32	1642
761.809	1621
762.299	1627
762.788	1638
763.277	1624
763.767	1602
764.256	1606
764.745	1582
765.235	1608
765.724	1567
766.214	1587
766.703	1577
767.193	1561
767.683	1571
768.172	1538
768.662	1552
769.152	1555
769.641	1553
770.131	1515
770.621	1525
771.111	1504
771.601	1503
772.09	1480
772.58	1474
773.07	1489
773.56	1491
774.05	1469
774.54	1466
775.031	1451
775.521	1444
776.011	1436
776.501	1447
776.991	1410
777.482	1427
777.972	1394
778.462	1392
778.953	1402
779.443	1387
779.933	1377
780.424	1368
780.914	1378
781.405	1386
781.895	1373
782.386	1367
782.877	1364
783.367	1336
783.858	1334
784.349	1334
784.839	1332
785.33	1323
785.821	1320
786.312	1311
786.803	1325
787.293	1327
787.784	1306
788.275	1296
788.766	1275
789.257	1303
789.748	1271
790.24	1266
790.731	1288
791.222	1268
791.713	1257
792.204	1265
792.696	1228
793.187	1238
793.678	1219
794.169	1181
794.661	1197
795.152	1190
795.644	1188
796.135	1188
796.627	1195
797.118	1178
797.61	1157
798.101	1146
798.593	1151
799.085	1146
799.576	1150
800.068	1120
800.56	1128
801.052	1098
801.544	1099
802.035	1102
802.527	1085
803.019	1079
803.511	1067
804.003	1065
804.495	1060
804.987	1043
805.479	1021
805.971	1040
806.464	1042
806.956	1017
807.448	1026
807.94	1025
808.433	1015
808.925	1012
809.417	996
809.91	992
810.402	959
810.894	962
811.387	975
811.879	965
812.372	971
812.865	962
813.357	967
813.85	961
814.342	949
814.835	946
815.328	936
815.821	922
816.313	932
816.806	933
817.299	932
817.792	935
818.285	925
818.778	937
819.271	937
819.764	916
820.257	927
820.75	926
821.243	923
821.736	918
822.229	929
822.722	926
823.216	944
