Data from lamp5bck_Subt4__78__333.txt Node

Date: Wed Apr 09 10:15:53 CEST 2025
User: fys-lab-0081
Spectrometer: S04999
Trigger mode: 0
Resolution mode: 1024 pixels
Integration Time (sec): 1.000000E-1
Scans to average: 1
Nonlinearity correction enabled: false
Boxcar width: 0
Baseline correction enabled: true
XAxis mode: Wavelengths
Number of Pixels in Spectrum: 1024
>>>>>Begin Spectral Data<<<<<
336.42	0
336.877	0
337.334	1
337.792	1
338.249	3
338.706	-1
339.164	0
339.621	-4
340.079	-1
340.536	6
340.994	5
341.452	-5
341.909	0
342.367	-4
342.825	-3
343.283	0
343.741	0
344.198	-2
344.656	-3
345.114	-3
345.572	3
346.03	3
346.488	1
346.947	-3
347.405	-1
347.863	3
348.321	3
348.779	-2
349.238	1
349.696	3
350.154	2
350.613	-1
351.071	3
351.53	0
351.988	3
352.447	-3
352.905	-1
353.364	-4
353.823	0
354.282	4
354.74	-1
355.199	0
355.658	5
356.117	2
356.576	5
357.035	0
357.494	6
357.953	7
358.412	8
358.871	-4
359.33	0
359.789	2
360.249	-3
360.708	4
361.167	2
361.626	4
362.086	-2
362.545	1
363.005	2
363.464	-4
363.924	-1
364.383	7
364.843	1
365.303	3
365.762	0
366.222	-2
366.682	4
367.142	1
367.601	3
368.061	1
368.521	7
368.981	1
369.441	5
369.901	1
370.361	2
370.821	2
371.282	4
371.742	4
372.202	3
372.662	5
373.123	5
373.583	4
374.043	3
374.504	0
374.964	4
375.425	2
375.885	6
376.346	7
376.806	4
377.267	4
377.728	7
378.188	7
378.649	4
379.11	6
379.571	4
380.032	5
380.493	0
380.954	8
381.414	7
381.876	7
382.337	6
382.798	8
383.259	13
383.72	3
384.181	12
384.642	3
385.104	14
385.565	22
386.026	7
386.488	4
386.949	10
387.411	11
387.872	5
388.334	10
388.795	7
389.257	19
389.719	17
390.181	12
390.642	15
391.104	9
391.566	9
392.028	15
392.49	13
392.952	14
393.414	11
393.876	11
394.338	12
394.8	7
395.262	14
395.724	12
396.186	17
396.648	20
397.111	16
397.573	19
398.035	15
398.498	18
398.96	17
399.423	17
399.885	15
400.348	16
400.81	25
401.273	16
401.736	22
402.198	20
402.661	19
403.124	19
403.587	25
404.049	23.5
404.512	22
404.975	22
405.438	21
405.901	24
406.364	25
406.827	27
407.29	26
407.754	25
408.217	25
408.68	20
409.143	23
409.607	27
410.07	25
410.533	26
410.997	26
411.46	22
411.924	28
412.387	27
412.851	26
413.314	29
413.778	30
414.242	29
414.705	29
415.169	35
415.633	29
416.097	31
416.561	32
417.024	37
417.488	38
417.952	34
418.416	38
418.88	34
419.344	32
419.809	31
420.273	33
420.737	32
421.201	28
421.665	36
422.13	40
422.594	37
423.059	39
423.523	36
423.987	38
424.452	38
424.916	40
425.381	39
425.846	43
426.31	43
426.775	41
427.24	49
427.704	38
428.169	45
428.634	46
429.099	40
429.564	48
430.029	48
430.494	49
430.959	48
431.424	45
431.889	48
432.354	50
432.819	44
433.284	46
433.75	47
434.215	52
434.68	53
435.146	52
435.611	56
436.077	58
436.542	64
437.008	64
437.473	59
437.939	67
438.404	69
438.87	67
439.336	65
439.801	65
440.267	68
440.733	71
441.199	71
441.665	64
442.131	73
442.596	68
443.062	68
443.529	72
443.995	74
444.461	71
444.927	85
445.393	77
445.859	85
446.325	85
446.792	96
447.258	91
447.724	92
448.191	99
448.657	97
449.124	102
449.59	103
450.057	111
450.523	108
450.99	112
451.457	111
451.923	115
452.39	112
452.857	122
453.324	110
453.791	118
454.257	118
454.724	117
455.191	117
455.658	116
456.125	121
456.592	119
457.059	124
457.527	126
457.994	133
458.461	131
458.928	141
459.396	137
459.863	140
460.33	137
460.798	137
461.265	140
461.732	144
462.2	147
462.668	142
463.135	150
463.603	141
464.07	148
464.538	144
465.006	148
465.474	142
465.941	144
466.409	148
466.877	141
467.345	152
467.813	149
468.281	149
468.749	150
469.217	151
469.685	155
470.153	160
470.621	152
471.09	157
471.558	163
472.026	164
472.494	166
472.963	174
473.431	180
473.9	183
474.368	191
474.837	192
475.305	192
475.774	198
476.242	208
476.711	206
477.18	213
477.648	211
478.117	213
478.586	214
479.055	209
479.524	215
479.993	221
480.462	219
480.93	211
481.399	211
481.869	217
482.338	220
482.807	216
483.276	215
483.745	223
484.214	229
484.684	228
485.153	230
485.622	227
486.092	237
486.561	237
487.031	239
487.5	246
487.97	256
488.439	260
488.909	266
489.378	278
489.848	276
490.318	281
490.787	290
491.257	304
491.727	293
492.197	308
492.667	305
493.137	309
493.607	309
494.077	315
494.547	312
495.017	314
495.487	321
495.957	327
496.427	320
496.897	323
497.368	322
497.838	324
498.308	333
498.779	332
499.249	340
499.719	337
500.19	344
500.66	344
501.131	347
501.602	351
502.072	344
502.543	357
503.014	371
503.484	373
503.955	385
504.426	403
504.897	408
505.368	417
505.838	420
506.309	430
506.78	443
507.251	454
507.722	470
508.194	475
508.665	480
509.136	477
509.607	496
510.078	506
510.549	505
511.021	518
511.492	523
511.964	526
512.435	539
512.906	528
513.378	542
513.849	550
514.321	558
514.793	559
515.264	566
515.736	571
516.208	583
516.679	583
517.151	590
517.623	595
518.095	606
518.567	616
519.038	628
519.51	626
519.982	645
520.454	649
520.927	650
521.399	657
521.871	677
522.343	675
522.815	679
523.287	677
523.76	694
524.232	707
524.704	706
525.177	698
525.649	702
526.122	716
526.594	702
527.067	716
527.539	730
528.012	721
528.484	720
528.957	722
529.43	722
529.903	714
530.375	745
530.848	731
531.321	740
531.794	739
532.267	756
532.74	748
533.213	750
533.686	764
534.159	756
534.632	778
535.105	784
535.578	795
536.051	797
536.525	805
536.998	814
537.471	827
537.945	822
538.418	841
538.891	839
539.365	847
539.838	850
540.312	852
540.786	861
541.259	854
541.733	867
542.206	869
542.68	862
543.154	860
543.628	862
544.101	893
544.575	889
545.049	858
545.523	877
545.997	879
546.471	888
546.945	878
547.419	899
547.893	862
548.367	871
548.842	864
549.316	871
549.79	889
550.264	873
550.739	893
551.213	885
551.687	889
552.162	897
552.636	896
553.111	894
553.585	924
554.06	906
554.534	924
555.009	913
555.484	941
555.958	955
556.433	960
556.908	970
557.383	961
557.858	988
558.333	989
558.807	989
559.282	995
559.757	1016
560.232	1019
560.708	1008
561.183	1007
561.658	1024
562.133	1014
562.608	1002
563.083	1036
563.559	1003
564.034	1017
564.509	1020
564.985	1026
565.46	1017
565.936	1041
566.411	1042
566.887	1036
567.362	1041
567.838	1048
568.313	1057
568.789	1042
569.265	1039
569.74	1051
570.216	1040
570.692	1061
571.168	1065
571.644	1060
572.12	1057
572.596	1072
573.071	1074
573.547	1102
574.024	1109
574.5	1126
574.976	1134
575.452	1163
575.928	1164
576.404	1164
576.881	1207
577.357	1191
577.833	1197
578.31	1221
578.786	1248
579.262	1271
579.739	1258
580.215	1290
580.692	1284
581.169	1276
581.645	1284
582.122	1316
582.598	1315
583.075	1317
583.552	1336
584.029	1330
584.506	1329
584.982	1307
585.459	1345
585.936	1332
586.413	1343
586.89	1363
587.367	1352
587.844	1373
588.321	1367
588.799	1368
589.276	1356
589.753	1383
590.23	1392
590.707	1390
591.185	1385
591.662	1387
592.139	1410
592.617	1438
593.094	1441
593.572	1443
594.049	1460
594.527	1484
595.004	1491
595.482	1528
595.96	1506
596.437	1503
596.915	1550
597.393	1532
597.871	1566
598.349	1547
598.826	1582
599.304	1576
599.782	1612
600.26	1592
600.738	1626
601.216	1618
601.694	1631
602.173	1658
602.651	1659
603.129	1637
603.607	1657
604.085	1679
604.564	1678
605.042	1683
605.52	1675
605.999	1718
606.477	1680
606.956	1686
607.434	1700
607.913	1714
608.391	1727
608.87	1724
609.348	1701
609.827	1706
610.306	1721
610.785	1732
611.263	1742
611.742	1711
612.221	1691
612.7	1707
613.179	1724
613.658	1702
614.137	1731
614.616	1730
615.095	1693
615.574	1724
616.053	1748
616.532	1737
617.011	1740
617.491	1752
617.97	1760
618.449	1791
618.928	1808
619.408	1797
619.887	1812
620.367	1826
620.846	1852
621.326	1844
621.805	1884
622.285	1879
622.764	1908
623.244	1906
623.724	1920
624.203	1927
624.683	1893
625.163	1933
625.643	1938
626.123	1924
626.602	1952
627.082	1921
627.562	1931
628.042	1972
628.522	1944
629.002	1938
629.482	1944
629.963	1943
630.443	1937
630.923	1942
631.403	1948
631.883	1936
632.364	1953
632.844	1932
633.324	1947
633.805	1952
634.285	1936
634.766	1929
635.246	1931
635.727	1950
636.207	1961
636.688	1967
637.168	1952
637.649	1928
638.13	1923
638.611	1946
639.091	1953
639.572	1933
640.053	1937
640.534	1950
641.015	1958
641.496	1934
641.977	1963
642.458	1943
642.939	1951
643.42	1949
643.901	1951
644.382	1971
644.863	1969
645.345	1968
645.826	1966
646.307	1968
646.788	2004
647.27	1986
647.751	1991
648.233	2003
648.714	1956
649.196	2016
649.677	2014
650.159	2010
650.64	1996
651.122	2031
651.603	2010
652.085	2035
652.567	2034
653.049	2006
653.53	2004
654.012	2040
654.494	2008
654.976	2032
655.458	2041
655.94	2039
656.422	2077
656.904	2043
657.386	2020
657.868	2013
658.35	2018
658.833	2031
659.315	2041
659.797	2014
660.279	2012
660.762	2028
661.244	2007
661.726	1983
662.209	1986
662.691	1982
663.174	1939
663.656	1954
664.139	1960
664.621	1939
665.104	1926
665.587	1958
666.069	1971
666.552	1964
667.035	1945
667.517	1955
668	1969
668.483	1972
668.966	1958
669.449	1950
669.932	1956
670.415	1982
670.898	1964
671.381	1964
671.864	1982
672.347	1973
672.83	1975
673.313	1973
673.797	1973
674.28	2012
674.763	2023
675.247	2041
675.73	2029
676.213	2044
676.697	2048
677.18	2042
677.664	2055
678.147	2057
678.631	2062
679.114	2073
679.598	2079
680.082	2101
680.565	2109
681.049	2105
681.533	2101
682.017	2115
682.5	2096
682.984	2101
683.468	2098
683.952	2068
684.436	2114
684.92	2091
685.404	2107
685.888	2132
686.372	2116
686.856	2122
687.341	2144
687.825	2109
688.309	2128
688.793	2119
689.278	2086
689.762	2105
690.246	2098
690.731	2106
691.215	2127
691.7	2081
692.184	2102
692.669	2092
693.153	2109
693.638	2075
694.122	2071
694.607	2093
695.092	2080
695.577	2114
696.061	2065
696.546	2063
697.031	2056
697.516	2078
698.001	2081
698.486	2065
698.971	2103
699.456	2052
699.941	2048
700.426	2049
700.911	2076
701.396	2063
701.881	2081
702.366	2066
702.852	2063
703.337	2079
703.822	2064
704.308	2049
704.793	2075
705.278	2086
705.764	2097
706.249	2080
706.735	2063
707.22	2085
707.706	2049
708.191	2086
708.677	2098
709.163	2087
709.648	2100
710.134	2126
710.62	2105
711.106	2113
711.592	2153
712.077	2153
712.563	2094
713.049	2088
713.535	2132
714.021	2120
714.507	2110
714.993	2080
715.479	2098
715.966	2081
716.452	2082
716.938	2081
717.424	2031
717.91	2076
718.397	2082
718.883	2058
719.369	2061
719.856	2037
720.342	2060
720.829	2044
721.315	2065
721.802	2049
722.288	2057
722.775	1971
723.262	1917
723.748	1988
724.235	1996
724.722	2029
725.208	1983
725.695	1978
726.182	1972
726.669	1951
727.156	1956
727.643	1935
728.13	1925
728.617	1915
729.104	1913
729.591	1900
730.078	1914
730.565	1920
731.052	1890
731.539	1893
732.027	1884
732.514	1866
733.001	1889
733.488	1889
733.976	1880
734.463	1874
734.951	1872
735.438	1893
735.926	1891
736.413	1915
736.901	1900
737.388	1927
737.876	1928
738.364	1906
738.851	1929
739.339	1915
739.827	1930
740.314	1862
740.802	1881
741.29	1899
741.778	1872
742.266	1880
742.754	1886
743.242	1903
743.73	1859
744.218	1853
744.706	1830
745.194	1845
745.682	1835
746.17	1833
746.659	1845
747.147	1797
747.635	1804
748.123	1807
748.612	1780
749.1	1769
749.589	1788
750.077	1772
750.566	1754
751.054	1768
751.543	1774
752.031	1737
752.52	1734
753.008	1707
753.497	1718
753.986	1713
754.474	1703
754.963	1724
755.452	1701
755.941	1699
756.43	1700
756.919	1687
757.408	1681
757.896	1675
758.385	1674
758.875	1662
759.364	1648
759.853	1641
760.342	1619
760.831	1653
761.32	1642
761.809	1609
762.299	1626
762.788	1633
763.277	1617
763.767	1600
764.256	1599
764.745	1575
765.235	1608
765.724	1571
766.214	1580
766.703	1574
767.193	1562
767.683	1569
768.172	1535
768.662	1548
769.152	1543
769.641	1547
770.131	1509
770.621	1522
771.111	1498
771.601	1497
772.09	1482
772.58	1473
773.07	1475
773.56	1484
774.05	1462
774.54	1453
775.031	1449
775.521	1436
776.011	1434
776.501	1438
776.991	1413
777.482	1425
777.972	1392
778.462	1390
778.953	1407
779.443	1387
779.933	1376
780.424	1366
780.914	1379
781.405	1383
781.895	1370
782.386	1367
782.877	1366
783.367	1336
783.858	1331
784.349	1331
784.839	1316
785.33	1322
785.821	1324
786.312	1311
786.803	1319
787.293	1328
787.784	1311
788.275	1295
788.766	1272
789.257	1300
789.748	1278
790.24	1265
790.731	1284
791.222	1264
791.713	1251
792.204	1258
792.696	1226
793.187	1235
793.678	1213
794.169	1181
794.661	1192
795.152	1187
795.644	1180
796.135	1179
796.627	1194
797.118	1176
797.61	1160
798.101	1145
798.593	1152
799.085	1152
799.576	1147
800.068	1121
800.56	1121
801.052	1094
801.544	1087
802.035	1101
802.527	1086
803.019	1077
803.511	1068
804.003	1058
804.495	1068
804.987	1050
805.479	1021
805.971	1043
806.464	1040
806.956	1017
807.448	1017
807.94	1017
808.433	1013
808.925	1011
809.417	997
809.91	989
810.402	961
810.894	974
811.387	973
811.879	964
812.372	973
812.865	960
813.357	964
813.85	951
814.342	945
814.835	943
815.328	938
815.821	927
816.313	926
816.806	939
817.299	926
817.792	932
818.285	924
818.778	934
819.271	936
819.764	914
820.257	925
820.75	923
821.243	923
821.736	920
822.229	928
822.722	923
823.216	950
