Data from lamp5bck_Subt4__3__258.txt Node

Date: Wed Apr 09 10:15:44 CEST 2025
User: fys-lab-0081
Spectrometer: S04999
Trigger mode: 0
Resolution mode: 1024 pixels
Integration Time (sec): 1.000000E-1
Scans to average: 1
Nonlinearity correction enabled: false
Boxcar width: 0
Baseline correction enabled: true
XAxis mode: Wavelengths
Number of Pixels in Spectrum: 1024
>>>>>Begin Spectral Data<<<<<
336.42	2
336.877	-1
337.334	1
337.792	-2
338.249	4
338.706	3
339.164	-1
339.621	-1
340.079	4
340.536	4
340.994	6
341.452	-5
341.909	0
342.367	-1
342.825	2
343.283	1
343.741	1
344.198	2
344.656	-3
345.114	-1
345.572	2
346.03	-1
346.488	1
346.947	2
347.405	2
347.863	5
348.321	4
348.779	-3
349.238	5
349.696	3
350.154	0
350.613	-2
351.071	3
351.53	6
351.988	5
352.447	2
352.905	0
353.364	-2
353.823	3
354.282	2
354.74	0
355.199	1
355.658	5
356.117	7
356.576	7
357.035	4
357.494	1
357.953	6
358.412	3
358.871	-1
359.33	-1
359.789	3
360.249	1
360.708	4
361.167	-4
361.626	3
362.086	-1
362.545	0
363.005	7
363.464	-3
363.924	1
364.383	6
364.843	0
365.303	4
365.762	1
366.222	1
366.682	3
367.142	6
367.601	4
368.061	-2
368.521	13
368.981	-2
369.441	3
369.901	7
370.361	4
370.821	2
371.282	1
371.742	4
372.202	6
372.662	6
373.123	2
373.583	0
374.043	6
374.504	0
374.964	3
375.425	4
375.885	3
376.346	4
376.806	5
377.267	5
377.728	8
378.188	4
378.649	11
379.11	7
379.571	9
380.032	4
380.493	7
380.954	6
381.414	4
381.876	6
382.337	8
382.798	9
383.259	13
383.72	7
384.181	6
384.642	4
385.104	12
385.565	19
386.026	5
386.488	6
386.949	9
387.411	9
387.872	7
388.334	8
388.795	7
389.257	11
389.719	9
390.181	11
390.642	13
391.104	8
391.566	11
392.028	22
392.49	12
392.952	12
393.414	18
393.876	16
394.338	13
394.8	14
395.262	14
395.724	15
396.186	19
396.648	15
397.111	15
397.573	17
398.035	19
398.498	16
398.96	16
399.423	12
399.885	20
400.348	16
400.81	21
401.273	17
401.736	21
402.198	20
402.661	22
403.124	17
403.587	22
404.049	20
404.512	18
404.975	21
405.438	20
405.901	21
406.364	22
406.827	25
407.29	28
407.754	23
408.217	28
408.68	17
409.143	23
409.607	28
410.07	26
410.533	28
410.997	27
411.46	24
411.924	29
412.387	26
412.851	27
413.314	27
413.778	26
414.242	31
414.705	32
415.169	37
415.633	25
416.097	33
416.561	36
417.024	32
417.488	34
417.952	35
418.416	37
418.88	33
419.344	30
419.809	33
420.273	34
420.737	32
421.201	29
421.665	37
422.13	34
422.594	37
423.059	39
423.523	36
423.987	37
424.452	39
424.916	41
425.381	37
425.846	39
426.31	41
426.775	42
427.24	48
427.704	39
428.169	48
428.634	47
429.099	44
429.564	44
430.029	47
430.494	47
430.959	49
431.424	48
431.889	43
432.354	48
432.819	48
433.284	50
433.75	51
434.215	56
434.68	53
435.146	52
435.611	54
436.077	57
436.542	59
437.008	60
437.473	64
437.939	67
438.404	65
438.87	66
439.336	64
439.801	68
440.267	64
440.733	73
441.199	75
441.665	65
442.131	76
442.596	73
443.062	68
443.529	76
443.995	74
444.461	77
444.927	83
445.393	79
445.859	83
446.325	89
446.792	98
447.258	90
447.724	98
448.191	96
448.657	98
449.124	103
449.59	102
450.057	114
450.523	109
450.99	109
451.457	110
451.923	114
452.39	112
452.857	115
453.324	111
453.791	113
454.257	120
454.724	117
455.191	120
455.658	119
456.125	125
456.592	122
457.059	119
457.527	127
457.994	132
458.461	131
458.928	138
459.396	136
459.863	136
460.33	141
460.798	137
461.265	142
461.732	143
462.2	146
462.668	142
463.135	149
463.603	143
464.07	138
464.538	149
465.006	150
465.474	150
465.941	148
466.409	148
466.877	144
467.345	154
467.813	152
468.281	150
468.749	150
469.217	153
469.685	153
470.153	159
470.621	158
471.09	163
471.558	166
472.026	168
472.494	168
472.963	176
473.431	183
473.9	185
474.368	187
474.837	191
475.305	191
475.774	199
476.242	209
476.711	204
477.18	213
477.648	213
478.117	212
478.586	216
479.055	206
479.524	214
479.993	216
480.462	216
480.93	218
481.399	215
481.869	216
482.338	221
482.807	215
483.276	215
483.745	222
484.214	226
484.684	231
485.153	229
485.622	228
486.092	239
486.561	237
487.031	241
487.5	248
487.97	255
488.439	264
488.909	268
489.378	274
489.848	276
490.318	284
490.787	290
491.257	301
491.727	296
492.197	306
492.667	304
493.137	310
493.607	311
494.077	317
494.547	312
495.017	319
495.487	319
495.957	327
496.427	327
496.897	319
497.368	327
497.838	327
498.308	331
498.779	332
499.249	337
499.719	340
500.19	347
500.66	350
501.131	350
501.602	352
502.072	353
502.543	362
503.014	376
503.484	373
503.955	389
504.426	405
504.897	405
505.368	416
505.838	421
506.309	435
506.78	447
507.251	461
507.722	461
508.194	476
508.665	482
509.136	478
509.607	497
510.078	506
510.549	509
511.021	523
511.492	520
511.964	527
512.435	541
512.906	533
513.378	544
513.849	553
514.321	554
514.793	559
515.264	565
515.736	573
516.208	582
516.679	584
517.151	589
517.623	597
518.095	608
518.567	616
519.038	625
519.51	628
519.982	643
520.454	643
520.927	653
521.399	662
521.871	673
522.343	675
522.815	680
523.287	682
523.76	695
524.232	702
524.704	708
525.177	697
525.649	706
526.122	714
526.594	701
527.067	721
527.539	729
528.012	726
528.484	725
528.957	723
529.43	727
529.903	714
530.375	746
530.848	730
531.321	746
531.794	745
532.267	763
532.74	750
533.213	750
533.686	772
534.159	760
534.632	778
535.105	785
535.578	797
536.051	800
536.525	804
536.998	813
537.471	834
537.945	817
538.418	841
538.891	835
539.365	848
539.838	853
540.312	856
540.786	863
541.259	855
541.733	862
542.206	866
542.68	857
543.154	862
543.628	865
544.101	895
544.575	881
545.049	865
545.523	873
545.997	881
546.471	889
546.945	874
547.419	898
547.893	864
548.367	877
548.842	873
549.316	877
549.79	892
550.264	880
550.739	890
551.213	884
551.687	893
552.162	901
552.636	893
553.111	894
553.585	926
554.06	903
554.534	925
555.009	915
555.484	944
555.958	959
556.433	956
556.908	972
557.383	963
557.858	994
558.333	995
558.807	992
559.282	996
559.757	1026
560.232	1023
560.708	1013
561.183	1000
561.658	1021
562.133	1020
562.608	1007
563.083	1036
563.559	1003
564.034	1025
564.509	1024
564.985	1024
565.46	1022
565.936	1046
566.411	1049
566.887	1041
567.362	1046
567.838	1048
568.313	1057
568.789	1042
569.265	1037
569.74	1054
570.216	1045
570.692	1064
571.168	1058
571.644	1059
572.12	1065
572.596	1075
573.071	1081
573.547	1101
574.024	1112
574.5	1127
574.976	1140
575.452	1159
575.928	1164
576.404	1168
576.881	1203
577.357	1187
577.833	1202
578.31	1231
578.786	1253
579.262	1273
579.739	1258
580.215	1290
580.692	1287
581.169	1284
581.645	1282
582.122	1318
582.598	1326
583.075	1329
583.552	1335
584.029	1331
584.506	1332
584.982	1321
585.459	1343
585.936	1332
586.413	1346
586.89	1368
587.367	1352
587.844	1374
588.321	1365
588.799	1364
589.276	1360
589.753	1385
590.23	1393
590.707	1396
591.185	1393
591.662	1398
592.139	1417
592.617	1449
593.094	1444
593.572	1451
594.049	1461
594.527	1487
595.004	1496
595.482	1533
595.96	1515
596.437	1510
596.915	1559
597.393	1531
597.871	1572
598.349	1554
598.826	1580
599.304	1584
599.782	1617
600.26	1595
600.738	1629
601.216	1620
601.694	1640
602.173	1665
602.651	1662
603.129	1636
603.607	1666
604.085	1681
604.564	1686
605.042	1690
605.52	1675
605.999	1723
606.477	1684
606.956	1685
607.434	1702.5
607.913	1720
608.391	1725
608.87	1729
609.348	1700
609.827	1715
610.306	1723
610.785	1726
611.263	1741
611.742	1722
612.221	1691
612.7	1709
613.179	1735
613.658	1711
614.137	1736
614.616	1738
615.095	1700
615.574	1734
616.053	1756
616.532	1739
617.011	1750
617.491	1757
617.97	1765
618.449	1799
618.928	1811
619.408	1799
619.887	1821
620.367	1828
620.846	1852
621.326	1844
621.805	1890
622.285	1886
622.764	1906
623.244	1907
623.724	1923
624.203	1935
624.683	1897
625.163	1938
625.643	1939
626.123	1928
626.602	1963
627.082	1931
627.562	1926
628.042	1976
628.522	1951
629.002	1937
629.482	1941
629.963	1945
630.443	1937
630.923	1952
631.403	1941
631.883	1941
632.364	1952
632.844	1941
633.324	1951
633.805	1958
634.285	1941
634.766	1928
635.246	1937
635.727	1950
636.207	1963
636.688	1970
637.168	1966
637.649	1933
638.13	1925
638.611	1945
639.091	1955
639.572	1935
640.053	1936
640.534	1955
641.015	1958
641.496	1932
641.977	1973
642.458	1946
642.939	1955
643.42	1954
643.901	1963
644.382	1976
644.863	1968
645.345	1974
645.826	1970
646.307	1970
646.788	2011
647.27	1982
647.751	1993
648.233	2009
648.714	1962
649.196	2018
649.677	2019
650.159	2022
650.64	1995
651.122	2024
651.603	2011
652.085	2035
652.567	2038
653.049	2007
653.53	1998
654.012	2039
654.494	2020
654.976	2040
655.458	2033
655.94	2050
656.422	2077
656.904	2049
657.386	2029
657.868	2025
658.35	2017
658.833	2024
659.315	2040
659.797	2019
660.279	2017
660.762	2030
661.244	2006
661.726	1981
662.209	1987
662.691	1992
663.174	1939
663.656	1956
664.139	1970
664.621	1949
665.104	1933
665.587	1965
666.069	1981
666.552	1966
667.035	1949
667.517	1957
668	1970
668.483	1977
668.966	1960
669.449	1944
669.932	1955
670.415	1984
670.898	1963
671.381	1965
671.864	1986
672.347	1974
672.83	1969
673.313	1974
673.797	1972
674.28	2018
674.763	2030
675.247	2039
675.73	2033
676.213	2050
676.697	2055
677.18	2050
677.664	2059
678.147	2058
678.631	2072
679.114	2087
679.598	2084
680.082	2097
680.565	2102
681.049	2103
681.533	2100
682.017	2119
682.5	2106
682.984	2102
683.468	2096
683.952	2070
684.436	2115
684.92	2098
685.404	2115
685.888	2126
686.372	2118
686.856	2130
687.341	2149
687.825	2113
688.309	2127
688.793	2128
689.278	2098
689.762	2110
690.246	2096
690.731	2106
691.215	2130
691.7	2076
692.184	2105
692.669	2097
693.153	2109
693.638	2074
694.122	2078
694.607	2098
695.092	2080
695.577	2111
696.061	2070
696.546	2060
697.031	2066
697.516	2082
698.001	2082
698.486	2071
698.971	2094
699.456	2054
699.941	2051
700.426	2050
700.911	2076
701.396	2064
701.881	2085
702.366	2075
702.852	2078
703.337	2081
703.822	2066
704.308	2060
704.793	2073
705.278	2081
705.764	2100
706.249	2089
706.735	2071
707.22	2084
707.706	2052
708.191	2097
708.677	2103
709.163	2080
709.648	2101
710.134	2122
710.62	2115
711.106	2121
711.592	2156
712.077	2144
712.563	2101
713.049	2087
713.535	2128
714.021	2124
714.507	2111
714.993	2084
715.479	2106
715.966	2076
716.452	2085
716.938	2085
717.424	2026
717.91	2076
718.397	2079
718.883	2065
719.369	2059
719.856	2039
720.342	2063
720.829	2047
721.315	2060
721.802	2054
722.288	2054
722.775	1971
723.262	1915
723.748	1994
724.235	1993
724.722	2030
725.208	1991
725.695	1993
726.182	1971
726.669	1947
727.156	1958
727.643	1938
728.13	1939
728.617	1921
729.104	1913
729.591	1901
730.078	1921
730.565	1927
731.052	1890
731.539	1894
732.027	1886
732.514	1873
733.001	1896
733.488	1892
733.976	1879
734.463	1878
734.951	1879
735.438	1895
735.926	1887
736.413	1917
736.901	1900
737.388	1926
737.876	1925
738.364	1915
738.851	1925
739.339	1914
739.827	1933
740.314	1872
740.802	1883
741.29	1898
741.778	1878
742.266	1884
742.754	1893
743.242	1903
743.73	1855
744.218	1854
744.706	1835
745.194	1853
745.682	1838
746.17	1838
746.659	1841
747.147	1801
747.635	1811
748.123	1811
748.612	1784
749.1	1767
749.589	1788
750.077	1774
750.566	1760
751.054	1775
751.543	1776
752.031	1747
752.52	1746
753.008	1707
753.497	1722
753.986	1716
754.474	1707
754.963	1721
755.452	1703
755.941	1705
756.43	1703
756.919	1697
757.408	1684
757.896	1685
758.385	1679
758.875	1662
759.364	1655
759.853	1643
760.342	1619
760.831	1650
761.32	1646
761.809	1612
762.299	1627
762.788	1635
763.277	1620
763.767	1603
764.256	1601
764.745	1582
765.235	1610
765.724	1562
766.214	1587
766.703	1579
767.193	1561
767.683	1570
768.172	1541
768.662	1548
769.152	1549
769.641	1552
770.131	1512
770.621	1526
771.111	1504
771.601	1497
772.09	1487
772.58	1472
773.07	1480
773.56	1488
774.05	1465
774.54	1461
775.031	1457
775.521	1439
776.011	1432
776.501	1436
776.991	1410
777.482	1427
777.972	1391
778.462	1388
778.953	1405
779.443	1392
779.933	1379
780.424	1362
780.914	1379
781.405	1383
781.895	1375
782.386	1367
782.877	1363
783.367	1339
783.858	1329
784.349	1336
784.839	1319
785.33	1318
785.821	1324
786.312	1313
786.803	1316
787.293	1326
787.784	1311
788.275	1294
788.766	1285
789.257	1305
789.748	1274
790.24	1270
790.731	1290
791.222	1261
791.713	1259
792.204	1262
792.696	1234
793.187	1235
793.678	1216
794.169	1185
794.661	1199
795.152	1189
795.644	1180
796.135	1181
796.627	1190
797.118	1173
797.61	1166
798.101	1147
798.593	1151
799.085	1144
799.576	1148
800.068	1126
800.56	1124
801.052	1096
801.544	1100
802.035	1101
802.527	1083
803.019	1075
803.511	1070
804.003	1064
804.495	1065
804.987	1048
805.479	1022
805.971	1043
806.464	1042
806.956	1017
807.448	1021
807.94	1032
808.433	1013
808.925	1013
809.417	996
809.91	993
810.402	963
810.894	962
811.387	973
811.879	964
812.372	974
812.865	962
813.357	968
813.85	956
814.342	951
814.835	948
815.328	939
815.821	924
816.313	931
816.806	932
817.299	925
817.792	937
818.285	930
818.778	936
819.271	935
819.764	919
820.257	923
820.75	927
821.243	919
821.736	920
822.229	935
822.722	924
823.216	946
