Data from lamp5bck_Subt4__46__301.txt Node

Date: Wed Apr 09 10:15:49 CEST 2025
User: fys-lab-0081
Spectrometer: S04999
Trigger mode: 0
Resolution mode: 1024 pixels
Integration Time (sec): 1.000000E-1
Scans to average: 1
Nonlinearity correction enabled: false
Boxcar width: 0
Baseline correction enabled: true
XAxis mode: Wavelengths
Number of Pixels in Spectrum: 1024
>>>>>Begin Spectral Data<<<<<
336.42	1
336.877	-3
337.334	-2
337.792	-3
338.249	4
338.706	4
339.164	-2
339.621	-3
340.079	2
340.536	4
340.994	2
341.452	-1
341.909	0
342.367	2
342.825	2
343.283	2
343.741	-2
344.198	4
344.656	0
345.114	1
345.572	3
346.03	0
346.488	1
346.947	-4
347.405	0
347.863	2
348.321	5
348.779	-2
349.238	7
349.696	4
350.154	0
350.613	2
351.071	0
351.53	8
351.988	4
352.447	-1
352.905	-1
353.364	-1
353.823	1
354.282	0
354.74	-1
355.199	1
355.658	0
356.117	0
356.576	5
357.035	2
357.494	4
357.953	5
358.412	4
358.871	-3
359.33	2
359.789	4
360.249	-3
360.708	1
361.167	1
361.626	6
362.086	0
362.545	0
363.005	6
363.464	1
363.924	-2
364.383	7
364.843	-1
365.303	6
365.762	-2
366.222	0
366.682	2
367.142	6
367.601	3
368.061	1
368.521	6
368.981	1
369.441	8
369.901	7
370.361	1
370.821	1
371.282	5
371.742	5
372.202	7
372.662	11
373.123	5
373.583	2
374.043	1
374.504	-5
374.964	2
375.425	1
375.885	5
376.346	1
376.806	2
377.267	5
377.728	5
378.188	5
378.649	2
379.11	7
379.571	3
380.032	6
380.493	3
380.954	5
381.414	3
381.876	6
382.337	9
382.798	6
383.259	13
383.72	5
384.181	7
384.642	2
385.104	11
385.565	14
386.026	7
386.488	7
386.949	13
387.411	5
387.872	5
388.334	12
388.795	8
389.257	14
389.719	12
390.181	10
390.642	14
391.104	12
391.566	9
392.028	16
392.49	13
392.952	15
393.414	14
393.876	11
394.338	14
394.8	10
395.262	15
395.724	14
396.186	19
396.648	17
397.111	21
397.573	17
398.035	16
398.498	17
398.96	11
399.423	13
399.885	23
400.348	13
400.81	21
401.273	17
401.736	18
402.198	20
402.661	20
403.124	19
403.587	22
404.049	22.5
404.512	23
404.975	19
405.438	20
405.901	25
406.364	27
406.827	23
407.29	25
407.754	27
408.217	23
408.68	19
409.143	24
409.607	29
410.07	25
410.533	24
410.997	27
411.46	22
411.924	27
412.387	28
412.851	28
413.314	30
413.778	21
414.242	31
414.705	25
415.169	36
415.633	29
416.097	32
416.561	29
417.024	38
417.488	37
417.952	36
418.416	35
418.88	32
419.344	33
419.809	32
420.273	35
420.737	33
421.201	29
421.665	37
422.13	33
422.594	33
423.059	41
423.523	37
423.987	36
424.452	39
424.916	40
425.381	42
425.846	42
426.31	41
426.775	39
427.24	48
427.704	37
428.169	42
428.634	45
429.099	40
429.564	44
430.029	48
430.494	44
430.959	51
431.424	47
431.889	48
432.354	47
432.819	49
433.284	50
433.75	49
434.215	54
434.68	52
435.146	56
435.611	59
436.077	60
436.542	58
437.008	63
437.473	59
437.939	67
438.404	65
438.87	72
439.336	63
439.801	64
440.267	62
440.733	72
441.199	73
441.665	64
442.131	72
442.596	69
443.062	64
443.529	74
443.995	75
444.461	77
444.927	84
445.393	79
445.859	83
446.325	86
446.792	98
447.258	98
447.724	95
448.191	100
448.657	96
449.124	107
449.59	102
450.057	112
450.523	109
450.99	112
451.457	109
451.923	113
452.39	116
452.857	117
453.324	109
453.791	115
454.257	115
454.724	119
455.191	117
455.658	115
456.125	127
456.592	122
457.059	125
457.527	124
457.994	130
458.461	132
458.928	141
459.396	135
459.863	139
460.33	141
460.798	142
461.265	142
461.732	141
462.2	146
462.668	148
463.135	149
463.603	143
464.07	145
464.538	142
465.006	151
465.474	149
465.941	148
466.409	148
466.877	144
467.345	156
467.813	155
468.281	150
468.749	154
469.217	150
469.685	153
470.153	152
470.621	158
471.09	159
471.558	163
472.026	168
472.494	170
472.963	170
473.431	179
473.9	186
474.368	188
474.837	190
475.305	189
475.774	203
476.242	214
476.711	205
477.18	210
477.648	213
478.117	213
478.586	213
479.055	208
479.524	215
479.993	212
480.462	212
480.93	217
481.399	215
481.869	221
482.338	217
482.807	222
483.276	221
483.745	224
484.214	227
484.684	230
485.153	232
485.622	231
486.092	235
486.561	233
487.031	237
487.5	244
487.97	251
488.439	263
488.909	270
489.378	274
489.848	276
490.318	284
490.787	291
491.257	298
491.727	300
492.197	310
492.667	306
493.137	306
493.607	309
494.077	318
494.547	313
495.017	316
495.487	321
495.957	331
496.427	321
496.897	321
497.368	329
497.838	330
498.308	334
498.779	337
499.249	340
499.719	341
500.19	342
500.66	346
501.131	347
501.602	354
502.072	352
502.543	360
503.014	373
503.484	375
503.955	385
504.426	404
504.897	411
505.368	420
505.838	420
506.309	429
506.78	446
507.251	459
507.722	462
508.194	475
508.665	480
509.136	474
509.607	492
510.078	501
510.549	504
511.021	523
511.492	522
511.964	526
512.435	540
512.906	527
513.378	542
513.849	556
514.321	558
514.793	560
515.264	565
515.736	569
516.208	581
516.679	592
517.151	590
517.623	597
518.095	608
518.567	616
519.038	625
519.51	628
519.982	642
520.454	647
520.927	653
521.399	664
521.871	675
522.343	673
522.815	680
523.287	678
523.76	690
524.232	704
524.704	708
525.177	699
525.649	702
526.122	710
526.594	706
527.067	724
527.539	731
528.012	720
528.484	720
528.957	726
529.43	721
529.903	713
530.375	744
530.848	728
531.321	744
531.794	745
532.267	760
532.74	750
533.213	746
533.686	771
534.159	765
534.632	784
535.105	784
535.578	797
536.051	802
536.525	805
536.998	810
537.471	826
537.945	820
538.418	840
538.891	841
539.365	852
539.838	853
540.312	849
540.786	860
541.259	856
541.733	865
542.206	864
542.68	859
543.154	855
543.628	862
544.101	891
544.575	885
545.049	862
545.523	877
545.997	876
546.471	888
546.945	873
547.419	893
547.893	865
548.367	876
548.842	871
549.316	875
549.79	886
550.264	883
550.739	894
551.213	889
551.687	894
552.162	900
552.636	894
553.111	896
553.585	923
554.06	906
554.534	926
555.009	913
555.484	944
555.958	954
556.433	960
556.908	971
557.383	967
557.858	990
558.333	989
558.807	985
559.282	992
559.757	1026
560.232	1027
560.708	1010
561.183	1003
561.658	1021
562.133	1020
562.608	1004
563.083	1042
563.559	1003
564.034	1024
564.509	1020
564.985	1026
565.46	1018
565.936	1045
566.411	1046
566.887	1038
567.362	1043
567.838	1048
568.313	1054
568.789	1040
569.265	1038
569.74	1049
570.216	1040
570.692	1063
571.168	1068
571.644	1058
572.12	1065
572.596	1077
573.071	1078
573.547	1100
574.024	1111
574.5	1132
574.976	1142
575.452	1160
575.928	1164
576.404	1172
576.881	1212
577.357	1189
577.833	1195
578.31	1228
578.786	1254
579.262	1277
579.739	1260
580.215	1285
580.692	1284
581.169	1288
581.645	1281
582.122	1324
582.598	1318
583.075	1320
583.552	1329
584.029	1331
584.506	1328
584.982	1317
585.459	1353
585.936	1335
586.413	1345
586.89	1368
587.367	1349
587.844	1375
588.321	1365
588.799	1367
589.276	1357
589.753	1376
590.23	1392
590.707	1393
591.185	1391
591.662	1392
592.139	1418
592.617	1450
593.094	1445
593.572	1442
594.049	1463
594.527	1485
595.004	1498
595.482	1529
595.96	1503
596.437	1512
596.915	1555
597.393	1533
597.871	1571
598.349	1546
598.826	1578
599.304	1582
599.782	1610
600.26	1592
600.738	1623
601.216	1624
601.694	1643
602.173	1654
602.651	1665
603.129	1640
603.607	1662
604.085	1673
604.564	1681
605.042	1679
605.52	1675
605.999	1722
606.477	1681
606.956	1683
607.434	1701
607.913	1719
608.391	1730
608.87	1723
609.348	1700
609.827	1709
610.306	1716
610.785	1733
611.263	1740
611.742	1723
612.221	1695
612.7	1702
613.179	1723
613.658	1708
614.137	1733
614.616	1728
615.095	1694
615.574	1727
616.053	1756
616.532	1739
617.011	1741
617.491	1755
617.97	1761
618.449	1797
618.928	1816
619.408	1799
619.887	1817
620.367	1818
620.846	1844
621.326	1839
621.805	1882
622.285	1883
622.764	1912
623.244	1910
623.724	1925
624.203	1932
624.683	1897
625.163	1938
625.643	1940
626.123	1924
626.602	1962
627.082	1926
627.562	1934
628.042	1973
628.522	1942
629.002	1936
629.482	1945
629.963	1943
630.443	1935
630.923	1943
631.403	1944
631.883	1942
632.364	1950
632.844	1937
633.324	1949
633.805	1958
634.285	1939
634.766	1924
635.246	1932
635.727	1945
636.207	1967
636.688	1970
637.168	1960
637.649	1927
638.13	1924
638.611	1944
639.091	1951
639.572	1934
640.053	1931
640.534	1952
641.015	1957
641.496	1928
641.977	1969
642.458	1945
642.939	1958
643.42	1958
643.901	1958
644.382	1975
644.863	1964
645.345	1980
645.826	1967
646.307	1968
646.788	2017
647.27	1987
647.751	1990
648.233	2005
648.714	1964
649.196	2015
649.677	2011
650.159	2017
650.64	1993
651.122	2023
651.603	2013
652.085	2034
652.567	2029
653.049	2006
653.53	2003
654.012	2034
654.494	2016
654.976	2038
655.458	2040
655.94	2042
656.422	2078
656.904	2045
657.386	2021
657.868	2024
658.35	2013
658.833	2026
659.315	2035
659.797	2017
660.279	2017
660.762	2033
661.244	2007
661.726	1980
662.209	1991
662.691	1980
663.174	1941
663.656	1957
664.139	1964
664.621	1945
665.104	1927
665.587	1959
666.069	1979
666.552	1962
667.035	1948
667.517	1958
668	1974
668.483	1977
668.966	1953
669.449	1945
669.932	1960
670.415	1978
670.898	1962
671.381	1965
671.864	1982
672.347	1975
672.83	1967
673.313	1974
673.797	1971
674.28	2011
674.763	2022
675.247	2039
675.73	2031
676.213	2043
676.697	2054
677.18	2049
677.664	2062
678.147	2057
678.631	2070
679.114	2076
679.598	2082
680.082	2098
680.565	2105
681.049	2105
681.533	2101
682.017	2113
682.5	2099
682.984	2099
683.468	2097
683.952	2072
684.436	2115
684.92	2095
685.404	2112
685.888	2129
686.372	2118
686.856	2125
687.341	2145
687.825	2114
688.309	2128
688.793	2126
689.278	2099
689.762	2109
690.246	2099
690.731	2106
691.215	2132
691.7	2082
692.184	2104
692.669	2088
693.153	2109
693.638	2076
694.122	2080
694.607	2102
695.092	2079
695.577	2111
696.061	2074
696.546	2066
697.031	2058
697.516	2081
698.001	2083
698.486	2070
698.971	2100
699.456	2051
699.941	2054
700.426	2050
700.911	2074
701.396	2070
701.881	2085
702.366	2078
702.852	2060
703.337	2073
703.822	2059
704.308	2052
704.793	2075
705.278	2088
705.764	2097
706.249	2090
706.735	2074
707.22	2089
707.706	2054
708.191	2087
708.677	2098
709.163	2087
709.648	2101
710.134	2124
710.62	2105
711.106	2118
711.592	2155
712.077	2146
712.563	2096
713.049	2084
713.535	2129
714.021	2118
714.507	2114
714.993	2086
715.479	2105
715.966	2082
716.452	2081
716.938	2076
717.424	2028
717.91	2085
718.397	2075
718.883	2059
719.369	2062
719.856	2041
720.342	2067
720.829	2047
721.315	2063
721.802	2048
722.288	2060
722.775	1976
723.262	1916
723.748	1993
724.235	2003
724.722	2034
725.208	1981
725.695	1984
726.182	1978
726.669	1948
727.156	1959
727.643	1938
728.13	1930
728.617	1916
729.104	1920
729.591	1901
730.078	1920
730.565	1919
731.052	1887
731.539	1896
732.027	1880
732.514	1868
733.001	1890
733.488	1887
733.976	1884
734.463	1881
734.951	1872
735.438	1897
735.926	1886
736.413	1916
736.901	1900
737.388	1923
737.876	1923
738.364	1914
738.851	1926
739.339	1915
739.827	1921
740.314	1864
740.802	1892
741.29	1897
741.778	1875
742.266	1877
742.754	1893
743.242	1902
743.73	1854
744.218	1854
744.706	1833
745.194	1854
745.682	1836
746.17	1833
746.659	1841
747.147	1801
747.635	1806
748.123	1812
748.612	1779
749.1	1769
749.589	1785
750.077	1777
750.566	1761
751.054	1769
751.543	1775
752.031	1745
752.52	1743
753.008	1709
753.497	1721
753.986	1710
754.474	1706
754.963	1721
755.452	1704
755.941	1694
756.43	1694
756.919	1698
757.408	1682
757.896	1675
758.385	1678
758.875	1666
759.364	1652
759.853	1648
760.342	1620
760.831	1655
761.32	1644
761.809	1614
762.299	1623
762.788	1637
763.277	1627
763.767	1598
764.256	1599
764.745	1583
765.235	1612
765.724	1567
766.214	1585
766.703	1574
767.193	1558
767.683	1569
768.172	1538
768.662	1556
769.152	1550
769.641	1550
770.131	1510
770.621	1526
771.111	1505
771.601	1496
772.09	1483
772.58	1471
773.07	1478
773.56	1489
774.05	1465
774.54	1466
775.031	1456
775.521	1441
776.011	1431
776.501	1438
776.991	1414
777.482	1424
777.972	1393
778.462	1387
778.953	1403
779.443	1394
779.933	1381
780.424	1364
780.914	1376
781.405	1386
781.895	1371
782.386	1371
782.877	1367
783.367	1336
783.858	1331
784.349	1337
784.839	1326
785.33	1321
785.821	1318
786.312	1307
786.803	1321
787.293	1331
787.784	1314
788.275	1291
788.766	1275
789.257	1297
789.748	1275
790.24	1269
790.731	1285
791.222	1265
791.713	1254
792.204	1261
792.696	1225
793.187	1234
793.678	1218
794.169	1183
794.661	1200
795.152	1190
795.644	1181
796.135	1181
796.627	1200
797.118	1175
797.61	1157
798.101	1147
798.593	1155
799.085	1150
799.576	1141
800.068	1119
800.56	1119
801.052	1093
801.544	1093
802.035	1105
802.527	1088
803.019	1073
803.511	1062
804.003	1060
804.495	1063
804.987	1047
805.479	1023
805.971	1040
806.464	1041
806.956	1016
807.448	1021
807.94	1025
808.433	1012
808.925	1010
809.417	998
809.91	990
810.402	955
810.894	962
811.387	970
811.879	958
812.372	972
812.865	961
813.357	966
813.85	958
814.342	946
814.835	945
815.328	933
815.821	923
816.313	931
816.806	935
817.299	927
817.792	932
818.285	925
818.778	929
819.271	936
819.764	920
820.257	923
820.75	924
821.243	929
821.736	913
822.229	928
822.722	930
823.216	944
