Data from lamp5bck_Subt4__70__325.txt Node

Date: Wed Apr 09 10:15:52 CEST 2025
User: fys-lab-0081
Spectrometer: S04999
Trigger mode: 0
Resolution mode: 1024 pixels
Integration Time (sec): 1.000000E-1
Scans to average: 1
Nonlinearity correction enabled: false
Boxcar width: 0
Baseline correction enabled: true
XAxis mode: Wavelengths
Number of Pixels in Spectrum: 1024
>>>>>Begin Spectral Data<<<<<
336.42	0
336.877	0
337.334	-2
337.792	3
338.249	5
338.706	-1
339.164	2
339.621	-3
340.079	3
340.536	4
340.994	5
341.452	-5
341.909	0
342.367	1
342.825	0
343.283	1
343.741	-3
344.198	5
344.656	4
345.114	-1
345.572	1
346.03	3
346.488	3
346.947	-3
347.405	3
347.863	-2
348.321	5
348.779	0
349.238	6
349.696	4
350.154	2
350.613	1
351.071	2
351.53	2
351.988	3
352.447	4
352.905	4
353.364	1
353.823	2
354.282	0
354.74	-1
355.199	2
355.658	6
356.117	0
356.576	5
357.035	6
357.494	0
357.953	4
358.412	6
358.871	-3
359.33	2
359.789	5
360.249	-2
360.708	7
361.167	2
361.626	3
362.086	2
362.545	7
363.005	10
363.464	-3
363.924	-2
364.383	7
364.843	3
365.303	7
365.762	1
366.222	-5
366.682	2
367.142	7
367.601	0
368.061	1
368.521	5
368.981	4
369.441	5
369.901	8
370.361	1
370.821	1
371.282	4
371.742	6
372.202	5
372.662	7
373.123	6
373.583	5
374.043	0
374.504	-1
374.964	5
375.425	2
375.885	1
376.346	6
376.806	1
377.267	9
377.728	8
378.188	1
378.649	5
379.11	8
379.571	8
380.032	4
380.493	-1
380.954	6
381.414	7
381.876	6
382.337	9
382.798	9
383.259	13
383.72	7
384.181	7
384.642	6
385.104	13
385.565	21
386.026	9
386.488	6
386.949	10
387.411	11
387.872	6
388.334	12
388.795	10
389.257	16
389.719	17
390.181	11
390.642	18
391.104	12
391.566	12
392.028	17
392.49	13
392.952	14
393.414	16
393.876	14
394.338	9
394.8	11
395.262	15
395.724	17
396.186	20
396.648	12
397.111	18
397.573	18
398.035	17
398.498	15
398.96	12
399.423	12
399.885	18
400.348	17
400.81	24
401.273	8
401.736	22
402.198	17
402.661	21
403.124	16
403.587	21
404.049	22
404.512	23
404.975	25
405.438	22
405.901	19
406.364	23
406.827	20
407.29	26
407.754	25
408.217	28
408.68	20
409.143	24
409.607	27
410.07	24
410.533	23
410.997	29
411.46	25
411.924	24
412.387	27
412.851	25
413.314	29
413.778	31
414.242	27
414.705	30
415.169	32
415.633	33
416.097	33
416.561	31
417.024	33
417.488	40
417.952	34
418.416	41
418.88	31
419.344	33
419.809	33
420.273	33
420.737	29
421.201	27
421.665	34
422.13	35
422.594	36
423.059	38
423.523	36
423.987	36
424.452	38
424.916	41
425.381	42
425.846	41
426.31	45
426.775	41
427.24	50
427.704	38
428.169	44
428.634	46
429.099	44
429.564	45
430.029	47
430.494	49
430.959	48
431.424	44
431.889	46
432.354	45
432.819	48
433.284	44
433.75	48
434.215	52
434.68	53
435.146	53
435.611	57
436.077	59
436.542	63
437.008	61
437.473	59
437.939	65
438.404	67
438.87	64
439.336	64
439.801	66
440.267	67
440.733	73
441.199	71
441.665	71
442.131	74
442.596	74
443.062	71
443.529	79
443.995	74
444.461	69
444.927	84
445.393	80
445.859	91
446.325	86
446.792	97
447.258	93
447.724	95
448.191	97
448.657	100
449.124	107
449.59	100
450.057	111
450.523	111
450.99	109
451.457	108
451.923	113
452.39	112
452.857	121
453.324	112
453.791	120
454.257	118
454.724	117
455.191	120
455.658	117
456.125	127
456.592	123
457.059	122
457.527	129
457.994	132
458.461	134
458.928	138
459.396	137
459.863	138
460.33	142
460.798	141
461.265	142
461.732	142
462.2	147
462.668	149
463.135	149
463.603	144
464.07	145
464.538	149
465.006	152
465.474	149
465.941	147
466.409	147
466.877	146
467.345	156
467.813	156
468.281	152
468.749	151
469.217	154
469.685	153
470.153	155
470.621	156
471.09	161
471.558	164
472.026	169
472.494	170
472.963	173
473.431	179
473.9	187
474.368	188
474.837	192
475.305	193
475.774	201
476.242	207
476.711	206
477.18	214
477.648	214
478.117	216
478.586	213
479.055	213
479.524	212
479.993	216
480.462	218
480.93	218
481.399	215
481.869	219
482.338	219
482.807	218
483.276	217
483.745	221
484.214	224
484.684	231
485.153	233
485.622	230
486.092	236
486.561	233
487.031	241
487.5	250
487.97	255
488.439	257
488.909	271
489.378	274
489.848	276
490.318	286
490.787	295
491.257	300
491.727	300
492.197	311
492.667	306
493.137	308
493.607	312
494.077	316
494.547	310
495.017	318
495.487	318
495.957	330
496.427	322
496.897	322
497.368	328
497.838	328
498.308	332
498.779	335
499.249	341
499.719	337
500.19	346
500.66	343
501.131	350
501.602	354
502.072	352
502.543	360
503.014	375
503.484	373
503.955	385
504.426	405
504.897	407
505.368	421
505.838	421
506.309	433
506.78	443
507.251	457
507.722	466
508.194	479
508.665	480
509.136	481
509.607	497
510.078	505
510.549	509
511.021	519
511.492	520
511.964	529
512.435	537
512.906	534
513.378	545
513.849	552
514.321	558
514.793	565
515.264	560
515.736	573
516.208	587
516.679	589
517.151	591
517.623	597
518.095	611
518.567	612
519.038	626
519.51	630
519.982	644
520.454	647
520.927	654
521.399	662
521.871	674
522.343	676
522.815	683
523.287	687
523.76	689
524.232	703
524.704	710
525.177	699
525.649	708
526.122	710
526.594	699
527.067	721
527.539	732
528.012	724
528.484	728
528.957	722
529.43	719
529.903	715
530.375	745
530.848	732
531.321	742
531.794	739
532.267	763
532.74	750
533.213	751
533.686	764
534.159	763
534.632	782
535.105	788
535.578	797
536.051	804
536.525	808
536.998	811
537.471	831
537.945	825
538.418	846
538.891	843
539.365	847
539.838	850
540.312	855
540.786	868
541.259	856
541.733	866
542.206	872
542.68	863
543.154	862
543.628	862
544.101	892
544.575	887
545.049	862
545.523	875
545.997	881
546.471	891
546.945	879
547.419	897
547.893	863
548.367	879
548.842	876
549.316	870
549.79	890
550.264	879
550.739	898
551.213	889
551.687	890
552.162	905
552.636	894
553.111	896
553.585	927
554.06	913
554.534	924
555.009	922
555.484	937
555.958	956
556.433	962
556.908	972
557.383	963
557.858	990
558.333	994
558.807	993
559.282	998
559.757	1020
560.232	1032
560.708	1012
561.183	1005
561.658	1021
562.133	1017
562.608	1009
563.083	1036
563.559	1007
564.034	1024
564.509	1024
564.985	1026
565.46	1021
565.936	1045
566.411	1049
566.887	1043
567.362	1041
567.838	1049
568.313	1055
568.789	1041
569.265	1034
569.74	1057
570.216	1051
570.692	1061
571.168	1058
571.644	1057
572.12	1063
572.596	1076
573.071	1074
573.547	1099
574.024	1116
574.5	1129
574.976	1145
575.452	1161
575.928	1169
576.404	1166
576.881	1212
577.357	1198
577.833	1199
578.31	1228
578.786	1246
579.262	1281
579.739	1255
580.215	1293
580.692	1290
581.169	1291
581.645	1282
582.122	1319
582.598	1316
583.075	1318
583.552	1337
584.029	1336
584.506	1332
584.982	1324
585.459	1344
585.936	1338
586.413	1344
586.89	1373
587.367	1345
587.844	1379
588.321	1368
588.799	1369
589.276	1361
589.753	1381
590.23	1391
590.707	1394
591.185	1394
591.662	1399
592.139	1425
592.617	1453
593.094	1443
593.572	1446
594.049	1471
594.527	1482
595.004	1497
595.482	1531
595.96	1515
596.437	1514
596.915	1560
597.393	1533
597.871	1571
598.349	1548
598.826	1585
599.304	1586
599.782	1610
600.26	1590
600.738	1632
601.216	1628
601.694	1636
602.173	1660
602.651	1662
603.129	1640
603.607	1664
604.085	1674
604.564	1685
605.042	1687
605.52	1673
605.999	1724
606.477	1682
606.956	1686
607.434	1706
607.913	1726
608.391	1728
608.87	1718
609.348	1702
609.827	1718
610.306	1728
610.785	1737
611.263	1740
611.742	1718
612.221	1697
612.7	1711
613.179	1726
613.658	1703
614.137	1733
614.616	1739
615.095	1698
615.574	1725
616.053	1756
616.532	1741
617.011	1748
617.491	1758
617.97	1769
618.449	1794
618.928	1809
619.408	1801
619.887	1818
620.367	1829
620.846	1855
621.326	1842
621.805	1888
622.285	1892
622.764	1903
623.244	1913
623.724	1928
624.203	1938
624.683	1902
625.163	1936
625.643	1939
626.123	1930
626.602	1961
627.082	1926
627.562	1928
628.042	1979
628.522	1951
629.002	1942
629.482	1948
629.963	1949
630.443	1940
630.923	1945
631.403	1941
631.883	1943
632.364	1951
632.844	1942
633.324	1949
633.805	1955
634.285	1937
634.766	1929
635.246	1940
635.727	1947
636.207	1968
636.688	1970
637.168	1959
637.649	1928
638.13	1929
638.611	1953
639.091	1949
639.572	1934
640.053	1940
640.534	1962
641.015	1955
641.496	1940
641.977	1973
642.458	1945
642.939	1957
643.42	1956
643.901	1957
644.382	1975
644.863	1972
645.345	1975
645.826	1970
646.307	1975
646.788	2013
647.27	1985
647.751	1997
648.233	2015
648.714	1969
649.196	2020
649.677	2022
650.159	2019
650.64	1998
651.122	2035
651.603	2014
652.085	2032
652.567	2036
653.049	2009
653.53	2012
654.012	2044
654.494	2017
654.976	2044
655.458	2038
655.94	2044
656.422	2078
656.904	2048
657.386	2025
657.868	2024
658.35	2015
658.833	2030
659.315	2036
659.797	2019
660.279	2020
660.762	2034
661.244	2009
661.726	1988
662.209	1992
662.691	1989
663.174	1942
663.656	1965
664.139	1962
664.621	1944
665.104	1927
665.587	1966
666.069	1974
666.552	1968
667.035	1951
667.517	1961
668	1972
668.483	1978
668.966	1958
669.449	1954
669.932	1958
670.415	1978
670.898	1967
671.381	1963
671.864	1991
672.347	1974
672.83	1976
673.313	1978
673.797	1975
674.28	2016
674.763	2025
675.247	2043
675.73	2037
676.213	2048
676.697	2050
677.18	2051
677.664	2056
678.147	2070
678.631	2072
679.114	2082
679.598	2079
680.082	2100
680.565	2104
681.049	2108
681.533	2108
682.017	2115
682.5	2105
682.984	2115
683.468	2106
683.952	2063
684.436	2121
684.92	2103
685.404	2108
685.888	2124
686.372	2116
686.856	2126
687.341	2146
687.825	2117
688.309	2126
688.793	2124
689.278	2094
689.762	2109
690.246	2100
690.731	2106
691.215	2130
691.7	2077
692.184	2108
692.669	2093
693.153	2104
693.638	2076
694.122	2073
694.607	2095
695.092	2082
695.577	2123
696.061	2066
696.546	2064
697.031	2065
697.516	2087
698.001	2088
698.486	2074
698.971	2103
699.456	2054
699.941	2052
700.426	2051
700.911	2081
701.396	2067
701.881	2084
702.366	2077
702.852	2066
703.337	2070
703.822	2072
704.308	2061
704.793	2077
705.278	2092
705.764	2102
706.249	2088
706.735	2075
707.22	2089
707.706	2053
708.191	2096
708.677	2104
709.163	2087
709.648	2102
710.134	2124
710.62	2115
711.106	2114
711.592	2155
712.077	2149
712.563	2102
713.049	2089
713.535	2138
714.021	2126
714.507	2110
714.993	2085
715.479	2104
715.966	2084
716.452	2087
716.938	2078
717.424	2035
717.91	2083
718.397	2079
718.883	2061
719.369	2058
719.856	2038
720.342	2069
720.829	2048
721.315	2062
721.802	2053
722.288	2058
722.775	1969
723.262	1919
723.748	2001
724.235	2003
724.722	2038
725.208	1986
725.695	1985
726.182	1981
726.669	1953
727.156	1960
727.643	1939
728.13	1935
728.617	1922
729.104	1918
729.591	1900
730.078	1917
730.565	1919
731.052	1894
731.539	1892
732.027	1876
732.514	1871
733.001	1898
733.488	1886
733.976	1882
734.463	1875
734.951	1873
735.438	1895
735.926	1892
736.413	1911
736.901	1906
737.388	1930
737.876	1927
738.364	1920
738.851	1932
739.339	1919
739.827	1934
740.314	1872
740.802	1885
741.29	1897
741.778	1875
742.266	1882
742.754	1891
743.242	1902
743.73	1861
744.218	1850
744.706	1845
745.194	1851
745.682	1832
746.17	1840
746.659	1844
747.147	1803
747.635	1815
748.123	1814
748.612	1785
749.1	1769
749.589	1795
750.077	1782
750.566	1769
751.054	1766
751.543	1772
752.031	1743
752.52	1740
753.008	1711
753.497	1719
753.986	1713
754.474	1708
754.963	1727
755.452	1707
755.941	1698
756.43	1702
756.919	1698
757.408	1685
757.896	1680
758.385	1673
758.875	1663
759.364	1658
759.853	1652
760.342	1616
760.831	1655
761.32	1644
761.809	1615
762.299	1626
762.788	1637
763.277	1624
763.767	1603
764.256	1602
764.745	1581
765.235	1615
765.724	1563
766.214	1584
766.703	1575
767.193	1562
767.683	1571
768.172	1544
768.662	1558
769.152	1548
769.641	1555
770.131	1511
770.621	1533
771.111	1505
771.601	1498
772.09	1484
772.58	1476
773.07	1484
773.56	1489
774.05	1460
774.54	1465
775.031	1456
775.521	1448
776.011	1438
776.501	1442
776.991	1417
777.482	1428
777.972	1394
778.462	1394
778.953	1400
779.443	1396
779.933	1384
780.424	1368
780.914	1375
781.405	1387
781.895	1372
782.386	1369
782.877	1368
783.367	1339
783.858	1328
784.349	1333
784.839	1327
785.33	1324
785.821	1326
786.312	1312
786.803	1323
787.293	1328
787.784	1311
788.275	1294
788.766	1282
789.257	1302
789.748	1274
790.24	1266
790.731	1277
791.222	1266
791.713	1255
792.204	1263
792.696	1232
793.187	1236
793.678	1210
794.169	1183
794.661	1200
795.152	1186
795.644	1181
796.135	1182
796.627	1199
797.118	1171
797.61	1161
798.101	1144
798.593	1149
799.085	1141
799.576	1146
800.068	1121
800.56	1119
801.052	1092
801.544	1104
802.035	1102
802.527	1087
803.019	1077
803.511	1062
804.003	1057
804.495	1064
804.987	1042
805.479	1022
805.971	1046
806.464	1044
806.956	1019
807.448	1025
807.94	1028
808.433	1012
808.925	1011
809.417	1000
809.91	989
810.402	959
810.894	966
811.387	978
811.879	961
812.372	976
812.865	964
813.357	972
813.85	952
814.342	952
814.835	950
815.328	943
815.821	928
816.313	930
816.806	939
817.299	933
817.792	936
818.285	925
818.778	935
819.271	938
819.764	915
820.257	925
820.75	926
821.243	922
821.736	917
822.229	927
822.722	924
823.216	946
