Data from lamp5bck_Subt4__68__323.txt Node

Date: Wed Apr 09 10:15:51 CEST 2025
User: fys-lab-0081
Spectrometer: S04999
Trigger mode: 0
Resolution mode: 1024 pixels
Integration Time (sec): 1.000000E-1
Scans to average: 1
Nonlinearity correction enabled: false
Boxcar width: 0
Baseline correction enabled: true
XAxis mode: Wavelengths
Number of Pixels in Spectrum: 1024
>>>>>Begin Spectral Data<<<<<
336.42	-3
336.877	-3
337.334	0
337.792	-2
338.249	1
338.706	1
339.164	-5
339.621	1
340.079	4
340.536	6
340.994	6
341.452	-3
341.909	3
342.367	-3
342.825	-1
343.283	2
343.741	-2
344.198	5
344.656	5
345.114	2
345.572	2
346.03	4
346.488	-3
346.947	-4
347.405	6
347.863	4
348.321	5
348.779	-3
349.238	1
349.696	4
350.154	-1
350.613	-2
351.071	-1
351.53	0
351.988	2
352.447	4
352.905	0
353.364	-2
353.823	-1
354.282	3
354.74	-3
355.199	4
355.658	4
356.117	2
356.576	5
357.035	1
357.494	3
357.953	2
358.412	7
358.871	-4
359.33	-3
359.789	1
360.249	-2
360.708	2
361.167	2
361.626	3
362.086	0
362.545	2
363.005	7
363.464	-3
363.924	3
364.383	7
364.843	0
365.303	4
365.762	1
366.222	2
366.682	1
367.142	3
367.601	1
368.061	3
368.521	8
368.981	1
369.441	4
369.901	6
370.361	3
370.821	-2
371.282	5
371.742	1
372.202	7
372.662	7
373.123	3
373.583	4
374.043	3
374.504	-1
374.964	2
375.425	4
375.885	6
376.346	8
376.806	2
377.267	1
377.728	9
378.188	6
378.649	5
379.11	4
379.571	4
380.032	5
380.493	2
380.954	8
381.414	1
381.876	6
382.337	10
382.798	12
383.259	13
383.72	6
384.181	8
384.642	8
385.104	12
385.565	18
386.026	8
386.488	7
386.949	13
387.411	12
387.872	8
388.334	9
388.795	11
389.257	18
389.719	14
390.181	6
390.642	17
391.104	11
391.566	12
392.028	17
392.49	8
392.952	14
393.414	19
393.876	14
394.338	10
394.8	7
395.262	17
395.724	17
396.186	15
396.648	12
397.111	14
397.573	14
398.035	14
398.498	16
398.96	13
399.423	16
399.885	18
400.348	16
400.81	24
401.273	14
401.736	22
402.198	16
402.661	18
403.124	17
403.587	19
404.049	20.5
404.512	22
404.975	22
405.438	21
405.901	23
406.364	24
406.827	18
407.29	26
407.754	25
408.217	22
408.68	20
409.143	24
409.607	30
410.07	28
410.533	28
410.997	27
411.46	21
411.924	29
412.387	29
412.851	29
413.314	32
413.778	24
414.242	29
414.705	33
415.169	30
415.633	29
416.097	26
416.561	34
417.024	35
417.488	33
417.952	34
418.416	36
418.88	31
419.344	30
419.809	30
420.273	35
420.737	34
421.201	29
421.665	34
422.13	37
422.594	39
423.059	38
423.523	36
423.987	40
424.452	40
424.916	42
425.381	38
425.846	43
426.31	43
426.775	43
427.24	48
427.704	39
428.169	47
428.634	47
429.099	44
429.564	44
430.029	44
430.494	45
430.959	48
431.424	41
431.889	45
432.354	48
432.819	49
433.284	46
433.75	52
434.215	52
434.68	55
435.146	55
435.611	55
436.077	55
436.542	60
437.008	62
437.473	63
437.939	69
438.404	66
438.87	66
439.336	65
439.801	65
440.267	63
440.733	72
441.199	68
441.665	67
442.131	74
442.596	74
443.062	65
443.529	77
443.995	81
444.461	76
444.927	87
445.393	83
445.859	87
446.325	88
446.792	97
447.258	99
447.724	95
448.191	98
448.657	98
449.124	106
449.59	99
450.057	109
450.523	106
450.99	112
451.457	112
451.923	116
452.39	107
452.857	117
453.324	112
453.791	116
454.257	120
454.724	118
455.191	119
455.658	119
456.125	125
456.592	121
457.059	125
457.527	126
457.994	137
458.461	129
458.928	133
459.396	136
459.863	146
460.33	141
460.798	139
461.265	140
461.732	144
462.2	143
462.668	146
463.135	152
463.603	148
464.07	146
464.538	147
465.006	155
465.474	148
465.941	147
466.409	147
466.877	144
467.345	153
467.813	156
468.281	154
468.749	151
469.217	152
469.685	156
470.153	160
470.621	155
471.09	159
471.558	160
472.026	166
472.494	165
472.963	172
473.431	181
473.9	187
474.368	191
474.837	193
475.305	192
475.774	200
476.242	210
476.711	206
477.18	212
477.648	215
478.117	217
478.586	215
479.055	212
479.524	217
479.993	216
480.462	216
480.93	215
481.399	218
481.869	217
482.338	218
482.807	217
483.276	217
483.745	224
484.214	225
484.684	230
485.153	231
485.622	227
486.092	237
486.561	236
487.031	242
487.5	249
487.97	255
488.439	262
488.909	271
489.378	275
489.848	276
490.318	283
490.787	292
491.257	302
491.727	303
492.197	309
492.667	301
493.137	308
493.607	308
494.077	312
494.547	316
495.017	321
495.487	321
495.957	328
496.427	323
496.897	324
497.368	330
497.838	330
498.308	332
498.779	335
499.249	334
499.719	339
500.19	349
500.66	344
501.131	351
501.602	354
502.072	353
502.543	360
503.014	376
503.484	372
503.955	386
504.426	405
504.897	410
505.368	418
505.838	421
506.309	434
506.78	446
507.251	455
507.722	464
508.194	478
508.665	484
509.136	482
509.607	496
510.078	506
510.549	503
511.021	516
511.492	524
511.964	528
512.435	536
512.906	532
513.378	547
513.849	554
514.321	554
514.793	559
515.264	565
515.736	575
516.208	581
516.679	588
517.151	592
517.623	602
518.095	614
518.567	616
519.038	625
519.51	628
519.982	643
520.454	653
520.927	655
521.399	664
521.871	678
522.343	674
522.815	681
523.287	676
523.76	694
524.232	707
524.704	715
525.177	701
525.649	699
526.122	719
526.594	703
527.067	723
527.539	727
528.012	725
528.484	727
528.957	726
529.43	720
529.903	711
530.375	740
530.848	730
531.321	745
531.794	743
532.267	760
532.74	755
533.213	750
533.686	769
534.159	764
534.632	783
535.105	787
535.578	797
536.051	804
536.525	807
536.998	816
537.471	831
537.945	826
538.418	843
538.891	840
539.365	848
539.838	856
540.312	857
540.786	866
541.259	857
541.733	865
542.206	868
542.68	868
543.154	859
543.628	864
544.101	894
544.575	885
545.049	864
545.523	878
545.997	883
546.471	886
546.945	882
547.419	898
547.893	866
548.367	877
548.842	874
549.316	877
549.79	887
550.264	880
550.739	897
551.213	893
551.687	892
552.162	906
552.636	896
553.111	899
553.585	927
554.06	903
554.534	925
555.009	916
555.484	942
555.958	956
556.433	963
556.908	975
557.383	964
557.858	991
558.333	993
558.807	994
559.282	995
559.757	1025
560.232	1026
560.708	1016
561.183	1010
561.658	1015
562.133	1024
562.608	1011
563.083	1040
563.559	1010
564.034	1029
564.509	1022
564.985	1026
565.46	1019
565.936	1051
566.411	1049
566.887	1044
567.362	1046
567.838	1047
568.313	1057
568.789	1041
569.265	1045
569.74	1056
570.216	1050
570.692	1064
571.168	1065
571.644	1062
572.12	1063
572.596	1076
573.071	1079
573.547	1104
574.024	1110
574.5	1129
574.976	1140
575.452	1164
575.928	1169
576.404	1172
576.881	1203
577.357	1188
577.833	1200
578.31	1225
578.786	1249
579.262	1278
579.739	1262
580.215	1296
580.692	1290
581.169	1291
581.645	1289
582.122	1320
582.598	1326
583.075	1322
583.552	1337
584.029	1334
584.506	1331
584.982	1320
585.459	1348
585.936	1335
586.413	1348
586.89	1367
587.367	1349
587.844	1376
588.321	1373
588.799	1371
589.276	1364
589.753	1385
590.23	1395
590.707	1399
591.185	1396
591.662	1401
592.139	1422
592.617	1453
593.094	1445
593.572	1446
594.049	1467
594.527	1485
595.004	1505
595.482	1527
595.96	1513
596.437	1517
596.915	1561
597.393	1531
597.871	1578
598.349	1553
598.826	1583
599.304	1584
599.782	1621
600.26	1598
600.738	1635
601.216	1627
601.694	1642
602.173	1659
602.651	1664
603.129	1643
603.607	1671
604.085	1681
604.564	1685
605.042	1691
605.52	1681
605.999	1724
606.477	1684
606.956	1689
607.434	1708
607.913	1727
608.391	1731
608.87	1727
609.348	1702
609.827	1719
610.306	1730
610.785	1742
611.263	1746
611.742	1723
612.221	1695
612.7	1714
613.179	1732
613.658	1709
614.137	1736
614.616	1737
615.095	1700
615.574	1731
616.053	1763
616.532	1738
617.011	1751
617.491	1760
617.97	1763
618.449	1796
618.928	1812
619.408	1804
619.887	1822
620.367	1820
620.846	1861
621.326	1848
621.805	1889
622.285	1881
622.764	1904
623.244	1917
623.724	1927
624.203	1941
624.683	1903
625.163	1940
625.643	1943
626.123	1925
626.602	1964
627.082	1934
627.562	1932
628.042	1976
628.522	1955
629.002	1938
629.482	1954
629.963	1944
630.443	1943
630.923	1950
631.403	1943
631.883	1943
632.364	1959
632.844	1942
633.324	1958
633.805	1958
634.285	1941
634.766	1928
635.246	1941
635.727	1951
636.207	1972
636.688	1968
637.168	1958
637.649	1930
638.13	1932
638.611	1956
639.091	1956
639.572	1939
640.053	1934
640.534	1958
641.015	1957
641.496	1935
641.977	1972
642.458	1947
642.939	1954
643.42	1958
643.901	1966
644.382	1982
644.863	1969
645.345	1979
645.826	1974
646.307	1979
646.788	2010
647.27	1984
647.751	1996
648.233	2014
648.714	1962
649.196	2017
649.677	2021
650.159	2026
650.64	2004
651.122	2034
651.603	2012
652.085	2037
652.567	2036
653.049	2007
653.53	2011
654.012	2042
654.494	2020
654.976	2044
655.458	2044
655.94	2049
656.422	2076
656.904	2053
657.386	2024
657.868	2023
658.35	2012
658.833	2028
659.315	2045
659.797	2027
660.279	2024
660.762	2033
661.244	2012
661.726	1987
662.209	1996
662.691	1984
663.174	1951
663.656	1959
664.139	1963
664.621	1947
665.104	1933
665.587	1957
666.069	1975
666.552	1976
667.035	1951
667.517	1963
668	1979
668.483	1980
668.966	1962
669.449	1954
669.932	1956
670.415	1982
670.898	1969
671.381	1970
671.864	1990
672.347	1982
672.83	1971
673.313	1980
673.797	1975
674.28	2025
674.763	2026
675.247	2045
675.73	2038
676.213	2049
676.697	2057
677.18	2052
677.664	2062
678.147	2063
678.631	2070
679.114	2083
679.598	2083
680.082	2103
680.565	2108
681.049	2114
681.533	2104
682.017	2120
682.5	2107
682.984	2107
683.468	2104
683.952	2071
684.436	2121
684.92	2106
685.404	2121
685.888	2135
686.372	2117
686.856	2129
687.341	2148
687.825	2126
688.309	2134
688.793	2119
689.278	2100
689.762	2114
690.246	2099
690.731	2113
691.215	2135
691.7	2086
692.184	2106
692.669	2100
693.153	2112
693.638	2080
694.122	2078
694.607	2103
695.092	2082
695.577	2121
696.061	2072
696.546	2070
697.031	2061
697.516	2089
698.001	2089
698.486	2077
698.971	2108
699.456	2053
699.941	2057
700.426	2051
700.911	2082
701.396	2068
701.881	2083
702.366	2079
702.852	2073
703.337	2077
703.822	2069
704.308	2066
704.793	2072
705.278	2084
705.764	2103
706.249	2088
706.735	2074
707.22	2093
707.706	2056
708.191	2092
708.677	2107
709.163	2087
709.648	2108
710.134	2136
710.62	2110
711.106	2120
711.592	2156
712.077	2149
712.563	2088
713.049	2095
713.535	2137
714.021	2122
714.507	2109
714.993	2087
715.479	2113
715.966	2079
716.452	2092
716.938	2084
717.424	2030
717.91	2083
718.397	2079
718.883	2069
719.369	2066
719.856	2042
720.342	2069
720.829	2047
721.315	2068
721.802	2064
722.288	2059
722.775	1971
723.262	1922
723.748	2009
724.235	1995
724.722	2036
725.208	1988
725.695	1991
726.182	1983
726.669	1947
727.156	1961
727.643	1942
728.13	1942
728.617	1923
729.104	1921
729.591	1907
730.078	1911
730.565	1926
731.052	1899
731.539	1900
732.027	1883
732.514	1870
733.001	1899
733.488	1892
733.976	1879
734.463	1884
734.951	1877
735.438	1900
735.926	1890
736.413	1920
736.901	1905
737.388	1935
737.876	1925
738.364	1919
738.851	1926
739.339	1919
739.827	1932
740.314	1866
740.802	1892
741.29	1898
741.778	1876
742.266	1878
742.754	1896
743.242	1904
743.73	1860
744.218	1859
744.706	1836
745.194	1847
745.682	1833
746.17	1841
746.659	1845
747.147	1806
747.635	1814
748.123	1811
748.612	1783
749.1	1773
749.589	1796
750.077	1780
750.566	1764
751.054	1772
751.543	1780
752.031	1743
752.52	1741
753.008	1718
753.497	1719
753.986	1716
754.474	1703
754.963	1724
755.452	1708
755.941	1696
756.43	1696
756.919	1695
757.408	1683
757.896	1682
758.385	1681
758.875	1674
759.364	1657
759.853	1650
760.342	1622
760.831	1653
761.32	1644
761.809	1620
762.299	1627
762.788	1638
763.277	1632
763.767	1606
764.256	1604
764.745	1583
765.235	1612
765.724	1565
766.214	1590
766.703	1572
767.193	1562
767.683	1569
768.172	1539
768.662	1555
769.152	1543
769.641	1551
770.131	1512
770.621	1522
771.111	1505
771.601	1496
772.09	1484
772.58	1477
773.07	1481
773.56	1491
774.05	1468
774.54	1464
775.031	1455
775.521	1438
776.011	1434
776.501	1442
776.991	1411
777.482	1430
777.972	1392
778.462	1394
778.953	1413
779.443	1394
779.933	1381
780.424	1369
780.914	1379
781.405	1389
781.895	1368
782.386	1375
782.877	1367
783.367	1339
783.858	1334
784.349	1337
784.839	1329
785.33	1327
785.821	1326
786.312	1313
786.803	1324
787.293	1331
787.784	1306
788.275	1292
788.766	1279
789.257	1307
789.748	1279
790.24	1266
790.731	1291
791.222	1262
791.713	1252
792.204	1262
792.696	1226
793.187	1230
793.678	1227
794.169	1181
794.661	1192
795.152	1192
795.644	1186
796.135	1185
796.627	1204
797.118	1180
797.61	1163
798.101	1146
798.593	1154
799.085	1151
799.576	1148
800.068	1125
800.56	1123
801.052	1099
801.544	1100
802.035	1104
802.527	1091
803.019	1081
803.511	1068
804.003	1060
804.495	1062
804.987	1053
805.479	1023
805.971	1045
806.464	1047
806.956	1020
807.448	1022
807.94	1023
808.433	1016
808.925	1010
809.417	994
809.91	988
810.402	964
810.894	967
811.387	977
811.879	961
812.372	975
812.865	962
813.357	966
813.85	960
814.342	947
814.835	951
815.328	946
815.821	924
816.313	930
816.806	937
817.299	923
817.792	939
818.285	927
818.778	937
819.271	936
819.764	915
820.257	929
820.75	929
821.243	931
821.736	921
822.229	923
822.722	931
823.216	946
