Data from lamp5bck_Subt4__61__316.txt Node

Date: Wed Apr 09 10:15:51 CEST 2025
User: fys-lab-0081
Spectrometer: S04999
Trigger mode: 0
Resolution mode: 1024 pixels
Integration Time (sec): 1.000000E-1
Scans to average: 1
Nonlinearity correction enabled: false
Boxcar width: 0
Baseline correction enabled: true
XAxis mode: Wavelengths
Number of Pixels in Spectrum: 1024
>>>>>Begin Spectral Data<<<<<
336.42	2
336.877	2
337.334	2
337.792	-5
338.249	4
338.706	4
339.164	0
339.621	-1
340.079	1
340.536	6
340.994	8
341.452	1
341.909	-6
342.367	-1
342.825	2
343.283	3
343.741	0
344.198	-4
344.656	-2
345.114	0
345.572	2
346.03	5
346.488	2
346.947	-2
347.405	2
347.863	1
348.321	4
348.779	0
349.238	2
349.696	3
350.154	3
350.613	-4
351.071	-1
351.53	3
351.988	1
352.447	-1
352.905	-2
353.364	-2
353.823	0
354.282	2
354.74	-5
355.199	0
355.658	1
356.117	4
356.576	3
357.035	1
357.494	1
357.953	3
358.412	2
358.871	-9
359.33	-3
359.789	4
360.249	0
360.708	2
361.167	-2
361.626	5
362.086	-1
362.545	5
363.005	2
363.464	-3
363.924	-1
364.383	5
364.843	1
365.303	3
365.762	0
366.222	1
366.682	2
367.142	6
367.601	7
368.061	2
368.521	7
368.981	-1
369.441	8
369.901	8
370.361	5
370.821	0
371.282	4
371.742	6
372.202	4
372.662	7
373.123	5
373.583	2
374.043	4
374.504	-2
374.964	2
375.425	1
375.885	11
376.346	6
376.806	-1
377.267	4
377.728	5
378.188	1
378.649	3
379.11	4
379.571	6
380.032	5
380.493	4
380.954	8
381.414	3
381.876	5
382.337	9
382.798	8
383.259	15
383.72	6
384.181	8
384.642	8
385.104	14
385.565	16
386.026	10
386.488	6
386.949	12
387.411	14
387.872	8
388.334	12
388.795	11
389.257	15
389.719	12
390.181	8
390.642	13
391.104	13
391.566	10
392.028	18
392.49	11
392.952	14
393.414	17
393.876	14
394.338	14
394.8	13
395.262	15
395.724	14
396.186	14
396.648	15
397.111	13
397.573	16
398.035	16
398.498	15
398.96	12
399.423	16
399.885	19
400.348	19
400.81	22
401.273	12
401.736	22
402.198	20
402.661	20
403.124	20
403.587	21
404.049	21
404.512	21
404.975	18
405.438	19
405.901	23
406.364	28
406.827	25
407.29	25
407.754	26
408.217	29
408.68	19
409.143	24
409.607	25
410.07	25
410.533	26
410.997	24
411.46	22
411.924	25
412.387	25
412.851	22
413.314	30
413.778	25
414.242	29
414.705	26
415.169	30
415.633	31
416.097	32
416.561	31
417.024	34
417.488	37
417.952	32
418.416	40
418.88	30
419.344	32
419.809	31
420.273	37
420.737	35
421.201	24
421.665	36
422.13	36
422.594	39
423.059	38
423.523	34
423.987	37
424.452	38
424.916	43
425.381	42
425.846	39
426.31	40
426.775	40
427.24	41
427.704	37
428.169	46
428.634	44
429.099	42
429.564	42
430.029	45
430.494	43
430.959	47
431.424	43
431.889	45
432.354	48
432.819	50
433.284	44
433.75	49
434.215	52
434.68	55
435.146	53
435.611	53
436.077	59
436.542	63
437.008	60
437.473	63
437.939	64
438.404	65
438.87	64
439.336	63
439.801	64
440.267	62
440.733	70
441.199	73
441.665	65
442.131	71
442.596	72
443.062	68
443.529	74
443.995	70
444.461	70
444.927	83
445.393	81
445.859	83
446.325	89
446.792	97
447.258	95
447.724	93
448.191	97
448.657	100
449.124	104
449.59	102
450.057	113
450.523	109
450.99	107
451.457	110
451.923	111
452.39	112
452.857	117
453.324	110
453.791	116
454.257	115
454.724	115
455.191	118
455.658	111
456.125	123
456.592	121
457.059	125
457.527	127
457.994	130
458.461	132
458.928	133
459.396	132
459.863	142
460.33	139
460.798	138
461.265	142
461.732	140
462.2	143
462.668	148
463.135	151
463.603	140
464.07	140
464.538	146
465.006	149
465.474	148
465.941	149
466.409	145
466.877	148
467.345	154
467.813	153
468.281	145
468.749	148
469.217	149
469.685	156
470.153	159
470.621	154
471.09	157
471.558	161
472.026	165
472.494	170
472.963	169
473.431	183
473.9	181
474.368	189
474.837	187
475.305	191
475.774	200
476.242	205
476.711	204
477.18	211
477.648	213
478.117	209
478.586	212
479.055	210
479.524	216
479.993	218
480.462	210
480.93	216
481.399	213
481.869	217
482.338	216
482.807	215
483.276	218
483.745	224
484.214	225
484.684	225
485.153	225
485.622	228
486.092	235
486.561	232
487.031	238
487.5	247
487.97	256
488.439	262
488.909	268
489.378	272
489.848	277
490.318	282
490.787	287
491.257	297
491.727	293
492.197	304
492.667	304
493.137	304
493.607	309
494.077	318
494.547	308
495.017	315
495.487	321
495.957	326
496.427	321
496.897	317
497.368	322
497.838	325
498.308	330
498.779	329
499.249	340
499.719	340
500.19	344
500.66	344
501.131	350
501.602	353
502.072	347
502.543	359
503.014	372
503.484	372
503.955	387
504.426	405
504.897	407
505.368	414
505.838	418
506.309	431
506.78	446
507.251	454
507.722	465
508.194	472
508.665	483
509.136	477
509.607	500
510.078	506
510.549	503
511.021	520
511.492	520
511.964	524
512.435	534
512.906	525
513.378	542
513.849	548
514.321	555
514.793	555
515.264	568
515.736	574
516.208	580
516.679	587
517.151	590
517.623	597
518.095	605
518.567	612
519.038	624
519.51	626
519.982	637
520.454	640
520.927	649
521.399	655
521.871	673
522.343	673
522.815	679
523.287	678
523.76	690
524.232	697
524.704	709
525.177	698
525.649	700
526.122	709
526.594	698
527.067	717
527.539	725
528.012	724
528.484	722
528.957	718
529.43	713
529.903	713
530.375	745
530.848	729
531.321	738
531.794	738
532.267	758
532.74	748
533.213	743
533.686	762
534.159	755
534.632	777
535.105	785
535.578	794
536.051	795
536.525	801
536.998	809
537.471	823
537.945	815
538.418	834
538.891	838
539.365	844
539.838	849
540.312	852
540.786	863
541.259	853
541.733	861
542.206	865
542.68	857
543.154	852
543.628	858
544.101	892
544.575	878
545.049	858
545.523	873
545.997	876
546.471	882
546.945	873
547.419	889
547.893	862
548.367	867
548.842	868
549.316	867
549.79	884
550.264	875
550.739	888
551.213	883
551.687	884
552.162	901
552.636	895
553.111	886
553.585	917
554.06	901
554.534	924
555.009	914
555.484	940
555.958	952
556.433	950
556.908	971
557.383	959
557.858	980
558.333	993
558.807	984
559.282	992
559.757	1016
560.232	1025
560.708	1003
561.183	997
561.658	1014
562.133	1016
562.608	1006
563.083	1034
563.559	1003
564.034	1016
564.509	1016
564.985	1024
565.46	1016
565.936	1041
566.411	1039
566.887	1036
567.362	1043
567.838	1043
568.313	1056
568.789	1035
569.265	1031
569.74	1050
570.216	1041
570.692	1061
571.168	1053
571.644	1058
572.12	1063
572.596	1075
573.071	1070
573.547	1096
574.024	1109
574.5	1125
574.976	1135
575.452	1157
575.928	1161
576.404	1167
576.881	1202
577.357	1188
577.833	1195
578.31	1220
578.786	1247
579.262	1269
579.739	1259
580.215	1286
580.692	1277
581.169	1280
581.645	1277
582.122	1316
582.598	1316
583.075	1315
583.552	1331
584.029	1324
584.506	1333
584.982	1310
585.459	1341
585.936	1327
586.413	1341
586.89	1359
587.367	1346
587.844	1369
588.321	1367
588.799	1365
589.276	1357
589.753	1372
590.23	1388
590.707	1393
591.185	1391
591.662	1391
592.139	1412
592.617	1444
593.094	1439
593.572	1438
594.049	1460
594.527	1477
595.004	1490
595.482	1520
595.96	1504
596.437	1501
596.915	1548
597.393	1524
597.871	1561
598.349	1539
598.826	1573
599.304	1579
599.782	1604
600.26	1591
600.738	1621
601.216	1619
601.694	1635
602.173	1650
602.651	1651
603.129	1632
603.607	1653
604.085	1674
604.564	1678
605.042	1676
605.52	1668
605.999	1715
606.477	1672
606.956	1681
607.434	1696.5
607.913	1712
608.391	1725
608.87	1721
609.348	1691
609.827	1702
610.306	1715
610.785	1727
611.263	1736
611.742	1709
612.221	1683
612.7	1705
613.179	1717
613.658	1698
614.137	1720
614.616	1725
615.095	1691
615.574	1724
616.053	1746
616.532	1733
617.011	1741
617.491	1747
617.97	1755
618.449	1787
618.928	1806
619.408	1784
619.887	1808
620.367	1816
620.846	1844
621.326	1841
621.805	1881
622.285	1873
622.764	1895
623.244	1903
623.724	1916
624.203	1929
624.683	1892
625.163	1931
625.643	1936
626.123	1915
626.602	1950
627.082	1912
627.562	1917
628.042	1971
628.522	1943
629.002	1930
629.482	1939
629.963	1933
630.443	1924
630.923	1936
631.403	1937
631.883	1935
632.364	1946
632.844	1925
633.324	1946
633.805	1947
634.285	1930
634.766	1922
635.246	1929
635.727	1944
636.207	1958
636.688	1963
637.168	1951
637.649	1916
638.13	1917
638.611	1942
639.091	1944
639.572	1928
640.053	1926
640.534	1952
641.015	1954
641.496	1930
641.977	1966
642.458	1937
642.939	1940
643.42	1952
643.901	1952
644.382	1972
644.863	1957
645.345	1967
645.826	1957
646.307	1962
646.788	2002
647.27	1977
647.751	1984
648.233	2002
648.714	1959
649.196	2009
649.677	2014
650.159	2013
650.64	1987
651.122	2025
651.603	2004
652.085	2032
652.567	2025
653.049	1998
653.53	1992
654.012	2034
654.494	2003
654.976	2028
655.458	2028
655.94	2039
656.422	2074
656.904	2039
657.386	2016
657.868	2007
658.35	2003
658.833	2018
659.315	2038
659.797	2011
660.279	2009
660.762	2026
661.244	1996
661.726	1977
662.209	1978
662.691	1972
663.174	1930
663.656	1950
664.139	1954
664.621	1939
665.104	1925
665.587	1960
666.069	1963
666.552	1963
667.035	1940
667.517	1953
668	1970
668.483	1962
668.966	1953
669.449	1943
669.932	1952
670.415	1979
670.898	1955
671.381	1957
671.864	1982
672.347	1969
672.83	1971
673.313	1965
673.797	1962
674.28	2008
674.763	2019
675.247	2034
675.73	2028
676.213	2035
676.697	2043
677.18	2041
677.664	2049
678.147	2051
678.631	2065
679.114	2069
679.598	2074
680.082	2094
680.565	2095
681.049	2104
681.533	2105
682.017	2107
682.5	2101
682.984	2102
683.468	2095
683.952	2068
684.436	2105
684.92	2098
685.404	2102
685.888	2120
686.372	2108
686.856	2119
687.341	2137
687.825	2104
688.309	2122
688.793	2107
689.278	2088
689.762	2105
690.246	2087
690.731	2106
691.215	2121
691.7	2072
692.184	2095
692.669	2085
693.153	2096
693.638	2073
694.122	2069
694.607	2091
695.092	2070
695.577	2105
696.061	2061
696.546	2056
697.031	2056
697.516	2068
698.001	2079
698.486	2065
698.971	2097
699.456	2044
699.941	2042
700.426	2042
700.911	2071
701.396	2059
701.881	2084
702.366	2068
702.852	2063
703.337	2073
703.822	2052
704.308	2055
704.793	2068
705.278	2080
705.764	2093
706.249	2077
706.735	2064
707.22	2085
707.706	2045
708.191	2087
708.677	2096
709.163	2081
709.648	2098
710.134	2123
710.62	2103
711.106	2112
711.592	2145
712.077	2142
712.563	2090
713.049	2073
713.535	2128
714.021	2112
714.507	2104
714.993	2076
715.479	2096
715.966	2076
716.452	2078
716.938	2074
717.424	2025
717.91	2076
718.397	2071
718.883	2057
719.369	2055
719.856	2034
720.342	2063
720.829	2046
721.315	2053
721.802	2042
722.288	2048
722.775	1964
723.262	1915
723.748	1991
724.235	1986
724.722	2026
725.208	1988
725.695	1981
726.182	1969
726.669	1942
727.156	1956
727.643	1930
728.13	1926
728.617	1915
729.104	1914
729.591	1891
730.078	1909
730.565	1915
731.052	1881
731.539	1888
732.027	1879
732.514	1867
733.001	1888
733.488	1881
733.976	1877
734.463	1875
734.951	1862
735.438	1890
735.926	1882
736.413	1909
736.901	1890
737.388	1923
737.876	1915
738.364	1905
738.851	1914
739.339	1906
739.827	1924
740.314	1862
740.802	1878
741.29	1886
741.778	1869
742.266	1873
742.754	1884
743.242	1899
743.73	1849
744.218	1850
744.706	1826
745.194	1848
745.682	1825
746.17	1829
746.659	1846
747.147	1793
747.635	1806
748.123	1803
748.612	1775
749.1	1768
749.589	1783
750.077	1779
750.566	1760
751.054	1761
751.543	1768
752.031	1738
752.52	1736
753.008	1701
753.497	1717
753.986	1707
754.474	1700
754.963	1724
755.452	1700
755.941	1692
756.43	1691
756.919	1687
757.408	1679
757.896	1673
758.385	1668
758.875	1658
759.364	1651
759.853	1641
760.342	1614
760.831	1646
761.32	1638
761.809	1613
762.299	1617
762.788	1626
763.277	1623
763.767	1597
764.256	1594
764.745	1574
765.235	1602
765.724	1556
766.214	1584
766.703	1568
767.193	1560
767.683	1562
768.172	1535
768.662	1548
769.152	1541
769.641	1551
770.131	1502
770.621	1518
771.111	1501
771.601	1493
772.09	1482
772.58	1469
773.07	1476
773.56	1481
774.05	1458
774.54	1456
775.031	1447
775.521	1437
776.011	1428
776.501	1437
776.991	1404
777.482	1420
777.972	1387
778.462	1386
778.953	1402
779.443	1389
779.933	1375
780.424	1367
780.914	1374
781.405	1378
781.895	1368
782.386	1370
782.877	1357
783.367	1333
783.858	1322
784.349	1333
784.839	1317
785.33	1322
785.821	1320
786.312	1304
786.803	1316
787.293	1322
787.784	1303
788.275	1285
788.766	1279
789.257	1300
789.748	1269
790.24	1260
790.731	1281
791.222	1266
791.713	1246
792.204	1256
792.696	1224
793.187	1224
793.678	1215
794.169	1181
794.661	1190
795.152	1182
795.644	1178
796.135	1178
796.627	1191
797.118	1173
797.61	1160
798.101	1141
798.593	1150
799.085	1145
799.576	1141
800.068	1117
800.56	1118
801.052	1096
801.544	1096
802.035	1098
802.527	1078
803.019	1069
803.511	1055
804.003	1054
804.495	1056
804.987	1045
805.479	1018
805.971	1034
806.464	1038
806.956	1015
807.448	1020
807.94	1021
808.433	1007
808.925	1009
809.417	993
809.91	987
810.402	959
810.894	961
811.387	974
811.879	953
812.372	972
812.865	956
813.357	961
813.85	953
814.342	950
814.835	944
815.328	938
815.821	921
816.313	923
816.806	933
817.299	925
817.792	932
818.285	926
818.778	933
819.271	928
819.764	916
820.257	924
820.75	925
821.243	928
821.736	914
822.229	925
822.722	920
823.216	942
