Data from lamp5bck_Subt4__57__312.txt Node

Date: Wed Apr 09 10:15:50 CEST 2025
User: fys-lab-0081
Spectrometer: S04999
Trigger mode: 0
Resolution mode: 1024 pixels
Integration Time (sec): 1.000000E-1
Scans to average: 1
Nonlinearity correction enabled: false
Boxcar width: 0
Baseline correction enabled: true
XAxis mode: Wavelengths
Number of Pixels in Spectrum: 1024
>>>>>Begin Spectral Data<<<<<
336.42	2
336.877	-1
337.334	-1
337.792	2
338.249	-2
338.706	2
339.164	-3
339.621	-1
340.079	3
340.536	3
340.994	3
341.452	1
341.909	1
342.367	-1
342.825	-1
343.283	3
343.741	-2
344.198	0
344.656	-2
345.114	-2
345.572	3
346.03	3
346.488	5
346.947	-4
347.405	3
347.863	1
348.321	3
348.779	1
349.238	1
349.696	6
350.154	1
350.613	2
351.071	1
351.53	8
351.988	5
352.447	-1
352.905	-2
353.364	-3
353.823	0
354.282	5
354.74	-4
355.199	2
355.658	7
356.117	2
356.576	2
357.035	2
357.494	3
357.953	4
358.412	4
358.871	-5
359.33	0
359.789	6
360.249	0
360.708	0
361.167	2
361.626	4
362.086	-1
362.545	0
363.005	7
363.464	0
363.924	2
364.383	5
364.843	-1
365.303	4
365.762	1
366.222	-1
366.682	5
367.142	2
367.601	4
368.061	5
368.521	7
368.981	1
369.441	8
369.901	6
370.361	1
370.821	4
371.282	5
371.742	5
372.202	7
372.662	8
373.123	7
373.583	2
374.043	4
374.504	-2
374.964	5
375.425	5
375.885	1
376.346	5
376.806	3
377.267	5
377.728	11
378.188	7
378.649	6
379.11	5
379.571	5
380.032	2
380.493	2
380.954	8
381.414	2
381.876	9
382.337	9
382.798	7
383.259	12
383.72	4
384.181	11
384.642	5
385.104	8
385.565	20
386.026	7
386.488	9
386.949	9
387.411	13
387.872	6
388.334	9
388.795	7
389.257	13
389.719	11
390.181	10
390.642	11
391.104	12
391.566	8
392.028	17
392.49	9
392.952	13
393.414	16
393.876	14
394.338	11
394.8	8
395.262	12
395.724	15
396.186	15
396.648	16
397.111	15
397.573	19
398.035	20
398.498	16
398.96	8
399.423	14
399.885	20
400.348	19
400.81	27
401.273	13
401.736	18
402.198	19
402.661	16
403.124	19
403.587	24
404.049	24
404.512	24
404.975	20
405.438	16
405.901	19
406.364	24
406.827	23
407.29	24
407.754	24
408.217	24
408.68	18
409.143	24
409.607	28
410.07	27
410.533	26
410.997	24
411.46	22
411.924	25
412.387	26
412.851	24
413.314	28
413.778	27
414.242	29
414.705	28
415.169	31
415.633	27
416.097	30
416.561	30
417.024	35
417.488	36
417.952	36
418.416	38
418.88	30
419.344	34
419.809	33
420.273	35
420.737	36
421.201	31
421.665	33
422.13	36
422.594	38
423.059	39
423.523	40
423.987	38
424.452	39
424.916	41
425.381	43
425.846	42
426.31	41
426.775	42
427.24	51
427.704	39
428.169	42
428.634	45
429.099	44
429.564	42
430.029	47
430.494	50
430.959	48
431.424	44
431.889	41
432.354	48
432.819	47
433.284	47
433.75	46
434.215	51
434.68	53
435.146	55
435.611	60
436.077	55
436.542	58
437.008	57
437.473	60
437.939	65
438.404	66
438.87	64
439.336	63
439.801	66
440.267	64
440.733	69
441.199	70
441.665	66
442.131	73
442.596	70
443.062	67
443.529	73
443.995	76
444.461	73
444.927	81
445.393	80
445.859	84
446.325	90
446.792	93
447.258	95
447.724	95
448.191	102
448.657	100
449.124	103
449.59	103
450.057	114
450.523	109
450.99	109
451.457	111
451.923	112
452.39	110
452.857	115
453.324	114
453.791	115
454.257	121
454.724	121
455.191	120
455.658	116
456.125	128
456.592	118
457.059	124
457.527	125
457.994	130
458.461	130
458.928	138
459.396	132
459.863	141
460.33	139
460.798	138
461.265	142
461.732	142
462.2	145
462.668	147
463.135	151
463.603	142
464.07	143
464.538	145
465.006	151
465.474	147
465.941	146
466.409	144
466.877	146
467.345	149
467.813	153
468.281	150
468.749	154
469.217	148
469.685	151
470.153	158
470.621	159
471.09	160
471.558	163
472.026	164
472.494	170
472.963	172
473.431	181
473.9	186
474.368	189
474.837	190
475.305	193
475.774	201
476.242	210
476.711	210
477.18	206
477.648	211
478.117	213
478.586	213
479.055	209
479.524	212
479.993	218
480.462	210
480.93	216
481.399	212
481.869	219
482.338	220
482.807	218
483.276	214
483.745	220
484.214	224
484.684	233
485.153	230
485.622	226
486.092	239
486.561	235
487.031	237
487.5	244
487.97	255
488.439	260
488.909	265
489.378	275
489.848	276
490.318	284
490.787	292
491.257	304
491.727	300
492.197	305
492.667	304
493.137	308
493.607	308
494.077	313
494.547	306
495.017	313
495.487	323
495.957	330
496.427	323
496.897	322
497.368	328
497.838	331
498.308	327
498.779	337
499.249	341
499.719	341
500.19	343
500.66	344
501.131	345
501.602	357
502.072	353
502.543	359
503.014	370
503.484	372
503.955	384
504.426	403
504.897	401
505.368	414
505.838	419
506.309	430
506.78	443
507.251	461
507.722	464
508.194	475
508.665	482
509.136	477
509.607	496
510.078	501
510.549	504
511.021	523
511.492	521
511.964	527
512.435	536
512.906	531
513.378	539
513.849	549
514.321	554
514.793	561
515.264	571
515.736	573
516.208	581
516.679	581
517.151	588
517.623	599
518.095	606
518.567	611
519.038	620
519.51	629
519.982	639
520.454	644
520.927	647
521.399	664
521.871	673
522.343	672
522.815	678
523.287	677
523.76	684
524.232	700
524.704	708
525.177	694
525.649	701
526.122	711
526.594	701
527.067	721
527.539	725
528.012	721
528.484	722
528.957	725
529.43	722
529.903	714
530.375	738
530.848	727
531.321	745
531.794	739
532.267	760
532.74	748
533.213	751
533.686	760
534.159	759
534.632	776
535.105	787
535.578	793
536.051	804
536.525	804
536.998	808
537.471	832
537.945	815
538.418	836
538.891	838
539.365	845
539.838	848
540.312	848
540.786	863
541.259	856
541.733	861
542.206	865
542.68	859
543.154	860
543.628	856
544.101	889
544.575	881
545.049	858
545.523	875
545.997	874
546.471	886
546.945	873
547.419	894
547.893	861
548.367	873
548.842	872
549.316	870
549.79	883
550.264	876
550.739	891
551.213	879
551.687	893
552.162	896
552.636	895
553.111	892
553.585	921
554.06	908
554.534	925
555.009	917
555.484	939
555.958	961
556.433	957
556.908	971
557.383	961
557.858	987
558.333	987
558.807	990
559.282	987
559.757	1015
560.232	1028
560.708	1003
561.183	1001
561.658	1018
562.133	1016
562.608	1006
563.083	1030
563.559	1004
564.034	1023
564.509	1021
564.985	1021
565.46	1015
565.936	1042
566.411	1051
566.887	1038
567.362	1041
567.838	1044
568.313	1061
568.789	1042
569.265	1037
569.74	1048
570.216	1042
570.692	1058
571.168	1061
571.644	1062
572.12	1059
572.596	1075
573.071	1072
573.547	1099
574.024	1112
574.5	1129
574.976	1137
575.452	1154
575.928	1161
576.404	1166
576.881	1206
577.357	1189
577.833	1189
578.31	1230
578.786	1246
579.262	1269
579.739	1255
580.215	1292
580.692	1284
581.169	1276
581.645	1287
582.122	1313
582.598	1321
583.075	1322
583.552	1329
584.029	1332
584.506	1325
584.982	1319
585.459	1341
585.936	1330
586.413	1343
586.89	1364
587.367	1349
587.844	1374
588.321	1366
588.799	1368
589.276	1357
589.753	1375
590.23	1387
590.707	1392
591.185	1390
591.662	1390
592.139	1410
592.617	1443
593.094	1440
593.572	1440
594.049	1456
594.527	1479
595.004	1497
595.482	1522
595.96	1506
596.437	1510
596.915	1553
597.393	1529
597.871	1573
598.349	1545
598.826	1581
599.304	1580
599.782	1611
600.26	1593
600.738	1630
601.216	1614
601.694	1634
602.173	1657
602.651	1663
603.129	1640
603.607	1656
604.085	1673
604.564	1679
605.042	1682
605.52	1673
605.999	1720
606.477	1680
606.956	1689
607.434	1703.5
607.913	1718
608.391	1724
608.87	1722
609.348	1692
609.827	1705
610.306	1725
610.785	1730
611.263	1741
611.742	1709
612.221	1694
612.7	1712
613.179	1721
613.658	1700
614.137	1731
614.616	1731
615.095	1694
615.574	1723
616.053	1751
616.532	1741
617.011	1747
617.491	1753
617.97	1757
618.449	1794
618.928	1812
619.408	1796
619.887	1808
620.367	1822
620.846	1852
621.326	1837
621.805	1879
622.285	1878
622.764	1908
623.244	1903
623.724	1925
624.203	1934
624.683	1896
625.163	1931
625.643	1935
626.123	1912
626.602	1956
627.082	1922
627.562	1929
628.042	1968
628.522	1948
629.002	1937
629.482	1945
629.963	1941
630.443	1941
630.923	1939
631.403	1940
631.883	1939
632.364	1955
632.844	1932
633.324	1952
633.805	1950
634.285	1932
634.766	1933
635.246	1937
635.727	1944
636.207	1966
636.688	1964
637.168	1951
637.649	1930
638.13	1922
638.611	1943
639.091	1950
639.572	1930
640.053	1924
640.534	1954
641.015	1951
641.496	1927
641.977	1963
642.458	1945
642.939	1949
643.42	1951
643.901	1955
644.382	1967
644.863	1971
645.345	1970
645.826	1960
646.307	1960
646.788	2006
647.27	1986
647.751	1988
648.233	2006
648.714	1961
649.196	2014
649.677	2014
650.159	2012
650.64	1985
651.122	2024
651.603	2009
652.085	2032
652.567	2036
653.049	2006
653.53	1998
654.012	2038
654.494	2006
654.976	2036
655.458	2035
655.94	2036
656.422	2073
656.904	2043
657.386	2023
657.868	2016
658.35	2011
658.833	2026
659.315	2038
659.797	2016
660.279	2009
660.762	2032
661.244	2006
661.726	1978
662.209	1989
662.691	1978
663.174	1934
663.656	1955
664.139	1962
664.621	1941
665.104	1927
665.587	1957
666.069	1969
666.552	1966
667.035	1942
667.517	1953
668	1970
668.483	1975
668.966	1959
669.449	1938
669.932	1953
670.415	1977
670.898	1965
671.381	1965
671.864	1978
672.347	1971
672.83	1973
673.313	1973
673.797	1971
674.28	2012
674.763	2021
675.247	2039
675.73	2032
676.213	2037
676.697	2043
677.18	2045
677.664	2058
678.147	2054
678.631	2062
679.114	2069
679.598	2071
680.082	2101
680.565	2102
681.049	2103
681.533	2094
682.017	2120
682.5	2104
682.984	2101
683.468	2099
683.952	2065
684.436	2120
684.92	2096
685.404	2108
685.888	2128
686.372	2108
686.856	2121
687.341	2148
687.825	2115
688.309	2117
688.793	2121
689.278	2097
689.762	2105
690.246	2091
690.731	2100
691.215	2130
691.7	2074
692.184	2099
692.669	2086
693.153	2104
693.638	2074
694.122	2082
694.607	2091
695.092	2078
695.577	2109
696.061	2069
696.546	2058
697.031	2063
697.516	2077
698.001	2076
698.486	2071
698.971	2092
699.456	2048
699.941	2049
700.426	2049
700.911	2068
701.396	2066
701.881	2081
702.366	2075
702.852	2063
703.337	2072
703.822	2059
704.308	2050
704.793	2070
705.278	2083
705.764	2097
706.249	2085
706.735	2073
707.22	2082
707.706	2045
708.191	2084
708.677	2096
709.163	2080
709.648	2098
710.134	2125
710.62	2104
711.106	2110
711.592	2154
712.077	2144
712.563	2093
713.049	2084
713.535	2135
714.021	2117
714.507	2109
714.993	2082
715.479	2104
715.966	2074
716.452	2087
716.938	2076
717.424	2028
717.91	2080
718.397	2079
718.883	2056
719.369	2058
719.856	2039
720.342	2055
720.829	2047
721.315	2060
721.802	2045
722.288	2050
722.775	1970
723.262	1922
723.748	2001
724.235	1996
724.722	2022
725.208	1989
725.695	1987
726.182	1973
726.669	1941
727.156	1953
727.643	1936
728.13	1926
728.617	1912
729.104	1913
729.591	1893
730.078	1908
730.565	1916
731.052	1888
731.539	1892
732.027	1877
732.514	1861
733.001	1890
733.488	1881
733.976	1878
734.463	1880
734.951	1869
735.438	1891
735.926	1881
736.413	1912
736.901	1900
737.388	1930
737.876	1924
738.364	1916
738.851	1925
739.339	1912
739.827	1928
740.314	1864
740.802	1887
741.29	1892
741.778	1872
742.266	1872
742.754	1884
743.242	1902
743.73	1852
744.218	1854
744.706	1825
745.194	1842
745.682	1832
746.17	1837
746.659	1844
747.147	1796
747.635	1809
748.123	1809
748.612	1785
749.1	1763
749.589	1786
750.077	1779
750.566	1767
751.054	1767
751.543	1774
752.031	1741
752.52	1735
753.008	1705
753.497	1715
753.986	1705
754.474	1703
754.963	1723
755.452	1701
755.941	1697
756.43	1696
756.919	1690
757.408	1685
757.896	1676
758.385	1674
758.875	1658
759.364	1653
759.853	1650
760.342	1619
760.831	1650
761.32	1641
761.809	1614
762.299	1625
762.788	1638
763.277	1625
763.767	1596
764.256	1600
764.745	1573
765.235	1609
765.724	1559
766.214	1582
766.703	1573
767.193	1558
767.683	1567
768.172	1535
768.662	1546
769.152	1544
769.641	1548
770.131	1508
770.621	1524
771.111	1493
771.601	1492
772.09	1479
772.58	1471
773.07	1476
773.56	1487
774.05	1463
774.54	1457
775.031	1446
775.521	1440
776.011	1433
776.501	1438
776.991	1415
777.482	1428
777.972	1391
778.462	1393
778.953	1400
779.443	1390
779.933	1376
780.424	1368
780.914	1372
781.405	1385
781.895	1367
782.386	1368
782.877	1365
783.367	1333
783.858	1331
784.349	1334
784.839	1324
785.33	1321
785.821	1322
786.312	1310
786.803	1321
787.293	1327
787.784	1313
788.275	1294
788.766	1276
789.257	1298
789.748	1275
790.24	1261
790.731	1280
791.222	1259
791.713	1254
792.204	1259
792.696	1222
793.187	1236
793.678	1212
794.169	1183
794.661	1199
795.152	1183
795.644	1186
796.135	1180
796.627	1196
797.118	1166
797.61	1159
798.101	1139
798.593	1151
799.085	1143
799.576	1143
800.068	1120
800.56	1120
801.052	1096
801.544	1088
802.035	1104
802.527	1081
803.019	1076
803.511	1062
804.003	1058
804.495	1064
804.987	1046
805.479	1018
805.971	1043
806.464	1038
806.956	1016
807.448	1020
807.94	1026
808.433	1013
808.925	1007
809.417	993
809.91	985
810.402	958
810.894	960
811.387	970
811.879	955
812.372	976
812.865	959
813.357	965
813.85	954
814.342	946
814.835	945
815.328	937
815.821	925
816.313	927
816.806	930
817.299	921
817.792	937
818.285	927
818.778	935
819.271	932
819.764	920
820.257	920
820.75	922
821.243	929
821.736	918
822.229	932
822.722	926
823.216	942
