Data from lamp1helium_sterk_Subt4__0__124.txt Node

Date: Fri Apr 04 10:35:17 CEST 2025
User: fys-lab-0081
Spectrometer: S04999
Trigger mode: 0
Resolution mode: 1024 pixels
Integration Time (sec): 1.000000E-1
Scans to average: 1
Nonlinearity correction enabled: false
Boxcar width: 0
Baseline correction enabled: true
XAxis mode: Wavelengths
Number of Pixels in Spectrum: 1024
>>>>>Begin Spectral Data<<<<<
336.42	2
336.877	4
337.334	3
337.792	8
338.249	8
338.706	11
339.164	12
339.621	7
340.079	7
340.536	5
340.994	5
341.452	10
341.909	8
342.367	9
342.825	12
343.283	10
343.741	13
344.198	7
344.656	8
345.114	14
345.572	7
346.03	10
346.488	12
346.947	14
347.405	12
347.863	10
348.321	14
348.779	15
349.238	16
349.696	11
350.154	15
350.613	19
351.071	17
351.53	17
351.988	14
352.447	20
352.905	18
353.364	17
353.823	27
354.282	21
354.74	24
355.199	23
355.658	26
356.117	24
356.576	28
357.035	31
357.494	27
357.953	22
358.412	26
358.871	31
359.33	33
359.789	28
360.249	31
360.708	39
361.167	31
361.626	34
362.086	32
362.545	36
363.005	35
363.464	42
363.924	36
364.383	41
364.843	47
365.303	43
365.762	47
366.222	48
366.682	46
367.142	52
367.601	48
368.061	55
368.521	55
368.981	55
369.441	55
369.901	51
370.361	57
370.821	61
371.282	59
371.742	54
372.202	58
372.662	61
373.123	61
373.583	65
374.043	73
374.504	64
374.964	73
375.425	77
375.885	74
376.346	75
376.806	66
377.267	78
377.728	75
378.188	85
378.649	86
379.11	81
379.571	85
380.032	86
380.493	87
380.954	95
381.414	96
381.876	101
382.337	104
382.798	102
383.259	104
383.72	109
384.181	118
384.642	120
385.104	123
385.565	121
386.026	132
386.488	140
386.949	136
387.411	143
387.872	141
388.334	146
388.795	148
389.257	150
389.719	155
390.181	157
390.642	169
391.104	166
391.566	166
392.028	174
392.49	177
392.952	182
393.414	183
393.876	189
394.338	200
394.8	198
395.262	208
395.724	204
396.186	212
396.648	216
397.111	216
397.573	216
398.035	215
398.498	227
398.96	227
399.423	227
399.885	232
400.348	234
400.81	245
401.273	251
401.736	242
402.198	256
402.661	266
403.124	273
403.587	279
404.049	283
404.512	287
404.975	299
405.438	294
405.901	299
406.364	298
406.827	306
407.29	298
407.754	304
408.217	293
408.68	301
409.143	307
409.607	311
410.07	307
410.533	313
410.997	319
411.46	318
411.924	320
412.387	326
412.851	337
413.314	352
413.778	349
414.242	354
414.705	375
415.169	361
415.633	376
416.097	376
416.561	377
417.024	382
417.488	370
417.952	381
418.416	377
418.88	386
419.344	376
419.809	378
420.273	382
420.737	375
421.201	387
421.665	393
422.13	392
422.594	399
423.059	411
423.523	419
423.987	416
424.452	436
424.916	447
425.381	459
425.846	469
426.31	465
426.775	471
427.24	484
427.704	474
428.169	484
428.634	481
429.099	469
429.564	477
430.029	474
430.494	477
430.959	479
431.424	474
431.889	490
432.354	494
432.819	492
433.284	503
433.75	506
434.215	529
434.68	527
435.146	539
435.611	563
436.077	584
436.542	590
437.008	601
437.473	618
437.939	619
438.404	634
438.87	640
439.336	625
439.801	629
440.267	640
440.733	650
441.199	647
441.665	650
442.131	659
442.596	651
443.062	671
443.529	691
443.995	695
444.461	707
444.927	733
445.393	738
445.859	772
446.325	780
446.792	831
447.258	827
447.724	843
448.191	882
448.657	888
449.124	916
449.59	917
450.057	961
450.523	968
450.99	980
451.457	981
451.923	994
452.39	983
452.857	1007
453.324	998
453.791	1008
454.257	1012
454.724	1030
455.191	1017
455.658	1013
456.125	1057
456.592	1028
457.059	1051
457.527	1061
457.994	1088
458.461	1093
458.928	1113
459.396	1112
459.863	1142
460.33	1144
460.798	1147
461.265	1159
461.732	1151
462.2	1178
462.668	1169
463.135	1185
463.603	1159
464.07	1193
464.538	1156
465.006	1198
465.474	1165
465.941	1168
466.409	1169
466.877	1147
467.345	1187
467.813	1161
468.281	1167
468.749	1183
469.217	1175
469.685	1184
470.153	1204
470.621	1200
471.09	1197
471.558	1261
472.026	1244
472.494	1278
472.963	1292
473.431	1331
473.9	1348
474.368	1390
474.837	1410
475.305	1431
475.774	1466
476.242	1496
476.711	1511
477.18	1543
477.648	1528
478.117	1543
478.586	1530
479.055	1533
479.524	1542
479.993	1532
480.462	1532
480.93	1534
481.399	1535
481.869	1548
482.338	1525
482.807	1549
483.276	1541
483.745	1543
484.214	1577
484.684	1584
485.153	1582
485.622	1582
486.092	1621
486.561	1590
487.031	1643
487.5	1678
487.97	1675
488.439	1702
488.909	1742
489.378	1814
489.848	1811
490.318	1841
490.787	1922
491.257	1955
491.727	1971
492.197	2013
492.667	2009
493.137	2048
493.607	2055
494.077	2075
494.547	2057
495.017	2040
495.487	2078
495.957	2112
496.427	2071
496.897	2063
497.368	2094
497.838	2078
498.308	2095
498.779	2105
499.249	2126
499.719	2126
500.19	2138
500.66	2150
501.131	2162
501.602	2202
502.072	2188
502.543	2202
503.014	2286
503.484	2275
503.955	2327
504.426	2401
504.897	2412
505.368	2471
505.838	2509
506.309	2554
506.78	2624
507.251	2666
507.722	2715
508.194	2783
508.665	2815
509.136	2824
509.607	2909
510.078	2955
510.549	2989
511.021	3058
511.492	3054
511.964	3082
512.435	3126
512.906	3105
513.378	3129
513.849	3184
514.321	3179
514.793	3220
515.264	3242
515.736	3264
516.208	3297
516.679	3327
517.151	3369
517.623	3381
518.095	3432
518.567	3460
519.038	3514
519.51	3505
519.982	3552
520.454	3600
520.927	3619
521.399	3655
521.871	3683
522.343	3698
522.815	3739
523.287	3735
523.76	3764
524.232	3817
524.704	3842
525.177	3782
525.649	3812
526.122	3862
526.594	3786
527.067	3883
527.539	3905
528.012	3875
528.484	3860
528.957	3862
529.43	3853
529.903	3840
530.375	3971
530.848	3855
531.321	3902
531.794	3894
532.267	3959
532.74	3898
533.213	3898
533.686	3957
534.159	3913
534.632	4002
535.105	3986
535.578	4056
536.051	4075
536.525	4109
536.998	4108
537.471	4181
537.945	4115
538.418	4171
538.891	4188
539.365	4256
539.838	4278
540.312	4287
540.786	4305
541.259	4288
541.733	4345
542.206	4354
542.68	4271
543.154	4266
543.628	4264
544.101	4370
544.575	4340
545.049	4220
545.523	4299
545.997	4271
546.471	4323
546.945	4275
547.419	4324
547.893	4142
548.367	4200
548.842	4168
549.316	4192
549.79	4230
550.264	4195
550.739	4226
551.213	4226
551.687	4227
552.162	4254
552.636	4202
553.111	4200
553.585	4306
554.06	4221
554.534	4314
555.009	4285
555.484	4342
555.958	4391
556.433	4409
556.908	4455
557.383	4397
557.858	4510
558.333	4519
558.807	4473
559.282	4512
559.757	4625
560.232	4655
560.708	4568
561.183	4541
561.658	4607
562.133	4612
562.608	4574
563.083	4701
563.559	4601
564.034	4635
564.509	4632
564.985	4634
565.46	4574
565.936	4649
566.411	4666
566.887	4578
567.362	4599
567.838	4571
568.313	4633
568.789	4587
569.265	4550
569.74	4568
570.216	4562
570.692	4624
571.168	4601
571.644	4599
572.12	4586
572.596	4645
573.071	4629
573.547	4729
574.024	4762
574.5	4774
574.976	4794
575.452	4863
575.928	4903
576.404	4893
576.881	5058
577.357	4984
577.833	5014
578.31	5130
578.786	5190
579.262	5291
579.739	5208
580.215	5359
580.692	5360
581.169	5325
581.645	5332
582.122	5460
582.598	5413
583.075	5416
583.552	5470
584.029	5475
584.506	5434
584.982	5400
585.459	5532
585.936	5454
586.413	5513
586.89	5578
587.367	5511
587.844	5585
588.321	5535
588.799	5533
589.276	5475
589.753	5548
590.23	5571
590.707	5536
591.185	5515
591.662	5485
592.139	5573
592.617	5693
593.094	5680
593.572	5702
594.049	5726
594.527	5754
595.004	5746
595.482	5910
595.96	5859
596.437	5846
596.915	5999
597.393	5940
597.871	6058
598.349	5959
598.826	6085
599.304	6132
599.782	6251
600.26	6150
600.738	6240
601.216	6189
601.694	6271
602.173	6326
602.651	6385
603.129	6297
603.607	6335
604.085	6391
604.564	6386
605.042	6407
605.52	6376
605.999	6521
606.477	6400
606.956	6416
607.434	6434
607.913	6452
608.391	6447
608.87	6459
609.348	6373
609.827	6390
610.306	6370
610.785	6357
611.263	6417
611.742	6406
612.221	6310
612.7	6344
613.179	6388
613.658	6306
614.137	6430
614.616	6465
615.095	6307
615.574	6360
616.053	6396
616.532	6370
617.011	6407
617.491	6385
617.97	6340
618.449	6407
618.928	6474
619.408	6456
619.887	6478
620.367	6466
620.846	6520
621.326	6523
621.805	6632
622.285	6592
622.764	6649
623.244	6661
623.724	6719
624.203	6783
624.683	6651
625.163	6818
625.643	6792
626.123	6733
626.602	6904
627.082	6736
627.562	6756
628.042	6920
628.522	6867
629.002	6826
629.482	6855
629.963	6837
630.443	6766
630.923	6792
631.403	6862
631.883	6816
632.364	6819
632.844	6726
633.324	6718
633.805	6734
634.285	6688
634.766	6646
635.246	6645
635.727	6631
636.207	6640
636.688	6649
637.168	6668
637.649	6594
638.13	6529
638.611	6572
639.091	6600
639.572	6574
640.053	6526
640.534	6582
641.015	6544
641.496	6423
641.977	6528
642.458	6449
642.939	6443
643.42	6471
643.901	6496
644.382	6523
644.863	6509
645.345	6505
645.826	6516
646.307	6518
646.788	6611
647.27	6498
647.751	6541
648.233	6611
648.714	6451
649.196	6618
649.677	6564
650.159	6578
650.64	6499
651.122	6594
651.603	6468
652.085	6556
652.567	6569
653.049	6523
653.53	6512
654.012	6595
654.494	6461
654.976	6482
655.458	6479
655.94	6472
656.422	6582
656.904	6509
657.386	6429
657.868	6412
658.35	6381
658.833	6468
659.315	6488
659.797	6385
660.279	6366
660.762	6418
661.244	6364
661.726	6310
662.209	6340
662.691	6316
663.174	6177
663.656	6198
664.139	6230
664.621	6202
665.104	6146
665.587	6176
666.069	6162
666.552	6142
667.035	6101
667.517	6126
668	6163
668.483	6152
668.966	6078
669.449	6025
669.932	6052
670.415	6138
670.898	6095
671.381	6104
671.864	6117
672.347	6055
672.83	6045
673.313	6085
673.797	6068
674.28	6190
674.763	6178
675.247	6163
675.73	6162
676.213	6228
676.697	6293
677.18	6287
677.664	6278
678.147	6242
678.631	6226
679.114	6242
679.598	6240
680.082	6270
680.565	6263
681.049	6223
681.533	6233
682.017	6321
682.5	6336
682.984	6389
683.468	6364
683.952	6248
684.436	6352
684.92	6283
685.404	6299
685.888	6337
686.372	6294
686.856	6303
687.341	6348
687.825	6266
688.309	6334
688.793	6341
689.278	6233
689.762	6277
690.246	6222
690.731	6240
691.215	6259
691.7	6104
692.184	6166
692.669	6162
693.153	6181
693.638	6067
694.122	6069
694.607	6102
695.092	6030
695.577	6087
696.061	6000
696.546	6011
697.031	5995
697.516	6065
698.001	6069
698.486	6011
698.971	6063
699.456	5916
699.941	5904
700.426	5873
700.911	5913
701.396	5859
701.881	5902
702.366	5875
702.852	5843
703.337	5886
703.822	5884
704.308	5878
704.793	5916
705.278	5925
705.764	5940
706.249	5885
706.735	5892
707.22	5932
707.706	5838
708.191	5917
708.677	5927
709.163	5875
709.648	5918
710.134	5944
710.62	5864
711.106	5833
711.592	5901
712.077	5898
712.563	5767
713.049	5763
713.535	5869
714.021	5840
714.507	5812
714.993	5746
715.479	5816
715.966	5753
716.452	5774
716.938	5798
717.424	5610
717.91	5747
718.397	5709
718.883	5701
719.369	5709
719.856	5670
720.342	5734
720.829	5657
721.315	5652
721.802	5619
722.288	5651
722.775	5447
723.262	5302
723.748	5531
724.235	5458
724.722	5529
725.208	5432
725.695	5465
726.182	5466
726.669	5393
727.156	5423
727.643	5367
728.13	5369
728.617	5350
729.104	5362
729.591	5327
730.078	5366
730.565	5357
731.052	5255
731.539	5255
732.027	5198
732.514	5133
733.001	5191
733.488	5156
733.976	5127
734.463	5097
734.951	5069
735.438	5138
735.926	5094
736.413	5131
736.901	5063
737.388	5096
737.876	5054
738.364	4996
738.851	5044
739.339	5069
739.827	5139
740.314	5008
740.802	5061
741.29	5111
741.778	5046
742.266	5049
742.754	5059
743.242	5099
743.73	5008
744.218	4991
744.706	4896
745.194	4941
745.682	4894
746.17	4910
746.659	4922
747.147	4811
747.635	4831
748.123	4824
748.612	4752
749.1	4714
749.589	4760
750.077	4751
750.566	4719
751.054	4747
751.543	4772
752.031	4662
752.52	4648
753.008	4568
753.497	4576
753.986	4614
754.474	4624
754.963	4660
755.452	4590
755.941	4537
756.43	4507
756.919	4484
757.408	4463
757.896	4478
758.385	4495
758.875	4464
759.364	4433
759.853	4405
760.342	4331
760.831	4419
761.32	4368
761.809	4284
762.299	4314
762.788	4327
763.277	4317
763.767	4247
764.256	4248
764.745	4177
765.235	4241
765.724	4121
766.214	4172
766.703	4146
767.193	4085
767.683	4095
768.172	4017
768.662	4069
769.152	4074
769.641	4087
770.131	3987
770.621	4029
771.111	3967
771.601	3972
772.09	3944
772.58	3896
773.07	3900
773.56	3950
774.05	3876
774.54	3839
775.031	3813
775.521	3771
776.011	3763
776.501	3783
776.991	3712
777.482	3774
777.972	3684
778.462	3688
778.953	3714
779.443	3655
779.933	3629
780.424	3563
780.914	3610
781.405	3634
781.895	3617
782.386	3611
782.877	3583
783.367	3512
783.858	3505
784.349	3524
784.839	3511
785.33	3535
785.821	3508
786.312	3475
786.803	3467
787.293	3473
787.784	3415
788.275	3377
788.766	3357
789.257	3428
789.748	3360
790.24	3342
790.731	3360
791.222	3288
791.713	3265
792.204	3254
792.696	3164
793.187	3210
793.678	3200
794.169	3136
794.661	3183
795.152	3142
795.644	3123
796.135	3113
796.627	3145
797.118	3101
797.61	3115
798.101	3083
798.593	3111
799.085	3049
799.576	3030
800.068	2992
800.56	3004
801.052	2936
801.544	2939
802.035	2957
802.527	2936
803.019	2909
803.511	2889
804.003	2857
804.495	2867
804.987	2841
805.479	2784
805.971	2818
806.464	2814
806.956	2737
807.448	2729
807.94	2713
808.433	2698
808.925	2690
809.417	2679
809.91	2688
810.402	2632
810.894	2658
811.387	2669
811.879	2602
812.372	2602
812.865	2572
813.357	2564
813.85	2574
814.342	2568
814.835	2584
815.328	2585
815.821	2547
816.313	2560
816.806	2564
817.299	2524
817.792	2547
818.285	2521
818.778	2579
819.271	2593
819.764	2555
820.257	2548
820.75	2542
821.243	2538
821.736	2500
822.229	2522
822.722	2510
823.216	2568
