Data from lamp1helium_sterk_Subt4__3__127.txt Node

Date: Fri Apr 04 10:35:17 CEST 2025
User: fys-lab-0081
Spectrometer: S04999
Trigger mode: 0
Resolution mode: 1024 pixels
Integration Time (sec): 1.000000E-1
Scans to average: 1
Nonlinearity correction enabled: false
Boxcar width: 0
Baseline correction enabled: true
XAxis mode: Wavelengths
Number of Pixels in Spectrum: 1024
>>>>>Begin Spectral Data<<<<<
336.42	4
336.877	4
337.334	7
337.792	8
338.249	3
338.706	11
339.164	9
339.621	5
340.079	8
340.536	7
340.994	7
341.452	12
341.909	12
342.367	8
342.825	13
343.283	13
343.741	17
344.198	6
344.656	11
345.114	13
345.572	12
346.03	12
346.488	10
346.947	11
347.405	16
347.863	18
348.321	13
348.779	13
349.238	14
349.696	16
350.154	13
350.613	19
351.071	17
351.53	15
351.988	20
352.447	22
352.905	19
353.364	20
353.823	25
354.282	20
354.74	22
355.199	28
355.658	22
356.117	28
356.576	26
357.035	29
357.494	24
357.953	23
358.412	29
358.871	35
359.33	31
359.789	29
360.249	32
360.708	38
361.167	30
361.626	38
362.086	33
362.545	37
363.005	36
363.464	42
363.924	40
364.383	46
364.843	45
365.303	42
365.762	49
366.222	49
366.682	46
367.142	52
367.601	57
368.061	50
368.521	56
368.981	57
369.441	58
369.901	50
370.361	58
370.821	64
371.282	57
371.742	56
372.202	56
372.662	60
373.123	60
373.583	67
374.043	69
374.504	65
374.964	68
375.425	67
375.885	73
376.346	76
376.806	73
377.267	79
377.728	74
378.188	83
378.649	82
379.11	83
379.571	83
380.032	84
380.493	89
380.954	95
381.414	95
381.876	99
382.337	104
382.798	99
383.259	107
383.72	109
384.181	118
384.642	120
385.104	126
385.565	126
386.026	131
386.488	141
386.949	135
387.411	145
387.872	140
388.334	144
388.795	150
389.257	156
389.719	155
390.181	157
390.642	167
391.104	165
391.566	165
392.028	172
392.49	176
392.952	183
393.414	186
393.876	189
394.338	201
394.8	198
395.262	206
395.724	211
396.186	208
396.648	213
397.111	210
397.573	218
398.035	216
398.498	224
398.96	229
399.423	229
399.885	234
400.348	239
400.81	246
401.273	248
401.736	249
402.198	257
402.661	268
403.124	274
403.587	279
404.049	286.5
404.512	294
404.975	297
405.438	293
405.901	296
406.364	298
406.827	307
407.29	298
407.754	301
408.217	295
408.68	302
409.143	306
409.607	304
410.07	307
410.533	313
410.997	319
411.46	324
411.924	318
412.387	320
412.851	340
413.314	354
413.778	352
414.242	355
414.705	373
415.169	366
415.633	374
416.097	374
416.561	376
417.024	387
417.488	368
417.952	376
418.416	369
418.88	385
419.344	378
419.809	374
420.273	385
420.737	373
421.201	385
421.665	389
422.13	388
422.594	399
423.059	405
423.523	415
423.987	420
424.452	432
424.916	440
425.381	455
425.846	464
426.31	459
426.775	467
427.24	478
427.704	472
428.169	479
428.634	475
429.099	473
429.564	472
430.029	478
430.494	475
430.959	481
431.424	473
431.889	485
432.354	486
432.819	479
433.284	506
433.75	504
434.215	524
434.68	523
435.146	534
435.611	560
436.077	574
436.542	590
437.008	601
437.473	611
437.939	611
438.404	632
438.87	637
439.336	618
439.801	624
440.267	634
440.733	645
441.199	641
441.665	644
442.131	659
442.596	644
443.062	666
443.529	684
443.995	698
444.461	711
444.927	726
445.393	729
445.859	764
446.325	771
446.792	827
447.258	815
447.724	838
448.191	878
448.657	885
449.124	907
449.59	904
450.057	951
450.523	958
450.99	975
451.457	974
451.923	986
452.39	971
452.857	994
453.324	993
453.791	1000
454.257	1002
454.724	1019
455.191	1011
455.658	1005
456.125	1045
456.592	1023
457.059	1047
457.527	1048
457.994	1081
458.461	1078
458.928	1098
459.396	1099
459.863	1137
460.33	1129
460.798	1137
461.265	1152
461.732	1140
462.2	1168
462.668	1157
463.135	1175
463.603	1144
464.07	1185
464.538	1146
465.006	1184
465.474	1151
465.941	1154
466.409	1164
466.877	1134
467.345	1169
467.813	1154
468.281	1157
468.749	1173
469.217	1162
469.685	1171
470.153	1190
470.621	1190
471.09	1184
471.558	1244
472.026	1233
472.494	1265
472.963	1283
473.431	1320
473.9	1338
474.368	1381
474.837	1398
475.305	1420
475.774	1447
476.242	1486
476.711	1497
477.18	1527
477.648	1514
478.117	1530
478.586	1510
479.055	1517
479.524	1526
479.993	1513
480.462	1519
480.93	1518
481.399	1520
481.869	1529
482.338	1511
482.807	1526
483.276	1525
483.745	1527
484.214	1561
484.684	1568
485.153	1559
485.622	1562
486.092	1599
486.561	1568
487.031	1617
487.5	1650
487.97	1648
488.439	1687
488.909	1725
489.378	1792
489.848	1784
490.318	1832
490.787	1892
491.257	1920
491.727	1950
492.197	1989
492.667	1982
493.137	2021
493.607	2038
494.077	2048
494.547	2028
495.017	2021
495.487	2051
495.957	2088
496.427	2041
496.897	2040
497.368	2063
497.838	2049
498.308	2069
498.779	2075
499.249	2098
499.719	2090
500.19	2112
500.66	2127
501.131	2132
501.602	2175
502.072	2167
502.543	2172
503.014	2251
503.484	2233
503.955	2297
504.426	2364
504.897	2373
505.368	2429
505.838	2477
506.309	2519
506.78	2590
507.251	2629
507.722	2676
508.194	2748
508.665	2781
509.136	2771
509.607	2868
510.078	2923
510.549	2942
511.021	3008
511.492	3004
511.964	3045
512.435	3077
512.906	3061
513.378	3090
513.849	3136
514.321	3137
514.793	3172
515.264	3196
515.736	3220
516.208	3267
516.679	3275
517.151	3319
517.623	3334
518.095	3380
518.567	3396
519.038	3460
519.51	3456
519.982	3500
520.454	3550
520.927	3564
521.399	3599
521.871	3624
522.343	3644
522.815	3693
523.287	3679
523.76	3711
524.232	3762
524.704	3786
525.177	3730
525.649	3768
526.122	3804
526.594	3720
527.067	3821
527.539	3858
528.012	3813
528.484	3807
528.957	3799
529.43	3794
529.903	3773
530.375	3911
530.848	3801
531.321	3840
531.794	3826
532.267	3901
532.74	3836
533.213	3834
533.686	3891
534.159	3861
534.632	3941
535.105	3931
535.578	3986
536.051	4006
536.525	4035
536.998	4043
537.471	4107
537.945	4042
538.418	4095
538.891	4119
539.365	4183
539.838	4209
540.312	4214
540.786	4233
541.259	4215
541.733	4273
542.206	4277
542.68	4196
543.154	4210
543.628	4200
544.101	4305
544.575	4260
545.049	4152
545.523	4239
545.997	4211
546.471	4237
546.945	4201
547.419	4247
547.893	4065
548.367	4136
548.842	4093
549.316	4110
549.79	4152
550.264	4121
550.739	4157
551.213	4153
551.687	4157
552.162	4186
552.636	4135
553.111	4130
553.585	4232
554.06	4159
554.534	4242
555.009	4206
555.484	4269
555.958	4304
556.433	4326
556.908	4387
557.383	4332
557.858	4435
558.333	4447
558.807	4393
559.282	4438
559.757	4541
560.232	4562
560.708	4480
561.183	4474
561.658	4525
562.133	4526
562.608	4492
563.083	4614
563.559	4503
564.034	4537
564.509	4547
564.985	4557
565.46	4488
565.936	4559
566.411	4579
566.887	4499
567.362	4513
567.838	4482
568.313	4537
568.789	4495
569.265	4469
569.74	4491
570.216	4464
570.692	4533
571.168	4512
571.644	4503
572.12	4496
572.596	4560
573.071	4539
573.547	4644
574.024	4673
574.5	4685
574.976	4694
575.452	4764
575.928	4799
576.404	4801
576.881	4964
577.357	4890
577.833	4917
578.31	5030
578.786	5093
579.262	5184
579.739	5114
580.215	5249
580.692	5251
581.169	5216
581.645	5227
582.122	5355
582.598	5301
583.075	5311
583.552	5371
584.029	5363
584.506	5339
584.982	5292
585.459	5420
585.936	5348
586.413	5413
586.89	5462
587.367	5391
587.844	5474
588.321	5426
588.799	5415
589.276	5364
589.753	5430
590.23	5452
590.707	5423
591.185	5402
591.662	5376
592.139	5462
592.617	5575
593.094	5562
593.572	5582
594.049	5618
594.527	5638
595.004	5623
595.482	5772
595.96	5739
596.437	5730
596.915	5875
597.393	5819
597.871	5935
598.349	5829
598.826	5960
599.304	6012
599.782	6121
600.26	6016
600.738	6113
601.216	6060
601.694	6130
602.173	6188
602.651	6239
603.129	6171
603.607	6202
604.085	6252
604.564	6258
605.042	6270
605.52	6229
605.999	6385
606.477	6254
606.956	6266
607.434	6289.5
607.913	6313
608.391	6305
608.87	6322
609.348	6229
609.827	6251
610.306	6230
610.785	6215
611.263	6271
611.742	6261
612.221	6171
612.7	6204
613.179	6252
613.658	6182
614.137	6288
614.616	6304
615.095	6162
615.574	6219
616.053	6255
616.532	6243
617.011	6271
617.491	6244
617.97	6193
618.449	6268
618.928	6325
619.408	6315
619.887	6341
620.367	6322
620.846	6378
621.326	6378
621.805	6479
622.285	6439
622.764	6490
623.244	6506
623.724	6575
624.203	6630
624.683	6500
625.163	6651
625.643	6634
626.123	6574
626.602	6740
627.082	6579
627.562	6582
628.042	6750
628.522	6703
629.002	6676
629.482	6701
629.963	6677
630.443	6583
630.923	6641
631.403	6701
631.883	6645
632.364	6651
632.844	6568
633.324	6555
633.805	6576
634.285	6515
634.766	6478
635.246	6486
635.727	6465
636.207	6476
636.688	6487
637.168	6510
637.649	6437
638.13	6382
638.611	6407
639.091	6428
639.572	6432
640.053	6376
640.534	6429
641.015	6390
641.496	6270
641.977	6377
642.458	6299
642.939	6299
643.42	6321
643.901	6334
644.382	6364
644.863	6354
645.345	6361
645.826	6369
646.307	6361
646.788	6437
647.27	6328
647.751	6386
648.233	6441
648.714	6285
649.196	6450
649.677	6394
650.159	6412
650.64	6321
651.122	6434
651.603	6306
652.085	6393
652.567	6405
653.049	6345
653.53	6340
654.012	6423
654.494	6298
654.976	6338
655.458	6312
655.94	6307
656.422	6407
656.904	6330
657.386	6259
657.868	6256
658.35	6214
658.833	6300
659.315	6322
659.797	6220
660.279	6197
660.762	6244
661.244	6193
661.726	6150
662.209	6174
662.691	6152
663.174	6012
663.656	6050
664.139	6069
664.621	6041
665.104	6013
665.587	6034
666.069	6005
666.552	5986
667.035	5933
667.517	5959
668	5999
668.483	5984
668.966	5909
669.449	5864
669.932	5903
670.415	5985
670.898	5945
671.381	5950
671.864	5948
672.347	5897
672.83	5886
673.313	5910
673.797	5908
674.28	6022
674.763	6023
675.247	6008
675.73	5989
676.213	6066
676.697	6138
677.18	6125
677.664	6102
678.147	6068
678.631	6053
679.114	6091
679.598	6082
680.082	6104
680.565	6080
681.049	6053
681.533	6050
682.017	6146
682.5	6156
682.984	6209
683.468	6190
683.952	6075
684.436	6185
684.92	6103
685.404	6125
685.888	6169
686.372	6124
686.856	6127
687.341	6172
687.825	6100
688.309	6167
688.793	6165
689.278	6073
689.762	6106
690.246	6054
690.731	6076
691.215	6087
691.7	5938
692.184	6013
692.669	5987
693.153	6010
693.638	5901
694.122	5903
694.607	5940
695.092	5864
695.577	5917
696.061	5839
696.546	5855
697.031	5826
697.516	5893
698.001	5899
698.486	5829
698.971	5902
699.456	5748
699.941	5749
700.426	5718
700.911	5751
701.396	5702
701.881	5746
702.366	5714
702.852	5692
703.337	5723
703.822	5717
704.308	5714
704.793	5742
705.278	5761
705.764	5768
706.249	5719
706.735	5711
707.22	5767
707.706	5670
708.191	5753
708.677	5748
709.163	5717
709.648	5745
710.134	5777
710.62	5692
711.106	5668
711.592	5735
712.077	5728
712.563	5601
713.049	5600
713.535	5702
714.021	5672
714.507	5656
714.993	5591
715.479	5648
715.966	5592
716.452	5603
716.938	5625
717.424	5455
717.91	5579
718.397	5541
718.883	5534
719.369	5537
719.856	5504
720.342	5578
720.829	5485
721.315	5490
721.802	5447
722.288	5500
722.775	5299
723.262	5156
723.748	5378
724.235	5309
724.722	5369
725.208	5275
725.695	5308
726.182	5299
726.669	5227
727.156	5245
727.643	5201
728.13	5204
728.617	5182
729.104	5199
729.591	5164
730.078	5203
730.565	5200
731.052	5103
731.539	5110
732.027	5047
732.514	4979
733.001	5032
733.488	5010
733.976	4969
734.463	4944
734.951	4933
735.438	4978
735.926	4939
736.413	4972
736.901	4910
737.388	4940
737.876	4898
738.364	4853
738.851	4892
739.339	4920
739.827	4991
740.314	4864
740.802	4899
741.29	4952
741.778	4906
742.266	4906
742.754	4908
743.242	4941
743.73	4844
744.218	4836
744.706	4760
745.194	4802
745.682	4750
746.17	4777
746.659	4786
747.147	4660
747.635	4696
748.123	4699
748.612	4626
749.1	4581
749.589	4625
750.077	4604
750.566	4577
751.054	4614
751.543	4632
752.031	4513
752.52	4511
753.008	4429
753.497	4443
753.986	4473
754.474	4481
754.963	4524
755.452	4456
755.941	4409
756.43	4378
756.919	4347
757.408	4318
757.896	4352
758.385	4361
758.875	4327
759.364	4285
759.853	4261
760.342	4196
760.831	4285
761.32	4235
761.809	4169
762.299	4190
762.788	4201
763.277	4196
763.767	4124
764.256	4121
764.745	4053
765.235	4114
765.724	4005
766.214	4059
766.703	4035
767.193	3974
767.683	3973
768.172	3910
768.662	3947
769.152	3945
769.641	3970
770.131	3867
770.621	3893
771.111	3840
771.601	3857
772.09	3813
772.58	3769
773.07	3780
773.56	3831
774.05	3753
774.54	3734
775.031	3698
775.521	3655
776.011	3651
776.501	3674
776.991	3615
777.482	3670
777.972	3581
778.462	3576
778.953	3605
779.443	3562
779.933	3528
780.424	3460
780.914	3506
781.405	3532
781.895	3513
782.386	3501
782.877	3482
783.367	3412
783.858	3405
784.349	3418
784.839	3402
785.33	3423
785.821	3396
786.312	3359
786.803	3360
787.293	3356
787.784	3311
788.275	3270
788.766	3255
789.257	3328
789.748	3255
790.24	3239
790.731	3246
791.222	3178
791.713	3159
792.204	3163
792.696	3082
793.187	3120
793.678	3108
794.169	3045
794.661	3094
795.152	3060
795.644	3031
796.135	3032
796.627	3055
797.118	3006
797.61	3012
798.101	2993
798.593	3016
799.085	2952
799.576	2940
800.068	2906
800.56	2909
801.052	2848
801.544	2846
802.035	2867
802.527	2846
803.019	2825
803.511	2791
804.003	2762
804.495	2770
804.987	2754
805.479	2697
805.971	2720
806.464	2737
806.956	2662
807.448	2643
807.94	2646
808.433	2619
808.925	2612
809.417	2606
809.91	2605
810.402	2553
810.894	2580
811.387	2591
811.879	2532
812.372	2519
812.865	2489
813.357	2494
813.85	2496
814.342	2492
814.835	2506
815.328	2516
815.821	2478
816.313	2480
816.806	2482
817.299	2449
817.792	2467
818.285	2449
818.778	2503
819.271	2519
819.764	2479
820.257	2483
820.75	2476
821.243	2461
821.736	2429
822.229	2443
822.722	2433
823.216	2486
