Data from lamp4bck_noballon_Subt2__46__246.txt Node

Date: Wed Apr 09 11:11:13 CEST 2025
User: fys-lab-0081
Spectrometer: S04999
Trigger mode: 0
Resolution mode: 1024 pixels
Integration Time (sec): 1.000000E-1
Scans to average: 1
Nonlinearity correction enabled: false
Boxcar width: 0
Baseline correction enabled: true
XAxis mode: Wavelengths
Number of Pixels in Spectrum: 1024
>>>>>Begin Spectral Data<<<<<
336.42	6
336.877	6
337.334	6
337.792	5
338.249	10
338.706	7
339.164	5
339.621	4
340.079	9
340.536	6
340.994	8
341.452	9
341.909	12
342.367	7
342.825	3
343.283	9
343.741	8
344.198	10
344.656	5
345.114	9
345.572	10
346.03	10
346.488	6
346.947	8
347.405	12
347.863	10
348.321	10
348.779	16
349.238	12
349.696	15
350.154	9
350.613	12
351.071	15
351.53	16
351.988	18
352.447	12
352.905	10
353.364	13
353.823	16
354.282	14
354.74	16
355.199	19
355.658	21
356.117	17
356.576	21
357.035	20
357.494	24
357.953	19
358.412	24
358.871	24
359.33	21
359.789	17
360.249	26
360.708	24
361.167	27
361.626	27
362.086	27
362.545	27
363.005	26
363.464	28
363.924	31
364.383	30
364.843	30
365.303	32
365.762	38
366.222	35
366.682	32
367.142	38
367.601	39
368.061	38
368.521	37
368.981	38
369.441	43
369.901	38
370.361	42
370.821	44
371.282	44
371.742	48
372.202	46
372.662	50
373.123	44
373.583	51
374.043	54
374.504	49
374.964	47
375.425	55
375.885	53
376.346	56
376.806	64
377.267	58
377.728	63
378.188	63
378.649	62
379.11	66
379.571	61
380.032	69
380.493	70
380.954	76
381.414	73
381.876	76
382.337	81
382.798	84
383.259	88
383.72	87
384.181	89
384.642	91
385.104	99
385.565	99
386.026	106
386.488	108
386.949	106
387.411	112
387.872	120
388.334	116
388.795	123
389.257	122
389.719	128
390.181	130
390.642	127
391.104	133
391.566	140
392.028	147
392.49	153
392.952	151
393.414	154
393.876	158
394.338	161
394.8	157
395.262	163
395.724	172
396.186	168
396.648	173
397.111	180
397.573	185
398.035	182
398.498	182
398.96	191
399.423	193
399.885	196
400.348	200
400.81	205
401.273	210
401.736	211
402.198	229
402.661	234
403.124	226
403.587	240
404.049	243
404.512	246
404.975	253
405.438	248
405.901	259
406.364	259
406.827	257
407.29	266
407.754	263
408.217	267
408.68	269
409.143	272
409.607	281
410.07	282
410.533	280
410.997	290
411.46	292
411.924	301
412.387	299
412.851	307
413.314	315
413.778	317
414.242	323
414.705	340
415.169	337
415.633	332
416.097	334
416.561	342
417.024	350
417.488	337
417.952	347
418.416	344
418.88	349
419.344	352
419.809	355
420.273	367
420.737	357
421.201	372
421.665	382
422.13	381
422.594	400
423.059	401
423.523	411
423.987	414
424.452	425
424.916	435
425.381	447
425.846	446
426.31	461
426.775	461
427.24	473
427.704	466
428.169	468
428.634	476
429.099	469
429.564	472
430.029	479
430.494	475
430.959	484
431.424	481
431.889	502
432.354	505
432.819	499
433.284	529
433.75	527
434.215	550
434.68	549
435.146	560
435.611	584
436.077	601
436.542	600
437.008	622
437.473	626
437.939	633
438.404	649
438.87	661
439.336	646
439.801	648
440.267	665
440.733	678
441.199	679
441.665	682
442.131	709
442.596	697
443.062	714
443.529	748
443.995	757
444.461	773
444.927	808
445.393	819
445.859	856
446.325	859
446.792	914
447.258	917
447.724	940
448.191	981
448.657	983
449.124	1005
449.59	997
450.057	1057
450.523	1062
450.99	1087
451.457	1072
451.923	1102
452.39	1089
452.857	1122
453.324	1117
453.791	1137
454.257	1135
454.724	1151
455.191	1152
455.658	1163
456.125	1199
456.592	1177
457.059	1195
457.527	1219
457.994	1255
458.461	1260
458.928	1280
459.396	1277
459.863	1320
460.33	1312
460.798	1310
461.265	1331
461.732	1319
462.2	1370
462.668	1356
463.135	1369
463.603	1325
464.07	1368
464.538	1334
465.006	1378
465.474	1355
465.941	1360
466.409	1372
466.877	1343
467.345	1386
467.813	1372
468.281	1384
468.749	1407
469.217	1405
469.685	1425
470.153	1463
470.621	1461
471.09	1474
471.558	1539
472.026	1543
472.494	1583
472.963	1604
473.431	1642
473.9	1681
474.368	1718
474.837	1737
475.305	1755
475.774	1788
476.242	1834
476.711	1840
477.18	1897
477.648	1876
478.117	1888
478.586	1886
479.055	1902
479.524	1909
479.993	1906
480.462	1905
480.93	1914
481.399	1919
481.869	1935
482.338	1910
482.807	1948
483.276	1932
483.745	1936
484.214	1987
484.684	2019
485.153	2037
485.622	2061
486.092	2120
486.561	2082
487.031	2162
487.5	2197
487.97	2223
488.439	2285
488.909	2357
489.378	2442
489.848	2435
490.318	2484
490.787	2580
491.257	2599
491.727	2609
492.197	2645
492.667	2647
493.137	2678
493.607	2712
494.077	2733
494.547	2702
495.017	2693
495.487	2730
495.957	2795
496.427	2736
496.897	2723
497.368	2777
497.838	2752
498.308	2788
498.779	2838
499.249	2853
499.719	2893
500.19	2921
500.66	2938
501.131	2959
501.602	3013
502.072	3002
502.543	3052
503.014	3167
503.484	3154
503.955	3252
504.426	3370
504.897	3382
505.368	3452
505.838	3546
506.309	3627
506.78	3726
507.251	3776
507.722	3871
508.194	3971
508.665	4018
509.136	4008
509.607	4136
510.078	4149
510.549	4160
511.021	4272
511.492	4288
511.964	4352
512.435	4419
512.906	4382
513.378	4419
513.849	4492
514.321	4514
514.793	4560
515.264	4630
515.736	4662
516.208	4758
516.679	4814
517.151	4831
517.623	4865
518.095	4954
518.567	4991
519.038	5084
519.51	5060
519.982	5119
520.454	5191
520.927	5283
521.399	5374
521.871	5436
522.343	5434
522.815	5469
523.287	5472
523.76	5523
524.232	5604
524.704	5642
525.177	5542
525.649	5582
526.122	5625
526.594	5507
527.067	5652
527.539	5746
528.012	5696
528.484	5668
528.957	5699
529.43	5696
529.903	5657
530.375	5850
530.848	5735
531.321	5812
531.794	5797
532.267	5933
532.74	5846
533.213	5819
533.686	5913
534.159	5890
534.632	6035
535.105	6069
535.578	6214
536.051	6232
536.525	6242
536.998	6221
537.471	6382
537.945	6316
538.418	6421
538.891	6426
539.365	6502
539.838	6544
540.312	6513
540.786	6525
541.259	6500
541.733	6635
542.206	6666
542.68	6583
543.154	6590
543.628	6603
544.101	6732
544.575	6618
545.049	6434
545.523	6541
545.997	6542
546.471	6611
546.945	6562
547.419	6676
547.893	6456
548.367	6607
548.842	6524
549.316	6565
549.79	6575
550.264	6530
550.739	6622
551.213	6612
551.687	6608
552.162	6657
552.636	6597
553.111	6603
553.585	6823
554.06	6731
554.534	6856
555.009	6810
555.484	6910
555.958	7001
556.433	6998
556.908	7098
557.383	7028
557.858	7230
558.333	7236
558.807	7198
559.282	7262
559.757	7462
560.232	7432
560.708	7305
561.183	7246
561.658	7334
562.133	7333
562.608	7261
563.083	7440
563.559	7283
564.034	7331
564.509	7329
564.985	7332
565.46	7246
565.936	7389
566.411	7351
566.887	7279
567.362	7386
567.838	7429
568.313	7501
568.789	7326
569.265	7310
569.74	7372
570.216	7303
570.692	7410
571.168	7405
571.644	7438
572.12	7449
572.596	7518
573.071	7553
573.547	7789
574.024	7863
574.5	7884
574.976	7897
575.452	8016
575.928	8131
576.404	8218
576.881	8459
577.357	8286
577.833	8297
578.31	8547
578.786	8602
579.262	8694
579.739	8573
580.215	8802
580.692	8792
581.169	8735
581.645	8769
582.122	9030
582.598	9037
583.075	9048
583.552	9091
584.029	9001
584.506	8898
584.982	8840
585.459	9071
585.936	8953
586.413	9063
586.89	9238
587.367	9166
587.844	9278
588.321	9163
588.799	9201
589.276	9161
589.753	9305
590.23	9343
590.707	9311
591.185	9307
591.662	9337
592.139	9403
592.617	9509
593.094	9458
593.572	9540
594.049	9622
594.527	9734
595.004	9794
595.482	10027
595.96	9970
596.437	9987
596.915	10235
597.393	10069
597.871	10310
598.349	10210
598.826	10395
599.304	10356
599.782	10554
600.26	10474
600.738	10721
601.216	10651
601.694	10695
602.173	10733
602.651	10755
603.129	10572
603.607	10633
604.085	10697
604.564	10729
605.042	10787
605.52	10718
605.999	10967
606.477	10678
606.956	10702
607.434	10834
607.913	10966
608.391	10924
608.87	10867
609.348	10690
609.827	10722
610.306	10818
610.785	10839
611.263	10811
611.742	10712
612.221	10577
612.7	10740
613.179	10809
613.658	10685
614.137	10859
614.616	10925
615.095	10739
615.574	10894
616.053	10977
616.532	10887
617.011	10902
617.491	11009
617.97	10975
618.449	11103
618.928	11179
619.408	11061
619.887	11184
620.367	11218
620.846	11321
621.326	11249
621.805	11514
622.285	11498
622.764	11552
623.244	11554
623.724	11630
624.203	11690
624.683	11517
625.163	11727
625.643	11683
626.123	11563
626.602	11818
627.082	11569
627.562	11549
628.042	11762
628.522	11650
629.002	11557
629.482	11661
629.963	11689
630.443	11618
630.923	11618
631.403	11674
631.883	11627
632.364	11646
632.844	11549
633.324	11626
633.805	11694
634.285	11544
634.766	11458
635.246	11469
635.727	11455
636.207	11437
636.688	11427
637.168	11419
637.649	11359
638.13	11329
638.611	11420
639.091	11392
639.572	11334
640.053	11280
640.534	11352
641.015	11302
641.496	11144
641.977	11353
642.458	11237
642.939	11318
643.42	11354
643.901	11331
644.382	11423
644.863	11361
645.345	11304
645.826	11297
646.307	11296
646.788	11469
647.27	11291
647.751	11299
648.233	11370
648.714	11117
649.196	11422
649.677	11366
650.159	11353
650.64	11226
651.122	11430
651.603	11267
652.085	11385
652.567	11456
653.049	11363
653.53	11352
654.012	11501
654.494	11314
654.976	11457
655.458	11425
655.94	11377
656.422	11549
656.904	11379
657.386	11270
657.868	11278
658.35	11222
658.833	11311
659.315	11326
659.797	11130
660.279	11079
660.762	11098
661.244	11007
661.726	10867
662.209	10875
662.691	10879
663.174	10708
663.656	10781
664.139	10783
664.621	10653
665.104	10596
665.587	10742
666.069	10817
666.552	10768
667.035	10640
667.517	10672
668	10783
668.483	10753
668.966	10663
669.449	10619
669.932	10620
670.415	10739
670.898	10653
671.381	10708
671.864	10686
672.347	10519
672.83	10542
673.313	10550
673.797	10536
674.28	10758
674.763	10795
675.247	10783
675.73	10700
676.213	10778
676.697	10830
677.18	10836
677.664	10852
678.147	10821
678.631	10892
679.114	10948
679.598	10960
680.082	11083
680.565	11081
681.049	11020
681.533	11012
682.017	11029
682.5	10967
682.984	10989
683.468	11007
683.952	10827
684.436	11019
684.92	10887
685.404	10951
685.888	11036
686.372	10949
686.856	10974
687.341	11069
687.825	10920
688.309	10971
688.793	11000
689.278	10858
689.762	10926
690.246	10851
690.731	10892
691.215	10949
691.7	10702
692.184	10812
692.669	10702
693.153	10738
693.638	10566
694.122	10531
694.607	10662
695.092	10510
695.577	10581
696.061	10352
696.546	10384
697.031	10363
697.516	10468
698.001	10492
698.486	10384
698.971	10435
699.456	10202
699.941	10191
700.426	10197
700.911	10354
701.396	10300
701.881	10383
702.366	10280
702.852	10212
703.337	10255
703.822	10248
704.308	10265
704.793	10341
705.278	10353
705.764	10400
706.249	10332
706.735	10327
707.22	10395
707.706	10246
708.191	10391
708.677	10375
709.163	10213
709.648	10218
710.134	10373
710.62	10282
711.106	10344
711.592	10490
712.077	10432
712.563	10147
713.049	10119
713.535	10329
714.021	10278
714.507	10193
714.993	10049
715.479	10124
715.966	9990
716.452	10033
716.938	10109
717.424	9850
717.91	10059
718.397	9979
718.883	9908
719.369	9926
719.856	9811
720.342	9968
720.829	9845
721.315	9910
721.802	9791
722.288	9816
722.775	9418
723.262	9178
723.748	9520
724.235	9478
724.722	9594
725.208	9418
725.695	9402
726.182	9389
726.669	9272
727.156	9339
727.643	9194
728.13	9168
728.617	9046
729.104	9062
729.591	8994
730.078	9097
730.565	9122
731.052	9003
731.539	9021
732.027	8937
732.514	8784
733.001	8852
733.488	8796
733.976	8807
734.463	8773
734.951	8783
735.438	8863
735.926	8725
736.413	8749
736.901	8670
737.388	8721
737.876	8695
738.364	8676
738.851	8761
739.339	8762
739.827	8853
740.314	8562
740.802	8563
741.29	8554
741.778	8462
742.266	8485
742.754	8498
743.242	8557
743.73	8391
744.218	8364
744.706	8267
745.194	8342
745.682	8307
746.17	8316
746.659	8344
747.147	8135
747.635	8163
748.123	8080
748.612	7970
749.1	7948
749.589	8058
750.077	8025
750.566	8017
751.054	8082
751.543	8109
752.031	7921
752.52	7851
753.008	7670
753.497	7681
753.986	7677
754.474	7658
754.963	7719
755.452	7572
755.941	7523
756.43	7519
756.919	7456
757.408	7392
757.896	7411
758.385	7420
758.875	7337
759.364	7268
759.853	7188
760.342	7063
760.831	7228
761.32	7163
761.809	7071
762.299	7080
762.788	7063
763.277	7023
763.767	6922
764.256	6895
764.745	6833
765.235	6950
765.724	6758
766.214	6819
766.703	6710
767.193	6598
767.683	6606
768.172	6469
768.662	6518
769.152	6487
769.641	6501
770.131	6356
770.621	6429
771.111	6331
771.601	6323
772.09	6295
772.58	6234
773.07	6262
773.56	6281
774.05	6133
774.54	6100
775.031	6075
775.521	6071
776.011	6056
776.501	6072
776.991	5934
777.482	5990
777.972	5827
778.462	5801
778.953	5829
779.443	5789
779.933	5784
780.424	5720
780.914	5769
781.405	5766
781.895	5707
782.386	5667
782.877	5624
783.367	5516
783.858	5471
784.349	5464
784.839	5449
785.33	5471
785.821	5448
786.312	5409
786.803	5424
787.293	5431
787.784	5341
788.275	5264
788.766	5215
789.257	5274
789.748	5146
790.24	5089
790.731	5098
791.222	4982
791.713	4948
792.204	4963
792.696	4846
793.187	4910
793.678	4893
794.169	4733
794.661	4790
795.152	4715
795.644	4664
796.135	4655
796.627	4687
797.118	4597
797.61	4541
798.101	4484
798.593	4548
799.085	4467
799.576	4485
800.068	4419
800.56	4425
801.052	4328
801.544	4321
802.035	4320
802.527	4255
803.019	4191
803.511	4140
804.003	4113
804.495	4142
804.987	4107
805.479	4030
805.971	4049
806.464	4024
806.956	3911
807.448	3884
807.94	3883
808.433	3853
808.925	3837
809.417	3791
809.91	3762
810.402	3661
810.894	3682
811.387	3711
811.879	3643
812.372	3688
812.865	3650
813.357	3651
813.85	3630
814.342	3613
814.835	3598
815.328	3557
815.821	3506
816.313	3502
816.806	3493
817.299	3431
817.792	3456
818.285	3390
818.778	3435
819.271	3426
819.764	3393
820.257	3408
820.75	3399
821.243	3398
821.736	3359
822.229	3366
822.722	3357
823.216	3421
