Data from lamp4bck_noballon_Subt2__97__297.txt Node

Date: Wed Apr 09 11:11:19 CEST 2025
User: fys-lab-0081
Spectrometer: S04999
Trigger mode: 0
Resolution mode: 1024 pixels
Integration Time (sec): 1.000000E-1
Scans to average: 1
Nonlinearity correction enabled: false
Boxcar width: 0
Baseline correction enabled: true
XAxis mode: Wavelengths
Number of Pixels in Spectrum: 1024
>>>>>Begin Spectral Data<<<<<
336.42	5
336.877	4
337.334	4
337.792	2
338.249	11
338.706	3
339.164	6
339.621	8
340.079	7
340.536	10
340.994	9
341.452	13
341.909	12
342.367	7
342.825	5
343.283	11
343.741	8
344.198	7
344.656	6
345.114	6
345.572	11
346.03	10
346.488	11
346.947	7
347.405	9
347.863	12
348.321	9
348.779	12
349.238	11
349.696	15
350.154	12
350.613	14
351.071	15
351.53	19
351.988	19
352.447	17
352.905	10
353.364	11
353.823	19
354.282	16
354.74	11
355.199	17
355.658	22
356.117	19
356.576	20
357.035	16
357.494	19
357.953	17
358.412	22
358.871	23
359.33	20
359.789	23
360.249	22
360.708	24
361.167	28
361.626	27
362.086	25
362.545	28
363.005	28
363.464	29
363.924	31
364.383	30
364.843	32
365.303	36
365.762	36
366.222	37
366.682	33
367.142	40
367.601	39
368.061	39
368.521	39
368.981	37
369.441	44
369.901	40
370.361	41
370.821	39
371.282	42
371.742	46
372.202	44
372.662	49
373.123	46
373.583	55
374.043	51
374.504	48
374.964	52
375.425	54
375.885	56
376.346	60
376.806	62
377.267	57
377.728	62
378.188	67
378.649	60
379.11	66
379.571	61
380.032	67
380.493	69
380.954	77
381.414	71
381.876	75
382.337	80
382.798	83
383.259	87
383.72	86
384.181	88
384.642	91
385.104	99
385.565	102
386.026	107
386.488	109
386.949	110
387.411	111
387.872	116
388.334	124
388.795	125
389.257	127
389.719	126
390.181	131
390.642	131
391.104	134
391.566	141
392.028	145
392.49	150
392.952	153
393.414	154
393.876	157
394.338	156
394.8	165
395.262	160
395.724	176
396.186	169
396.648	172
397.111	176
397.573	182
398.035	183
398.498	193
398.96	190
399.423	196
399.885	196
400.348	203
400.81	205
401.273	209
401.736	215
402.198	227
402.661	235
403.124	226
403.587	240
404.049	245
404.512	250
404.975	249
405.438	254
405.901	259
406.364	260
406.827	263
407.29	255
407.754	263
408.217	267
408.68	267
409.143	273
409.607	284
410.07	285
410.533	278
410.997	287
411.46	289
411.924	300
412.387	301
412.851	306
413.314	320
413.778	317
414.242	322
414.705	338
415.169	333
415.633	335
416.097	333
416.561	339
417.024	351
417.488	341
417.952	351
418.416	340
418.88	345
419.344	346
419.809	358
420.273	364
420.737	357
421.201	374
421.665	378
422.13	384
422.594	397
423.059	406
423.523	410
423.987	412
424.452	420
424.916	435
425.381	444
425.846	448
426.31	458
426.775	463
427.24	471
427.704	463
428.169	472
428.634	473
429.099	471
429.564	470
430.029	475
430.494	475
430.959	482
431.424	480
431.889	499
432.354	507
432.819	501
433.284	523
433.75	529
434.215	553
434.68	550
435.146	559
435.611	579
436.077	597
436.542	599
437.008	622
437.473	625
437.939	631
438.404	652
438.87	665
439.336	648
439.801	641
440.267	660
440.733	675
441.199	682
441.665	687
442.131	704
442.596	685
443.062	712
443.529	749
443.995	757
444.461	768
444.927	811
445.393	818
445.859	848
446.325	862
446.792	911
447.258	914
447.724	941
448.191	975
448.657	976
449.124	1007
449.59	995
450.057	1060
450.523	1061
450.99	1078
451.457	1071
451.923	1101
452.39	1087
452.857	1120
453.324	1115
453.791	1131
454.257	1128
454.724	1142
455.191	1153
455.658	1154
456.125	1198
456.592	1172
457.059	1193
457.527	1217
457.994	1249
458.461	1256
458.928	1278
459.396	1276
459.863	1321
460.33	1301
460.798	1304
461.265	1334
461.732	1318
462.2	1362
462.668	1350
463.135	1373
463.603	1321
464.07	1366
464.538	1329
465.006	1368
465.474	1350
465.941	1355
466.409	1379
466.877	1341
467.345	1377
467.813	1367
468.281	1382
468.749	1403
469.217	1400
469.685	1417
470.153	1460
470.621	1460
471.09	1461
471.558	1534
472.026	1534
472.494	1578
472.963	1599
473.431	1641
473.9	1672
474.368	1714
474.837	1741
475.305	1753
475.774	1789
476.242	1830
476.711	1835
477.18	1891
477.648	1879
478.117	1891
478.586	1877
479.055	1893
479.524	1901
479.993	1899
480.462	1899
480.93	1914
481.399	1909
481.869	1923
482.338	1909
482.807	1943
483.276	1925
483.745	1924
484.214	1987
484.684	2021
485.153	2032
485.622	2057
486.092	2115
486.561	2082
487.031	2161
487.5	2199
487.97	2218
488.439	2281
488.909	2352
489.378	2446
489.848	2436
490.318	2476
490.787	2573
491.257	2597
491.727	2604
492.197	2633
492.667	2637
493.137	2680
493.607	2714
494.077	2729
494.547	2699
495.017	2685
495.487	2733
495.957	2789
496.427	2726
496.897	2720
497.368	2767
497.838	2749
498.308	2784
498.779	2830
499.249	2845
499.719	2886
500.19	2904
500.66	2924
501.131	2946
501.602	2995
502.072	2994
502.543	3048
503.014	3168
503.484	3148
503.955	3239
504.426	3363
504.897	3366
505.368	3443
505.838	3528
506.309	3622
506.78	3721
507.251	3777
507.722	3876
508.194	3950
508.665	4002
509.136	3998
509.607	4123
510.078	4141
510.549	4149
511.021	4258
511.492	4290
511.964	4340
512.435	4403
512.906	4366
513.378	4400
513.849	4476
514.321	4497
514.793	4555
515.264	4624
515.736	4646
516.208	4750
516.679	4798
517.151	4819
517.623	4852
518.095	4949
518.567	4985
519.038	5080
519.51	5052
519.982	5112
520.454	5180
520.927	5259
521.399	5368
521.871	5425
522.343	5440
522.815	5456
523.287	5449
523.76	5504
524.232	5589
524.704	5630
525.177	5540
525.649	5572
526.122	5618
526.594	5481
527.067	5633
527.539	5737
528.012	5678
528.484	5656
528.957	5682
529.43	5682
529.903	5637
530.375	5832
530.848	5717
531.321	5801
531.794	5794
532.267	5913
532.74	5832
533.213	5804
533.686	5887
534.159	5875
534.632	6021
535.105	6055
535.578	6205
536.051	6217
536.525	6237
536.998	6210
537.471	6361
537.945	6309
538.418	6407
538.891	6402
539.365	6502
539.838	6524
540.312	6496
540.786	6520
541.259	6496
541.733	6625
542.206	6650
542.68	6569
543.154	6583
543.628	6599
544.101	6718
544.575	6588
545.049	6414
545.523	6542
545.997	6525
546.471	6605
546.945	6541
547.419	6657
547.893	6442
548.367	6593
548.842	6516
549.316	6547
549.79	6574
550.264	6519
550.739	6599
551.213	6602
551.687	6598
552.162	6647
552.636	6574
553.111	6586
553.585	6801
554.06	6715
554.534	6828
555.009	6786
555.484	6909
555.958	6990
556.433	6980
556.908	7088
557.383	7005
557.858	7211
558.333	7227
558.807	7183
559.282	7256
559.757	7446
560.232	7423
560.708	7279
561.183	7234
561.658	7335
562.133	7315
562.608	7234
563.083	7409
563.559	7276
564.034	7308
564.509	7305
564.985	7316
565.46	7228
565.936	7362
566.411	7353
566.887	7259
567.362	7368
567.838	7400
568.313	7493
568.789	7315
569.265	7291
569.74	7360
570.216	7281
570.692	7393
571.168	7379
571.644	7417
572.12	7437
572.596	7508
573.071	7538
573.547	7766
574.024	7831
574.5	7865
574.976	7872
575.452	8001
575.928	8113
576.404	8206
576.881	8446
577.357	8263
577.833	8276
578.31	8525
578.786	8582
579.262	8657
579.739	8563
580.215	8777
580.692	8773
581.169	8699
581.645	8755
582.122	9019
582.598	9023
583.075	9026
583.552	9072
584.029	8986
584.506	8880
584.982	8825
585.459	9040
585.936	8934
586.413	9041
586.89	9218
587.367	9138
587.844	9251
588.321	9149
588.799	9169
589.276	9134
589.753	9289
590.23	9322
590.707	9273
591.185	9287
591.662	9305
592.139	9390
592.617	9485
593.094	9444
593.572	9510
594.049	9611
594.527	9702
595.004	9758
595.482	10011
595.96	9953
596.437	9981
596.915	10206
597.393	10033
597.871	10287
598.349	10196
598.826	10375
599.304	10335
599.782	10535
600.26	10457
600.738	10698
601.216	10638
601.694	10680
602.173	10704
602.651	10728
603.129	10552
603.607	10619
604.085	10672
604.564	10697
605.042	10779
605.52	10696
605.999	10943
606.477	10641
606.956	10663
607.434	10804
607.913	10945
608.391	10894
608.87	10841
609.348	10672
609.827	10690
610.306	10788
610.785	10833
611.263	10790
611.742	10701
612.221	10564
612.7	10708
613.179	10777
613.658	10653
614.137	10816
614.616	10897
615.095	10728
615.574	10870
616.053	10952
616.532	10858
617.011	10869
617.491	10983
617.97	10951
618.449	11090
618.928	11134
619.408	11043
619.887	11167
620.367	11186
620.846	11303
621.326	11227
621.805	11474
622.285	11473
622.764	11532
623.244	11524
623.724	11615
624.203	11659
624.683	11482
625.163	11688
625.643	11662
626.123	11555
626.602	11794
627.082	11554
627.562	11529
628.042	11744
628.522	11620
629.002	11539
629.482	11617
629.963	11652
630.443	11589
630.923	11588
631.403	11656
631.883	11605
632.364	11617
632.844	11518
633.324	11601
633.805	11670
634.285	11520
634.766	11427
635.246	11443
635.727	11436
636.207	11402
636.688	11407
637.168	11391
637.649	11338
638.13	11305
638.611	11377
639.091	11357
639.572	11302
640.053	11262
640.534	11326
641.015	11263
641.496	11122
641.977	11309
642.458	11230
642.939	11295
643.42	11327
643.901	11313
644.382	11400
644.863	11350
645.345	11276
645.826	11281
646.307	11269
646.788	11451
647.27	11267
647.751	11270
648.233	11343
648.714	11085
649.196	11386
649.677	11338
650.159	11337
650.64	11213
651.122	11405
651.603	11248
652.085	11361
652.567	11436
653.049	11342
653.53	11324
654.012	11473
654.494	11284
654.976	11439
655.458	11397
655.94	11349
656.422	11521
656.904	11354
657.386	11239
657.868	11249
658.35	11196
658.833	11287
659.315	11291
659.797	11113
660.279	11034
660.762	11071
661.244	10987
661.726	10840
662.209	10855
662.691	10846
663.174	10685
663.656	10759
664.139	10770
664.621	10631
665.104	10574
665.587	10727
666.069	10784
666.552	10748
667.035	10627
667.517	10644
668	10747
668.483	10739
668.966	10643
669.449	10598
669.932	10604
670.415	10716
670.898	10642
671.381	10661
671.864	10668
672.347	10507
672.83	10510
673.313	10535
673.797	10517
674.28	10735
674.763	10770
675.247	10763
675.73	10673
676.213	10749
676.697	10810
677.18	10825
677.664	10845
678.147	10804
678.631	10867
679.114	10924
679.598	10945
680.082	11056
680.565	11037
681.049	11000
681.533	10973
682.017	11019
682.5	10925
682.984	10974
683.468	10994
683.952	10817
684.436	10986
684.92	10865
685.404	10915
685.888	11017
686.372	10921
686.856	10944
687.341	11052
687.825	10910
688.309	10946
688.793	10979
689.278	10834
689.762	10910
690.246	10833
690.731	10858
691.215	10932
691.7	10681
692.184	10792
692.669	10692
693.153	10704
693.638	10531
694.122	10515
694.607	10635
695.092	10482
695.577	10547
696.061	10326
696.546	10365
697.031	10340
697.516	10452
698.001	10466
698.486	10362
698.971	10411
699.456	10187
699.941	10163
700.426	10190
700.911	10320
701.396	10296
701.881	10340
702.366	10268
702.852	10194
703.337	10242
703.822	10216
704.308	10239
704.793	10326
705.278	10341
705.764	10386
706.249	10330
706.735	10304
707.22	10362
707.706	10219
708.191	10373
708.677	10348
709.163	10188
709.648	10182
710.134	10360
710.62	10261
711.106	10310
711.592	10468
712.077	10431
712.563	10129
713.049	10084
713.535	10299
714.021	10259
714.507	10169
714.993	10036
715.479	10107
715.966	9956
716.452	10019
716.938	10088
717.424	9842
717.91	10019
718.397	9944
718.883	9877
719.369	9900
719.856	9793
720.342	9941
720.829	9824
721.315	9880
721.802	9768
722.288	9791
722.775	9391
723.262	9152
723.748	9504
724.235	9458
724.722	9568
725.208	9385
725.695	9373
726.182	9363
726.669	9255
727.156	9312
727.643	9183
728.13	9141
728.617	9020
729.104	9046
729.591	8976
730.078	9069
730.565	9094
731.052	8980
731.539	9016
732.027	8909
732.514	8765
733.001	8840
733.488	8783
733.976	8785
734.463	8757
734.951	8756
735.438	8833
735.926	8700
736.413	8725
736.901	8645
737.388	8714
737.876	8677
738.364	8646
738.851	8738
739.339	8747
739.827	8832
740.314	8534
740.802	8549
741.29	8528
741.778	8445
742.266	8461
742.754	8468
743.242	8539
743.73	8368
744.218	8340
744.706	8240
745.194	8306
745.682	8271
746.17	8305
746.659	8320
747.147	8113
747.635	8124
748.123	8069
748.612	7947
749.1	7935
749.589	8031
750.077	8016
750.566	8010
751.054	8062
751.543	8087
752.031	7901
752.52	7824
753.008	7651
753.497	7665
753.986	7665
754.474	7637
754.963	7700
755.452	7562
755.941	7502
756.43	7496
756.919	7434
757.408	7364
757.896	7400
758.385	7400
758.875	7311
759.364	7245
759.853	7164
760.342	7040
760.831	7200
761.32	7146
761.809	7062
762.299	7062
762.788	7053
763.277	7006
763.767	6892
764.256	6894
764.745	6812
765.235	6936
765.724	6727
766.214	6801
766.703	6691
767.193	6585
767.683	6579
768.172	6462
768.662	6496
769.152	6470
769.641	6494
770.131	6337
770.621	6420
771.111	6314
771.601	6307
772.09	6277
772.58	6213
773.07	6240
773.56	6268
774.05	6132
774.54	6086
775.031	6058
775.521	6061
776.011	6046
776.501	6066
776.991	5926
777.482	5968
777.972	5810
778.462	5786
778.953	5821
779.443	5778
779.933	5766
780.424	5713
780.914	5760
781.405	5761
781.895	5685
782.386	5655
782.877	5614
783.367	5492
783.858	5454
784.349	5476
784.839	5425
785.33	5464
785.821	5429
786.312	5391
786.803	5424
787.293	5410
787.784	5337
788.275	5248
788.766	5187
789.257	5267
789.748	5135
790.24	5087
790.731	5079
791.222	4978
791.713	4938
792.204	4954
792.696	4832
793.187	4910
793.678	4873
794.169	4722
794.661	4781
795.152	4704
795.644	4656
796.135	4640
796.627	4677
797.118	4587
797.61	4537
798.101	4469
798.593	4532
799.085	4464
799.576	4476
800.068	4403
800.56	4409
801.052	4319
801.544	4311
802.035	4313
802.527	4234
803.019	4180
803.511	4121
804.003	4103
804.495	4125
804.987	4091
805.479	4017
805.971	4037
806.464	4014
806.956	3901
807.448	3881
807.94	3865
808.433	3831
808.925	3823
809.417	3778
809.91	3758
810.402	3646
810.894	3667
811.387	3694
811.879	3631
812.372	3673
812.865	3638
813.357	3644
813.85	3613
814.342	3594
814.835	3583
815.328	3555
815.821	3498
816.313	3487
816.806	3486
817.299	3429
817.792	3435
818.285	3374
818.778	3425
819.271	3425
819.764	3386
820.257	3395
820.75	3386
821.243	3400
821.736	3353
822.229	3363
822.722	3352
823.216	3421
