Data from lamp4bck_noballon_Subt2__76__276.txt Node

Date: Wed Apr 09 11:11:17 CEST 2025
User: fys-lab-0081
Spectrometer: S04999
Trigger mode: 0
Resolution mode: 1024 pixels
Integration Time (sec): 1.000000E-1
Scans to average: 1
Nonlinearity correction enabled: false
Boxcar width: 0
Baseline correction enabled: true
XAxis mode: Wavelengths
Number of Pixels in Spectrum: 1024
>>>>>Begin Spectral Data<<<<<
336.42	8
336.877	4
337.334	6
337.792	6
338.249	6
338.706	7
339.164	10
339.621	10
340.079	8
340.536	8
340.994	7
341.452	12
341.909	11
342.367	7
342.825	5
343.283	13
343.741	12
344.198	8
344.656	4
345.114	7
345.572	15
346.03	9
346.488	8
346.947	10
347.405	8
347.863	12
348.321	10
348.779	15
349.238	11
349.696	17
350.154	12
350.613	13
351.071	16
351.53	21
351.988	17
352.447	14
352.905	10
353.364	15
353.823	17
354.282	16
354.74	12
355.199	20
355.658	21
356.117	17
356.576	15
357.035	14
357.494	18
357.953	18
358.412	24
358.871	18
359.33	26
359.789	24
360.249	19
360.708	23
361.167	26
361.626	25
362.086	25
362.545	27
363.005	30
363.464	31
363.924	34
364.383	33
364.843	29
365.303	36
365.762	37
366.222	38
366.682	36
367.142	40
367.601	36
368.061	35
368.521	38
368.981	39
369.441	41
369.901	38
370.361	40
370.821	42
371.282	43
371.742	43
372.202	41
372.662	50
373.123	47
373.583	45
374.043	51
374.504	49
374.964	50
375.425	55
375.885	56
376.346	60
376.806	63
377.267	54
377.728	59
378.188	64
378.649	63
379.11	65
379.571	58
380.032	73
380.493	67
380.954	78
381.414	71
381.876	76
382.337	78
382.798	82
383.259	84
383.72	88
384.181	84
384.642	91
385.104	92
385.565	96
386.026	107
386.488	110
386.949	109
387.411	112
387.872	114
388.334	120
388.795	123
389.257	124
389.719	125
390.181	129
390.642	128
391.104	130
391.566	136
392.028	146
392.49	154
392.952	152
393.414	154
393.876	159
394.338	155
394.8	159
395.262	159
395.724	175
396.186	169
396.648	175
397.111	178
397.573	187
398.035	181
398.498	185
398.96	188
399.423	191
399.885	198
400.348	198
400.81	207
401.273	210
401.736	209
402.198	229
402.661	229
403.124	228
403.587	243
404.049	245.5
404.512	248
404.975	254
405.438	247
405.901	260
406.364	259
406.827	263
407.29	264
407.754	259
408.217	263
408.68	265
409.143	276
409.607	281
410.07	279
410.533	277
410.997	286
411.46	295
411.924	301
412.387	301
412.851	305
413.314	314
413.778	308
414.242	324
414.705	335
415.169	332
415.633	335
416.097	332
416.561	336
417.024	348
417.488	336
417.952	347
418.416	341
418.88	343
419.344	344
419.809	353
420.273	360
420.737	352
421.201	364
421.665	376
422.13	381
422.594	396
423.059	402
423.523	407
423.987	409
424.452	420
424.916	428
425.381	445
425.846	441
426.31	455
426.775	463
427.24	471
427.704	459
428.169	470
428.634	467
429.099	470
429.564	467
430.029	478
430.494	475
430.959	480
431.424	480
431.889	498
432.354	504
432.819	496
433.284	524
433.75	528
434.215	547
434.68	545
435.146	552
435.611	575
436.077	595
436.542	596
437.008	620
437.473	622
437.939	629
438.404	638
438.87	658
439.336	647
439.801	641
440.267	658
440.733	673
441.199	676
441.665	681
442.131	704
442.596	687
443.062	710
443.529	740
443.995	751
444.461	768
444.927	805
445.393	815
445.859	847
446.325	857
446.792	907
447.258	911
447.724	931
448.191	972
448.657	975
449.124	1000
449.59	983
450.057	1051
450.523	1057
450.99	1079
451.457	1063
451.923	1092
452.39	1084
452.857	1119
453.324	1108
453.791	1123
454.257	1122
454.724	1138
455.191	1151
455.658	1147
456.125	1191
456.592	1167
457.059	1189
457.527	1210
457.994	1245
458.461	1255
458.928	1272
459.396	1266
459.863	1310
460.33	1294
460.798	1297
461.265	1327
461.732	1315
462.2	1362
462.668	1346
463.135	1364
463.603	1317
464.07	1360
464.538	1318
465.006	1360
465.474	1343
465.941	1350
466.409	1366
466.877	1326
467.345	1370
467.813	1362
468.281	1376
468.749	1396
469.217	1387
469.685	1416
470.153	1454
470.621	1450
471.09	1457
471.558	1525
472.026	1527
472.494	1573
472.963	1587
473.431	1633
473.9	1666
474.368	1705
474.837	1727
475.305	1744
475.774	1776
476.242	1821
476.711	1829
477.18	1877
477.648	1869
478.117	1883
478.586	1866
479.055	1880
479.524	1890
479.993	1897
480.462	1891
480.93	1900
481.399	1901
481.869	1918
482.338	1903
482.807	1935
483.276	1913
483.745	1910
484.214	1974
484.684	2011
485.153	2021
485.622	2038
486.092	2111
486.561	2061
487.031	2143
487.5	2183
487.97	2204
488.439	2270
488.909	2337
489.378	2432
489.848	2416
490.318	2461
490.787	2567
491.257	2584
491.727	2593
492.197	2619
492.667	2629
493.137	2662
493.607	2692
494.077	2712
494.547	2679
495.017	2678
495.487	2711
495.957	2770
496.427	2719
496.897	2704
497.368	2752
497.838	2731
498.308	2769
498.779	2819
499.249	2831
499.719	2868
500.19	2897
500.66	2908
501.131	2930
501.602	2985
502.072	2984
502.543	3038
503.014	3144
503.484	3133
503.955	3231
504.426	3349
504.897	3365
505.368	3431
505.838	3512
506.309	3609
506.78	3696
507.251	3752
507.722	3845
508.194	3936
508.665	3979
509.136	3981
509.607	4107
510.078	4120
510.549	4142
511.021	4238
511.492	4266
511.964	4317
512.435	4385
512.906	4360
513.378	4385
513.849	4458
514.321	4473
514.793	4529
515.264	4602
515.736	4630
516.208	4725
516.679	4773
517.151	4805
517.623	4827
518.095	4917
518.567	4962
519.038	5044
519.51	5033
519.982	5083
520.454	5152
520.927	5234
521.399	5329
521.871	5398
522.343	5409
522.815	5439
523.287	5431
523.76	5481
524.232	5565
524.704	5589
525.177	5512
525.649	5536
526.122	5601
526.594	5460
527.067	5616
527.539	5708
528.012	5655
528.484	5631
528.957	5656
529.43	5659
529.903	5612
530.375	5806
530.848	5689
531.321	5781
531.794	5770
532.267	5902
532.74	5808
533.213	5770
533.686	5868
534.159	5847
534.632	5998
535.105	6027
535.578	6179
536.051	6185
536.525	6206
536.998	6178
537.471	6332
537.945	6280
538.418	6389
538.891	6392
539.365	6474
539.838	6499
540.312	6470
540.786	6496
541.259	6463
541.733	6590
542.206	6619
542.68	6538
543.154	6567
543.628	6570
544.101	6685
544.575	6566
545.049	6391
545.523	6489
545.997	6497
546.471	6572
546.945	6514
547.419	6622
547.893	6408
548.367	6555
548.842	6484
549.316	6519
549.79	6548
550.264	6486
550.739	6579
551.213	6573
551.687	6574
552.162	6615
552.636	6544
553.111	6557
553.585	6771
554.06	6689
554.534	6815
555.009	6770
555.484	6870
555.958	6970
556.433	6955
556.908	7051
557.383	6988
557.858	7186
558.333	7197
558.807	7160
559.282	7221
559.757	7425
560.232	7391
560.708	7257
561.183	7200
561.658	7305
562.133	7291
562.608	7204
563.083	7376
563.559	7244
564.034	7280
564.509	7266
564.985	7287
565.46	7184
565.936	7339
566.411	7308
566.887	7245
567.362	7338
567.838	7376
568.313	7452
568.789	7284
569.265	7262
569.74	7321
570.216	7255
570.692	7352
571.168	7358
571.644	7383
572.12	7407
572.596	7476
573.071	7508
573.547	7742
574.024	7807
574.5	7839
574.976	7839
575.452	7959
575.928	8077
576.404	8163
576.881	8415
577.357	8231
577.833	8261
578.31	8483
578.786	8548
579.262	8639
579.739	8518
580.215	8751
580.692	8731
581.169	8683
581.645	8719
582.122	8979
582.598	8975
583.075	8985
583.552	9014
584.029	8948
584.506	8850
584.982	8781
585.459	9013
585.936	8900
586.413	9014
586.89	9192
587.367	9099
587.844	9224
588.321	9119
588.799	9145
589.276	9105
589.753	9257
590.23	9292
590.707	9244
591.185	9260
591.662	9283
592.139	9349
592.617	9459
593.094	9403
593.572	9475
594.049	9568
594.527	9671
595.004	9724
595.482	9985
595.96	9925
596.437	9928
596.915	10167
597.393	10012
597.871	10248
598.349	10151
598.826	10333
599.304	10298
599.782	10475
600.26	10414
600.738	10651
601.216	10596
601.694	10640
602.173	10672
602.651	10709
603.129	10508
603.607	10572
604.085	10637
604.564	10677
605.042	10745
605.52	10662
605.999	10897
606.477	10618
606.956	10635
607.434	10769.5
607.913	10904
608.391	10866
608.87	10804
609.348	10628
609.827	10656
610.306	10749
610.785	10791
611.263	10757
611.742	10663
612.221	10520
612.7	10670
613.179	10745
613.658	10620
614.137	10787
614.616	10867
615.095	10687
615.574	10828
616.053	10910
616.532	10811
617.011	10854
617.491	10945
617.97	10916
618.449	11055
618.928	11101
619.408	10986
619.887	11126
620.367	11164
620.846	11260
621.326	11178
621.805	11435
622.285	11416
622.764	11501
623.244	11495
623.724	11565
624.203	11617
624.683	11448
625.163	11658
625.643	11610
626.123	11509
626.602	11747
627.082	11513
627.562	11482
628.042	11712
628.522	11581
629.002	11495
629.482	11589
629.963	11628
630.443	11535
630.923	11568
631.403	11611
631.883	11564
632.364	11594
632.844	11487
633.324	11568
633.805	11631
634.285	11480
634.766	11385
635.246	11397
635.727	11391
636.207	11370
636.688	11359
637.168	11351
637.649	11298
638.13	11268
638.611	11356
639.091	11317
639.572	11265
640.053	11222
640.534	11295
641.015	11226
641.496	11088
641.977	11279
642.458	11179
642.939	11264
643.42	11304
643.901	11267
644.382	11364
644.863	11298
645.345	11245
645.826	11242
646.307	11225
646.788	11414
647.27	11221
647.751	11236
648.233	11307
648.714	11064
649.196	11354
649.677	11312
650.159	11298
650.64	11183
651.122	11380
651.603	11216
652.085	11317
652.567	11394
653.049	11309
653.53	11295
654.012	11437
654.494	11245
654.976	11394
655.458	11354
655.94	11318
656.422	11493
656.904	11314
657.386	11201
657.868	11222
658.35	11149
658.833	11252
659.315	11258
659.797	11071
660.279	11003
660.762	11045
661.244	10935
661.726	10814
662.209	10820
662.691	10816
663.174	10645
663.656	10731
664.139	10733
664.621	10595
665.104	10544
665.587	10678
666.069	10751
666.552	10719
667.035	10577
667.517	10616
668	10708
668.483	10700
668.966	10597
669.449	10557
669.932	10557
670.415	10680
670.898	10596
671.381	10633
671.864	10627
672.347	10465
672.83	10480
673.313	10505
673.797	10473
674.28	10697
674.763	10737
675.247	10740
675.73	10637
676.213	10726
676.697	10773
677.18	10785
677.664	10814
678.147	10781
678.631	10835
679.114	10898
679.598	10917
680.082	11017
680.565	11017
681.049	10960
681.533	10946
682.017	10976
682.5	10903
682.984	10946
683.468	10955
683.952	10773
684.436	10950
684.92	10832
685.404	10882
685.888	10981
686.372	10881
686.856	10913
687.341	11012
687.825	10875
688.309	10912
688.793	10940
689.278	10806
689.762	10879
690.246	10798
690.731	10822
691.215	10901
691.7	10644
692.184	10767
692.669	10659
693.153	10673
693.638	10515
694.122	10489
694.607	10599
695.092	10450
695.577	10515
696.061	10295
696.546	10329
697.031	10326
697.516	10420
698.001	10436
698.486	10334
698.971	10382
699.456	10146
699.941	10134
700.426	10143
700.911	10281
701.396	10265
701.881	10317
702.366	10228
702.852	10168
703.337	10210
703.822	10189
704.308	10213
704.793	10277
705.278	10304
705.764	10339
706.249	10294
706.735	10266
707.22	10334
707.706	10195
708.191	10336
708.677	10312
709.163	10157
709.648	10155
710.134	10329
710.62	10236
711.106	10288
711.592	10427
712.077	10387
712.563	10100
713.049	10062
713.535	10274
714.021	10233
714.507	10158
714.993	10008
715.479	10056
715.966	9927
716.452	9971
716.938	10053
717.424	9802
717.91	10001
718.397	9913
718.883	9854
719.369	9876
719.856	9757
720.342	9915
720.829	9800
721.315	9847
721.802	9743
722.288	9768
722.775	9374
723.262	9120
723.748	9481
724.235	9435
724.722	9549
725.208	9360
725.695	9350
726.182	9323
726.669	9230
727.156	9279
727.643	9161
728.13	9111
728.617	9004
729.104	9019
729.591	8951
730.078	9046
730.565	9072
731.052	8950
731.539	8971
732.027	8888
732.514	8730
733.001	8799
733.488	8757
733.976	8753
734.463	8725
734.951	8737
735.438	8808
735.926	8671
736.413	8710
736.901	8626
737.388	8684
737.876	8660
738.364	8635
738.851	8703
739.339	8724
739.827	8806
740.314	8512
740.802	8525
741.29	8501
741.778	8422
742.266	8433
742.754	8436
743.242	8509
743.73	8343
744.218	8316
744.706	8206
745.194	8302
745.682	8251
746.17	8268
746.659	8312
747.147	8084
747.635	8101
748.123	8042
748.612	7926
749.1	7909
749.589	8007
750.077	7976
750.566	7976
751.054	8034
751.543	8076
752.031	7886
752.52	7807
753.008	7624
753.497	7649
753.986	7634
754.474	7622
754.963	7680
755.452	7533
755.941	7489
756.43	7476
756.919	7420
757.408	7356
757.896	7378
758.385	7387
758.875	7291
759.364	7225
759.853	7142
760.342	7027
760.831	7186
761.32	7114
761.809	7031
762.299	7032
762.788	7029
763.277	6983
763.767	6871
764.256	6868
764.745	6797
765.235	6926
765.724	6720
766.214	6791
766.703	6664
767.193	6563
767.683	6568
768.172	6450
768.662	6482
769.152	6450
769.641	6472
770.131	6309
770.621	6396
771.111	6291
771.601	6289
772.09	6258
772.58	6200
773.07	6218
773.56	6252
774.05	6113
774.54	6067
775.031	6043
775.521	6031
776.011	6030
776.501	6053
776.991	5909
777.482	5948
777.972	5786
778.462	5779
778.953	5793
779.443	5751
779.933	5748
780.424	5691
780.914	5743
781.405	5733
781.895	5669
782.386	5642
782.877	5590
783.367	5490
783.858	5443
784.349	5441
784.839	5418
785.33	5459
785.821	5426
786.312	5383
786.803	5406
787.293	5404
787.784	5314
788.275	5235
788.766	5180
789.257	5255
789.748	5122
790.24	5058
790.731	5070
791.222	4963
791.713	4930
792.204	4945
792.696	4812
793.187	4899
793.678	4874
794.169	4708
794.661	4771
795.152	4690
795.644	4638
796.135	4625
796.627	4663
797.118	4576
797.61	4523
798.101	4464
798.593	4517
799.085	4449
799.576	4475
800.068	4388
800.56	4397
801.052	4297
801.544	4301
802.035	4305
802.527	4236
803.019	4160
803.511	4116
804.003	4084
804.495	4120
804.987	4079
805.479	4000
805.971	4023
806.464	4006
806.956	3890
807.448	3856
807.94	3862
808.433	3831
808.925	3815
809.417	3779
809.91	3750
810.402	3641
810.894	3660
811.387	3684
811.879	3633
812.372	3668
812.865	3639
813.357	3630
813.85	3614
814.342	3580
814.835	3578
815.328	3555
815.821	3487
816.313	3479
816.806	3472
817.299	3415
817.792	3435
818.285	3378
818.778	3412
819.271	3410
819.764	3376
820.257	3393
820.75	3384
821.243	3386
821.736	3335
822.229	3356
822.722	3339
823.216	3400
