Data from lamp4bck_noballon_Subt2__71__271.txt Node

Date: Wed Apr 09 11:11:16 CEST 2025
User: fys-lab-0081
Spectrometer: S04999
Trigger mode: 0
Resolution mode: 1024 pixels
Integration Time (sec): 1.000000E-1
Scans to average: 1
Nonlinearity correction enabled: false
Boxcar width: 0
Baseline correction enabled: true
XAxis mode: Wavelengths
Number of Pixels in Spectrum: 1024
>>>>>Begin Spectral Data<<<<<
336.42	5
336.877	6
337.334	9
337.792	4
338.249	10
338.706	8
339.164	8
339.621	6
340.079	10
340.536	9
340.994	7
341.452	11
341.909	9
342.367	6
342.825	6
343.283	9
343.741	9
344.198	8
344.656	11
345.114	9
345.572	13
346.03	9
346.488	10
346.947	12
347.405	11
347.863	10
348.321	8
348.779	16
349.238	7
349.696	14
350.154	10
350.613	11
351.071	13
351.53	13
351.988	15
352.447	15
352.905	11
353.364	14
353.823	18
354.282	18
354.74	15
355.199	13
355.658	19
356.117	17
356.576	20
357.035	17
357.494	18
357.953	19
358.412	26
358.871	23
359.33	23
359.789	20
360.249	26
360.708	23
361.167	27
361.626	25
362.086	21
362.545	27
363.005	26
363.464	30
363.924	29
364.383	28
364.843	33
365.303	38
365.762	37
366.222	34
366.682	35
367.142	37
367.601	39
368.061	37
368.521	36
368.981	35
369.441	44
369.901	42
370.361	41
370.821	41
371.282	45
371.742	44
372.202	48
372.662	48
373.123	47
373.583	50
374.043	50
374.504	51
374.964	48
375.425	53
375.885	54
376.346	59
376.806	60
377.267	57
377.728	64
378.188	64
378.649	61
379.11	64
379.571	59
380.032	71
380.493	67
380.954	73
381.414	71
381.876	75
382.337	78
382.798	81
383.259	86
383.72	89
384.181	89
384.642	95
385.104	99
385.565	101
386.026	109
386.488	111
386.949	110
387.411	110
387.872	118
388.334	116
388.795	123
389.257	124
389.719	127
390.181	130
390.642	129
391.104	135
391.566	140
392.028	146
392.49	155
392.952	152
393.414	157
393.876	159
394.338	162
394.8	160
395.262	159
395.724	178
396.186	172
396.648	174
397.111	176
397.573	185
398.035	179
398.498	187
398.96	190
399.423	192
399.885	197
400.348	200
400.81	207
401.273	211
401.736	212
402.198	229
402.661	231
403.124	230
403.587	240
404.049	244.5
404.512	249
404.975	248
405.438	252
405.901	262
406.364	260
406.827	257
407.29	265
407.754	262
408.217	261
408.68	268
409.143	273
409.607	282
410.07	280
410.533	282
410.997	291
411.46	291
411.924	304
412.387	303
412.851	310
413.314	312
413.778	318
414.242	326
414.705	339
415.169	329
415.633	338
416.097	335
416.561	343
417.024	351
417.488	338
417.952	349
418.416	346
418.88	343
419.344	345
419.809	353
420.273	364
420.737	358
421.201	376
421.665	383
422.13	380
422.594	400
423.059	402
423.523	410
423.987	409
424.452	428
424.916	432
425.381	447
425.846	449
426.31	461
426.775	465
427.24	476
427.704	465
428.169	473
428.634	476
429.099	476
429.564	473
430.029	484
430.494	483
430.959	485
431.424	476
431.889	497
432.354	512
432.819	500
433.284	534
433.75	525
434.215	553
434.68	550
435.146	558
435.611	574
436.077	599
436.542	604
437.008	627
437.473	624
437.939	630
438.404	646
438.87	663
439.336	652
439.801	638
440.267	665
440.733	681
441.199	681
441.665	686
442.131	712
442.596	691
443.062	721
443.529	751
443.995	756
444.461	773
444.927	807
445.393	818
445.859	851
446.325	865
446.792	912
447.258	912
447.724	944
448.191	977
448.657	986
449.124	1009
449.59	994
450.057	1062
450.523	1065
450.99	1086
451.457	1069
451.923	1107
452.39	1090
452.857	1123
453.324	1118
453.791	1137
454.257	1129
454.724	1147
455.191	1153
455.658	1154
456.125	1196
456.592	1176
457.059	1195
457.527	1215
457.994	1253
458.461	1261
458.928	1282
459.396	1277
459.863	1318
460.33	1305
460.798	1311
461.265	1336
461.732	1324
462.2	1364
462.668	1359
463.135	1378
463.603	1325
464.07	1375
464.538	1333
465.006	1377
465.474	1355
465.941	1362
466.409	1378
466.877	1341
467.345	1379
467.813	1367
468.281	1386
468.749	1411
469.217	1400
469.685	1424
470.153	1465
470.621	1461
471.09	1465
471.558	1536
472.026	1535
472.494	1584
472.963	1603
473.431	1648
473.9	1679
474.368	1716
474.837	1742
475.305	1758
475.774	1792
476.242	1833
476.711	1843
477.18	1892
477.648	1880
478.117	1889
478.586	1884
479.055	1894
479.524	1911
479.993	1908
480.462	1904
480.93	1907
481.399	1909
481.869	1927
482.338	1913
482.807	1945
483.276	1935
483.745	1931
484.214	1991
484.684	2024
485.153	2035
485.622	2065
486.092	2121
486.561	2081
487.031	2165
487.5	2201
487.97	2222
488.439	2288
488.909	2364
489.378	2446
489.848	2432
490.318	2476
490.787	2575
491.257	2601
491.727	2614
492.197	2643
492.667	2646
493.137	2679
493.607	2716
494.077	2734
494.547	2705
495.017	2697
495.487	2729
495.957	2797
496.427	2734
496.897	2731
497.368	2777
497.838	2753
498.308	2785
498.779	2833
499.249	2853
499.719	2894
500.19	2914
500.66	2932
501.131	2958
501.602	3017
502.072	3001
502.543	3046
503.014	3168
503.484	3155
503.955	3252
504.426	3371
504.897	3382
505.368	3448
505.838	3550
506.309	3633
506.78	3718
507.251	3773
507.722	3874
508.194	3974
508.665	4015
509.136	4005
509.607	4133
510.078	4147
510.549	4170
511.021	4277
511.492	4291
511.964	4356
512.435	4419
512.906	4382
513.378	4410
513.849	4494
514.321	4506
514.793	4567
515.264	4619
515.736	4669
516.208	4760
516.679	4810
517.151	4831
517.623	4869
518.095	4959
518.567	4993
519.038	5081
519.51	5061
519.982	5117
520.454	5182
520.927	5276
521.399	5370
521.871	5440
522.343	5442
522.815	5476
523.287	5467
523.76	5518
524.232	5607
524.704	5649
525.177	5547
525.649	5580
526.122	5628
526.594	5499
527.067	5641
527.539	5738
528.012	5694
528.484	5676
528.957	5704
529.43	5695
529.903	5653
530.375	5845
530.848	5737
531.321	5817
531.794	5805
532.267	5925
532.74	5843
533.213	5810
533.686	5903
534.159	5886
534.632	6029
535.105	6071
535.578	6205
536.051	6225
536.525	6242
536.998	6230
537.471	6383
537.945	6334
538.418	6410
538.891	6424
539.365	6508
539.838	6532
540.312	6518
540.786	6534
541.259	6511
541.733	6641
542.206	6660
542.68	6582
543.154	6608
543.628	6612
544.101	6718
544.575	6605
545.049	6425
545.523	6545
545.997	6543
546.471	6613
546.945	6549
547.419	6672
547.893	6455
548.367	6610
548.842	6526
549.316	6554
549.79	6586
550.264	6533
550.739	6615
551.213	6614
551.687	6603
552.162	6663
552.636	6591
553.111	6593
553.585	6807
554.06	6729
554.534	6845
555.009	6808
555.484	6910
555.958	7004
556.433	6995
556.908	7089
557.383	7028
557.858	7231
558.333	7240
558.807	7210
559.282	7277
559.757	7473
560.232	7446
560.708	7306
561.183	7244
561.658	7339
562.133	7325
562.608	7262
563.083	7431
563.559	7298
564.034	7331
564.509	7331
564.985	7332
565.46	7251
565.936	7385
566.411	7347
566.887	7284
567.362	7388
567.838	7421
568.313	7494
568.789	7324
569.265	7288
569.74	7359
570.216	7296
570.692	7405
571.168	7395
571.644	7433
572.12	7459
572.596	7520
573.071	7551
573.547	7786
574.024	7852
574.5	7889
574.976	7894
575.452	8007
575.928	8128
576.404	8224
576.881	8460
577.357	8275
577.833	8308
578.31	8538
578.786	8604
579.262	8687
579.739	8567
580.215	8791
580.692	8787
581.169	8718
581.645	8759
582.122	9025
582.598	9049
583.075	9054
583.552	9085
584.029	9001
584.506	8901
584.982	8845
585.459	9056
585.936	8954
586.413	9057
586.89	9235
587.367	9158
587.844	9281
588.321	9176
588.799	9205
589.276	9143
589.753	9313
590.23	9341
590.707	9299
591.185	9301
591.662	9338
592.139	9403
592.617	9510
593.094	9453
593.572	9531
594.049	9622
594.527	9728
595.004	9792
595.482	10044
595.96	9977
596.437	9972
596.915	10228
597.393	10063
597.871	10316
598.349	10205
598.826	10392
599.304	10344
599.782	10545
600.26	10485
600.738	10713
601.216	10656
601.694	10701
602.173	10735
602.651	10765
603.129	10577
603.607	10640
604.085	10688
604.564	10737
605.042	10803
605.52	10715
605.999	10964
606.477	10667
606.956	10688
607.434	10834.5
607.913	10981
608.391	10922
608.87	10874
609.348	10692
609.827	10720
610.306	10809
610.785	10836
611.263	10810
611.742	10721
612.221	10586
612.7	10737
613.179	10789
613.658	10683
614.137	10862
614.616	10939
615.095	10735
615.574	10881
616.053	10971
616.532	10881
617.011	10915
617.491	11005
617.97	10976
618.449	11107
618.928	11168
619.408	11060
619.887	11182
620.367	11209
620.846	11318
621.326	11255
621.805	11491
622.285	11489
622.764	11545
623.244	11549
623.724	11643
624.203	11686
624.683	11507
625.163	11709
625.643	11686
626.123	11573
626.602	11818
627.082	11569
627.562	11539
628.042	11764
628.522	11647
629.002	11543
629.482	11643
629.963	11685
630.443	11613
630.923	11619
631.403	11674
631.883	11615
632.364	11650
632.844	11550
633.324	11613
633.805	11686
634.285	11552
634.766	11446
635.246	11469
635.727	11454
636.207	11433
636.688	11426
637.168	11414
637.649	11362
638.13	11327
638.611	11413
639.091	11373
639.572	11333
640.053	11279
640.534	11345
641.015	11292
641.496	11143
641.977	11325
642.458	11226
642.939	11313
643.42	11351
643.901	11328
644.382	11426
644.863	11353
645.345	11302
645.826	11296
646.307	11301
646.788	11475
647.27	11291
647.751	11289
648.233	11371
648.714	11118
649.196	11420
649.677	11360
650.159	11358
650.64	11225
651.122	11429
651.603	11267
652.085	11385
652.567	11451
653.049	11361
653.53	11355
654.012	11493
654.494	11306
654.976	11461
655.458	11407
655.94	11377
656.422	11549
656.904	11375
657.386	11281
657.868	11273
658.35	11199
658.833	11298
659.315	11326
659.797	11135
660.279	11063
660.762	11087
661.244	10999
661.726	10870
662.209	10870
662.691	10863
663.174	10693
663.656	10775
664.139	10787
664.621	10660
665.104	10580
665.587	10737
666.069	10799
666.552	10773
667.035	10644
667.517	10666
668	10769
668.483	10755
668.966	10658
669.449	10621
669.932	10627
670.415	10726
670.898	10658
671.381	10673
671.864	10689
672.347	10527
672.83	10537
673.313	10546
673.797	10530
674.28	10758
674.763	10785
675.247	10786
675.73	10683
676.213	10769
676.697	10828
677.18	10841
677.664	10869
678.147	10827
678.631	10891
679.114	10951
679.598	10960
680.082	11070
680.565	11065
681.049	11016
681.533	10999
682.017	11030
682.5	10942
682.984	11003
683.468	11020
683.952	10828
684.436	11018
684.92	10873
685.404	10953
685.888	11036
686.372	10939
686.856	10960
687.341	11064
687.825	10919
688.309	10968
688.793	10996
689.278	10857
689.762	10941
690.246	10856
690.731	10883
691.215	10942
691.7	10707
692.184	10812
692.669	10718
693.153	10741
693.638	10548
694.122	10541
694.607	10649
695.092	10498
695.577	10566
696.061	10357
696.546	10387
697.031	10363
697.516	10473
698.001	10479
698.486	10385
698.971	10427
699.456	10202
699.941	10176
700.426	10206
700.911	10350
701.396	10317
701.881	10365
702.366	10276
702.852	10214
703.337	10261
703.822	10236
704.308	10262
704.793	10342
705.278	10351
705.764	10390
706.249	10335
706.735	10324
707.22	10381
707.706	10244
708.191	10390
708.677	10352
709.163	10190
709.648	10203
710.134	10378
710.62	10281
711.106	10338
711.592	10499
712.077	10443
712.563	10140
713.049	10106
713.535	10339
714.021	10271
714.507	10209
714.993	10060
715.479	10108
715.966	9986
716.452	10022
716.938	10102
717.424	9844
717.91	10051
718.397	9965
718.883	9900
719.369	9923
719.856	9813
720.342	9961
720.829	9854
721.315	9897
721.802	9786
722.288	9816
722.775	9429
723.262	9170
723.748	9523
724.235	9479
724.722	9593
725.208	9397
725.695	9388
726.182	9376
726.669	9278
727.156	9313
727.643	9191
728.13	9171
728.617	9047
729.104	9064
729.591	9002
730.078	9091
730.565	9120
731.052	8995
731.539	9018
732.027	8918
732.514	8780
733.001	8851
733.488	8785
733.976	8801
734.463	8776
734.951	8776
735.438	8847
735.926	8708
736.413	8739
736.901	8663
737.388	8732
737.876	8704
738.364	8674
738.851	8750
739.339	8768
739.827	8849
740.314	8557
740.802	8563
741.29	8533
741.778	8453
742.266	8485
742.754	8491
743.242	8543
743.73	8392
744.218	8364
744.706	8248
745.194	8329
745.682	8291
746.17	8313
746.659	8328
747.147	8121
747.635	8128
748.123	8083
748.612	7971
749.1	7939
749.589	8040
750.077	8027
750.566	8019
751.054	8078
751.543	8111
752.031	7929
752.52	7836
753.008	7664
753.497	7689
753.986	7666
754.474	7652
754.963	7718
755.452	7581
755.941	7522
756.43	7509
756.919	7457
757.408	7383
757.896	7409
758.385	7424
758.875	7329
759.364	7255
759.853	7176
760.342	7058
760.831	7223
761.32	7147
761.809	7063
762.299	7076
762.788	7059
763.277	7020
763.767	6902
764.256	6898
764.745	6827
765.235	6946
765.724	6753
766.214	6820
766.703	6704
767.193	6607
767.683	6599
768.172	6469
768.662	6501
769.152	6483
769.641	6504
770.131	6351
770.621	6431
771.111	6323
771.601	6324
772.09	6287
772.58	6240
773.07	6247
773.56	6286
774.05	6138
774.54	6089
775.031	6079
775.521	6071
776.011	6052
776.501	6067
776.991	5936
777.482	5981
777.972	5819
778.462	5803
778.953	5821
779.443	5780
779.933	5781
780.424	5720
780.914	5769
781.405	5769
781.895	5693
782.386	5668
782.877	5629
783.367	5515
783.858	5465
784.349	5468
784.839	5434
785.33	5466
785.821	5451
786.312	5407
786.803	5432
787.293	5420
787.784	5335
788.275	5257
788.766	5207
789.257	5277
789.748	5145
790.24	5081
790.731	5089
791.222	4989
791.713	4951
792.204	4959
792.696	4838
793.187	4924
793.678	4885
794.169	4739
794.661	4795
795.152	4721
795.644	4664
796.135	4650
796.627	4684
797.118	4596
797.61	4545
798.101	4481
798.593	4536
799.085	4471
799.576	4490
800.068	4407
800.56	4421
801.052	4317
801.544	4326
802.035	4329
802.527	4250
803.019	4184
803.511	4126
804.003	4103
804.495	4135
804.987	4103
805.479	4024
805.971	4035
806.464	4024
806.956	3901
807.448	3880
807.94	3874
808.433	3846
808.925	3833
809.417	3784
809.91	3760
810.402	3656
810.894	3676
811.387	3702
811.879	3637
812.372	3680
812.865	3649
813.357	3656
813.85	3629
814.342	3597
814.835	3598
815.328	3566
815.821	3502
816.313	3501
816.806	3493
817.299	3428
817.792	3450
818.285	3387
818.778	3437
819.271	3434
819.764	3387
820.257	3406
820.75	3402
821.243	3405
821.736	3355
822.229	3379
822.722	3363
823.216	3418
