Data from lamp4bck_noballon_Subt2__16__216.txt Node

Date: Wed Apr 09 11:11:09 CEST 2025
User: fys-lab-0081
Spectrometer: S04999
Trigger mode: 0
Resolution mode: 1024 pixels
Integration Time (sec): 1.000000E-1
Scans to average: 1
Nonlinearity correction enabled: false
Boxcar width: 0
Baseline correction enabled: true
XAxis mode: Wavelengths
Number of Pixels in Spectrum: 1024
>>>>>Begin Spectral Data<<<<<
336.42	6
336.877	8
337.334	11
337.792	7
338.249	7
338.706	4
339.164	8
339.621	10
340.079	9
340.536	4
340.994	8
341.452	7
341.909	11
342.367	6
342.825	3
343.283	7
343.741	8
344.198	8
344.656	11
345.114	7
345.572	12
346.03	11
346.488	11
346.947	7
347.405	12
347.863	9
348.321	10
348.779	14
349.238	11
349.696	15
350.154	9
350.613	10
351.071	16
351.53	22
351.988	19
352.447	17
352.905	11
353.364	14
353.823	17
354.282	18
354.74	13
355.199	20
355.658	21
356.117	19
356.576	19
357.035	16
357.494	20
357.953	17
358.412	24
358.871	22
359.33	23
359.789	19
360.249	23
360.708	27
361.167	28
361.626	26
362.086	23
362.545	27
363.005	31
363.464	31
363.924	33
364.383	30
364.843	36
365.303	37
365.762	41
366.222	36
366.682	30
367.142	35
367.601	38
368.061	33
368.521	42
368.981	37
369.441	44
369.901	43
370.361	38
370.821	42
371.282	45
371.742	44
372.202	44
372.662	48
373.123	43
373.583	48
374.043	53
374.504	52
374.964	51
375.425	54
375.885	54
376.346	56
376.806	60
377.267	57
377.728	64
378.188	65
378.649	59
379.11	70
379.571	67
380.032	68
380.493	70
380.954	75
381.414	75
381.876	78
382.337	80
382.798	83
383.259	87
383.72	87
384.181	86
384.642	95
385.104	99
385.565	102
386.026	107
386.488	109
386.949	108
387.411	114
387.872	115
388.334	120
388.795	121
389.257	123
389.719	125
390.181	131
390.642	130
391.104	134
391.566	139
392.028	144
392.49	155
392.952	152
393.414	152
393.876	158
394.338	160
394.8	166
395.262	162
395.724	176
396.186	180
396.648	176
397.111	173
397.573	183
398.035	181
398.498	186
398.96	191
399.423	192
399.885	194
400.348	199
400.81	210
401.273	213
401.736	206
402.198	232
402.661	233
403.124	229
403.587	242
404.049	246
404.512	250
404.975	258
405.438	251
405.901	259
406.364	262
406.827	263
407.29	262
407.754	262
408.217	269
408.68	262
409.143	275
409.607	281
410.07	286
410.533	280
410.997	287
411.46	290
411.924	300
412.387	301
412.851	305
413.314	316
413.778	315
414.242	324
414.705	338
415.169	336
415.633	334
416.097	335
416.561	338
417.024	344
417.488	339
417.952	346
418.416	345
418.88	348
419.344	351
419.809	354
420.273	364
420.737	359
421.201	367
421.665	381
422.13	382
422.594	397
423.059	404
423.523	412
423.987	413
424.452	422
424.916	437
425.381	448
425.846	442
426.31	456
426.775	465
427.24	475
427.704	465
428.169	476
428.634	477
429.099	474
429.564	478
430.029	479
430.494	477
430.959	484
431.424	479
431.889	506
432.354	508
432.819	501
433.284	523
433.75	532
434.215	553
434.68	555
435.146	559
435.611	580
436.077	597
436.542	604
437.008	626
437.473	625
437.939	631
438.404	652
438.87	664
439.336	654
439.801	643
440.267	670
440.733	676
441.199	681
441.665	683
442.131	709
442.596	694
443.062	714
443.529	745
443.995	759
444.461	768
444.927	808
445.393	817
445.859	853
446.325	860
446.792	923
447.258	922
447.724	944
448.191	978
448.657	977
449.124	1009
449.59	993
450.057	1060
450.523	1064
450.99	1088
451.457	1076
451.923	1108
452.39	1091
452.857	1127
453.324	1115
453.791	1135
454.257	1130
454.724	1148
455.191	1152
455.658	1159
456.125	1197
456.592	1175
457.059	1202
457.527	1216
457.994	1250
458.461	1260
458.928	1280
459.396	1274
459.863	1317
460.33	1305
460.798	1310
461.265	1340
461.732	1324
462.2	1365
462.668	1354
463.135	1377
463.603	1324
464.07	1370
464.538	1340
465.006	1375
465.474	1355
465.941	1369
466.409	1378
466.877	1337
467.345	1382
467.813	1368
468.281	1387
468.749	1408
469.217	1408
469.685	1423
470.153	1464
470.621	1469
471.09	1465
471.558	1536
472.026	1540
472.494	1581
472.963	1604
473.431	1639
473.9	1678
474.368	1715
474.837	1742
475.305	1755
475.774	1787
476.242	1834
476.711	1838
477.18	1900
477.648	1881
478.117	1894
478.586	1888
479.055	1894
479.524	1910
479.993	1911
480.462	1904
480.93	1918
481.399	1910
481.869	1937
482.338	1914
482.807	1952
483.276	1932
483.745	1931
484.214	1988
484.684	2022
485.153	2036
485.622	2060
486.092	2127
486.561	2083
487.031	2165
487.5	2200
487.97	2219
488.439	2290
488.909	2361
489.378	2440
489.848	2433
490.318	2483
490.787	2581
491.257	2597
491.727	2608
492.197	2637
492.667	2649
493.137	2682
493.607	2716
494.077	2729
494.547	2703
495.017	2693
495.487	2736
495.957	2792
496.427	2734
496.897	2727
497.368	2778
497.838	2750
498.308	2783
498.779	2841
499.249	2854
499.719	2884
500.19	2918
500.66	2934
501.131	2954
501.602	3004
502.072	2999
502.543	3052
503.014	3172
503.484	3153
503.955	3244
504.426	3374
504.897	3375
505.368	3449
505.838	3550
506.309	3633
506.78	3719
507.251	3780
507.722	3871
508.194	3959
508.665	4014
509.136	4007
509.607	4136
510.078	4151
510.549	4164
511.021	4265
511.492	4287
511.964	4361
512.435	4414
512.906	4375
513.378	4411
513.849	4487
514.321	4509
514.793	4557
515.264	4625
515.736	4665
516.208	4764
516.679	4808
517.151	4833
517.623	4865
518.095	4951
518.567	4998
519.038	5079
519.51	5056
519.982	5116
520.454	5185
520.927	5276
521.399	5373
521.871	5436
522.343	5437
522.815	5462
523.287	5456
523.76	5517
524.232	5602
524.704	5643
525.177	5544
525.649	5577
526.122	5633
526.594	5488
527.067	5651
527.539	5746
528.012	5694
528.484	5666
528.957	5703
529.43	5694
529.903	5657
530.375	5847
530.848	5734
531.321	5813
531.794	5800
532.267	5926
532.74	5841
533.213	5815
533.686	5905
534.159	5877
534.632	6035
535.105	6065
535.578	6210
536.051	6237
536.525	6245
536.998	6223
537.471	6380
537.945	6314
538.418	6429
538.891	6417
539.365	6507
539.838	6545
540.312	6518
540.786	6525
541.259	6507
541.733	6636
542.206	6654
542.68	6579
543.154	6598
543.628	6611
544.101	6725
544.575	6612
545.049	6420
545.523	6535
545.997	6547
546.471	6614
546.945	6550
547.419	6671
547.893	6443
548.367	6606
548.842	6525
549.316	6558
549.79	6578
550.264	6529
550.739	6606
551.213	6599
551.687	6599
552.162	6660
552.636	6585
553.111	6596
553.585	6810
554.06	6734
554.534	6853
555.009	6807
555.484	6923
555.958	6996
556.433	6990
556.908	7090
557.383	7018
557.858	7216
558.333	7242
558.807	7205
559.282	7281
559.757	7458
560.232	7437
560.708	7311
561.183	7249
561.658	7347
562.133	7329
562.608	7258
563.083	7436
563.559	7282
564.034	7329
564.509	7319
564.985	7329
565.46	7240
565.936	7380
566.411	7355
566.887	7272
567.362	7386
567.838	7418
568.313	7493
568.789	7323
569.265	7309
569.74	7365
570.216	7293
570.692	7401
571.168	7393
571.644	7429
572.12	7444
572.596	7511
573.071	7553
573.547	7788
574.024	7849
574.5	7893
574.976	7893
575.452	8008
575.928	8133
576.404	8219
576.881	8466
577.357	8273
577.833	8299
578.31	8540
578.786	8605
579.262	8695
579.739	8577
580.215	8800
580.692	8789
581.169	8720
581.645	8752
582.122	9033
582.598	9031
583.075	9040
583.552	9080
584.029	9008
584.506	8895
584.982	8844
585.459	9072
585.936	8949
586.413	9051
586.89	9244
587.367	9158
587.844	9286
588.321	9165
588.799	9199
589.276	9150
589.753	9299
590.23	9345
590.707	9291
591.185	9297
591.662	9333
592.139	9409
592.617	9509
593.094	9447
593.572	9531
594.049	9623
594.527	9713
595.004	9765
595.482	10024
595.96	9972
596.437	9993
596.915	10223
597.393	10057
597.871	10307
598.349	10225
598.826	10391
599.304	10356
599.782	10537
600.26	10468
600.738	10715
601.216	10655
601.694	10686
602.173	10729
602.651	10754
603.129	10562
603.607	10643
604.085	10695
604.564	10725
605.042	10806
605.52	10711
605.999	10973
606.477	10663
606.956	10683
607.434	10829
607.913	10975
608.391	10919
608.87	10867
609.348	10688
609.827	10717
610.306	10812
610.785	10839
611.263	10808
611.742	10709
612.221	10591
612.7	10726
613.179	10800
613.658	10679
614.137	10854
614.616	10921
615.095	10747
615.574	10895
616.053	10962
616.532	10885
617.011	10899
617.491	10991
617.97	10974
618.449	11107
618.928	11161
619.408	11061
619.887	11173
620.367	11202
620.846	11318
621.326	11250
621.805	11493
622.285	11476
622.764	11550
623.244	11550
623.724	11626
624.203	11690
624.683	11488
625.163	11712
625.643	11672
626.123	11558
626.602	11813
627.082	11574
627.562	11536
628.042	11762
628.522	11645
629.002	11548
629.482	11637
629.963	11681
630.443	11603
630.923	11614
631.403	11671
631.883	11624
632.364	11638
632.844	11553
633.324	11619
633.805	11682
634.285	11553
634.766	11442
635.246	11458
635.727	11453
636.207	11426
636.688	11417
637.168	11406
637.649	11341
638.13	11318
638.611	11400
639.091	11374
639.572	11327
640.053	11281
640.534	11348
641.015	11293
641.496	11140
641.977	11323
642.458	11249
642.939	11320
643.42	11361
643.901	11321
644.382	11413
644.863	11360
645.345	11301
645.826	11302
646.307	11295
646.788	11473
647.27	11278
647.751	11295
648.233	11368
648.714	11101
649.196	11411
649.677	11353
650.159	11349
650.64	11239
651.122	11437
651.603	11257
652.085	11381
652.567	11452
653.049	11364
653.53	11342
654.012	11489
654.494	11301
654.976	11455
655.458	11407
655.94	11370
656.422	11552
656.904	11364
657.386	11270
657.868	11282
658.35	11208
658.833	11294
659.315	11321
659.797	11129
660.279	11056
660.762	11093
661.244	10998
661.726	10867
662.209	10869
662.691	10878
663.174	10699
663.656	10771
664.139	10785
664.621	10660
665.104	10591
665.587	10747
666.069	10802
666.552	10771
667.035	10637
667.517	10663
668	10763
668.483	10759
668.966	10652
669.449	10612
669.932	10605
670.415	10731
670.898	10656
671.381	10683
671.864	10678
672.347	10519
672.83	10532
673.313	10546
673.797	10528
674.28	10763
674.763	10787
675.247	10782
675.73	10692
676.213	10776
676.697	10837
677.18	10836
677.664	10864
678.147	10823
678.631	10889
679.114	10956
679.598	10959
680.082	11070
680.565	11062
681.049	11019
681.533	10992
682.017	11023
682.5	10962
682.984	10985
683.468	11027
683.952	10824
684.436	11005
684.92	10887
685.404	10936
685.888	11043
686.372	10951
686.856	10961
687.341	11068
687.825	10914
688.309	10966
688.793	10988
689.278	10856
689.762	10921
690.246	10854
690.731	10886
691.215	10953
691.7	10705
692.184	10820
692.669	10714
693.153	10728
693.638	10545
694.122	10529
694.607	10654
695.092	10519
695.577	10564
696.061	10352
696.546	10383
697.031	10359
697.516	10474
698.001	10490
698.486	10381
698.971	10430
699.456	10202
699.941	10190
700.426	10195
700.911	10354
701.396	10313
701.881	10370
702.366	10278
702.852	10215
703.337	10249
703.822	10244
704.308	10259
704.793	10339
705.278	10354
705.764	10392
706.249	10336
706.735	10324
707.22	10400
707.706	10249
708.191	10397
708.677	10366
709.163	10206
709.648	10224
710.134	10374
710.62	10276
711.106	10337
711.592	10489
712.077	10440
712.563	10152
713.049	10124
713.535	10339
714.021	10287
714.507	10212
714.993	10053
715.479	10108
715.966	9990
716.452	10022
716.938	10110
717.424	9855
717.91	10045
718.397	9966
718.883	9912
719.369	9933
719.856	9816
720.342	9964
720.829	9846
721.315	9899
721.802	9801
722.288	9824
722.775	9414
723.262	9164
723.748	9528
724.235	9482
724.722	9600
725.208	9414
725.695	9394
726.182	9393
726.669	9280
727.156	9316
727.643	9193
728.13	9164
728.617	9047
729.104	9060
729.591	8987
730.078	9083
730.565	9116
731.052	8998
731.539	9023
732.027	8925
732.514	8785
733.001	8858
733.488	8803
733.976	8811
734.463	8784
734.951	8776
735.438	8851
735.926	8714
736.413	8735
736.901	8672
737.388	8735
737.876	8699
738.364	8673
738.851	8749
739.339	8773
739.827	8846
740.314	8555
740.802	8564
741.29	8549
741.778	8460
742.266	8484
742.754	8475
743.242	8558
743.73	8391
744.218	8360
744.706	8269
745.194	8337
745.682	8297
746.17	8324
746.659	8328
747.147	8131
747.635	8152
748.123	8094
748.612	7971
749.1	7944
749.589	8049
750.077	8034
750.566	8030
751.054	8082
751.543	8109
752.031	7919
752.52	7845
753.008	7662
753.497	7687
753.986	7678
754.474	7658
754.963	7725
755.452	7577
755.941	7528
756.43	7528
756.919	7458
757.408	7381
757.896	7406
758.385	7417
758.875	7336
759.364	7271
759.853	7177
760.342	7056
760.831	7214
761.32	7166
761.809	7056
762.299	7082
762.788	7067
763.277	7025
763.767	6909
764.256	6901
764.745	6832
765.235	6961
765.724	6760
766.214	6824
766.703	6705
767.193	6609
767.683	6615
768.172	6482
768.662	6525
769.152	6480
769.641	6501
770.131	6344
770.621	6430
771.111	6322
771.601	6322
772.09	6300
772.58	6234
773.07	6252
773.56	6278
774.05	6131
774.54	6096
775.031	6076
775.521	6063
776.011	6053
776.501	6077
776.991	5942
777.482	5986
777.972	5816
778.462	5805
778.953	5833
779.443	5791
779.933	5779
780.424	5724
780.914	5777
781.405	5763
781.895	5699
782.386	5668
782.877	5622
783.367	5519
783.858	5464
784.349	5474
784.839	5443
785.33	5475
785.821	5445
786.312	5411
786.803	5430
787.293	5424
787.784	5349
788.275	5257
788.766	5202
789.257	5277
789.748	5151
790.24	5088
790.731	5093
791.222	4989
791.713	4959
792.204	4970
792.696	4842
793.187	4928
793.678	4885
794.169	4735
794.661	4784
795.152	4718
795.644	4662
796.135	4654
796.627	4688
797.118	4586
797.61	4536
798.101	4487
798.593	4545
799.085	4469
799.576	4493
800.068	4420
800.56	4421
801.052	4323
801.544	4316
802.035	4333
802.527	4261
803.019	4184
803.511	4129
804.003	4100
804.495	4146
804.987	4112
805.479	4028
805.971	4051
806.464	4020
806.956	3900
807.448	3888
807.94	3884
808.433	3849
808.925	3833
809.417	3796
809.91	3770
810.402	3657
810.894	3669
811.387	3704
811.879	3648
812.372	3686
812.865	3651
813.357	3651
813.85	3633
814.342	3608
814.835	3604
815.328	3564
815.821	3505
816.313	3502
816.806	3500
817.299	3433
817.792	3449
818.285	3391
818.778	3437
819.271	3435
819.764	3388
820.257	3408
820.75	3406
821.243	3402
821.736	3360
822.229	3380
822.722	3361
823.216	3427
