Data from lamp4bck_noballon_Subt2__80__280.txt Node

Date: Wed Apr 09 11:11:17 CEST 2025
User: fys-lab-0081
Spectrometer: S04999
Trigger mode: 0
Resolution mode: 1024 pixels
Integration Time (sec): 1.000000E-1
Scans to average: 1
Nonlinearity correction enabled: false
Boxcar width: 0
Baseline correction enabled: true
XAxis mode: Wavelengths
Number of Pixels in Spectrum: 1024
>>>>>Begin Spectral Data<<<<<
336.42	3
336.877	7
337.334	5
337.792	5
338.249	7
338.706	9
339.164	2
339.621	7
340.079	8
340.536	8
340.994	6
341.452	11
341.909	13
342.367	6
342.825	6
343.283	7
343.741	10
344.198	8
344.656	8
345.114	7
345.572	12
346.03	7
346.488	11
346.947	10
347.405	10
347.863	9
348.321	11
348.779	16
349.238	8
349.696	11
350.154	15
350.613	11
351.071	13
351.53	16
351.988	16
352.447	15
352.905	14
353.364	15
353.823	17
354.282	20
354.74	11
355.199	17
355.658	20
356.117	13
356.576	20
357.035	18
357.494	19
357.953	20
358.412	22
358.871	24
359.33	24
359.789	20
360.249	24
360.708	25
361.167	28
361.626	26
362.086	24
362.545	31
363.005	29
363.464	28
363.924	30
364.383	31
364.843	32
365.303	33
365.762	35
366.222	30
366.682	32
367.142	36
367.601	37
368.061	34
368.521	38
368.981	39
369.441	45
369.901	40
370.361	42
370.821	39
371.282	43
371.742	41
372.202	44
372.662	47
373.123	43
373.583	45
374.043	55
374.504	46
374.964	50
375.425	54
375.885	50
376.346	59
376.806	59
377.267	55
377.728	66
378.188	68
378.649	60
379.11	69
379.571	61
380.032	75
380.493	70
380.954	72
381.414	71
381.876	76
382.337	78
382.798	83
383.259	87
383.72	83
384.181	89
384.642	86
385.104	99
385.565	98
386.026	111
386.488	106
386.949	105
387.411	110
387.872	116
388.334	121
388.795	120
389.257	124
389.719	124
390.181	124
390.642	135
391.104	133
391.566	142
392.028	144
392.49	149
392.952	151
393.414	151
393.876	156
394.338	158
394.8	161
395.262	158
395.724	170
396.186	172
396.648	177
397.111	174
397.573	184
398.035	180
398.498	185
398.96	188
399.423	193
399.885	198
400.348	201
400.81	208
401.273	203
401.736	213
402.198	228
402.661	234
403.124	223
403.587	239
404.049	242.5
404.512	246
404.975	253
405.438	251
405.901	261
406.364	260
406.827	256
407.29	262
407.754	259
408.217	263
408.68	265
409.143	275
409.607	281
410.07	278
410.533	278
410.997	288
411.46	287
411.924	300
412.387	303
412.851	307
413.314	313
413.778	317
414.242	321
414.705	331
415.169	328
415.633	332
416.097	328
416.561	338
417.024	346
417.488	333
417.952	346
418.416	342
418.88	341
419.344	346
419.809	349
420.273	361
420.737	354
421.201	368
421.665	382
422.13	375
422.594	397
423.059	401
423.523	405
423.987	411
424.452	423
424.916	424
425.381	446
425.846	444
426.31	457
426.775	456
427.24	468
427.704	463
428.169	469
428.634	474
429.099	469
429.564	471
430.029	476
430.494	479
430.959	479
431.424	474
431.889	495
432.354	504
432.819	495
433.284	523
433.75	525
434.215	548
434.68	548
435.146	554
435.611	577
436.077	596
436.542	594
437.008	622
437.473	624
437.939	626
438.404	643
438.87	658
439.336	644
439.801	640
440.267	660
440.733	677
441.199	678
441.665	680
442.131	704
442.596	687
443.062	711
443.529	739
443.995	750
444.461	764
444.927	807
445.393	816
445.859	846
446.325	854
446.792	911
447.258	908
447.724	936
448.191	969
448.657	976
449.124	1001
449.59	992
450.057	1054
450.523	1055
450.99	1082
451.457	1066
451.923	1093
452.39	1088
452.857	1115
453.324	1106
453.791	1123
454.257	1123
454.724	1141
455.191	1148
455.658	1151
456.125	1185
456.592	1167
457.059	1187
457.527	1207
457.994	1242
458.461	1251
458.928	1272
459.396	1265
459.863	1310
460.33	1295
460.798	1300
461.265	1325
461.732	1318
462.2	1357
462.668	1346
463.135	1364
463.603	1319
464.07	1362
464.538	1326
465.006	1369
465.474	1339
465.941	1351
466.409	1371
466.877	1334
467.345	1378
467.813	1362
468.281	1381
468.749	1398
469.217	1394
469.685	1416
470.153	1451
470.621	1450
471.09	1457
471.558	1524
472.026	1525
472.494	1572
472.963	1587
473.431	1637
473.9	1666
474.368	1698
474.837	1733
475.305	1745
475.774	1775
476.242	1826
476.711	1822
477.18	1888
477.648	1870
478.117	1880
478.586	1868
479.055	1882
479.524	1900
479.993	1896
480.462	1899
480.93	1899
481.399	1899
481.869	1920
482.338	1904
482.807	1935
483.276	1917
483.745	1910
484.214	1975
484.684	2010
485.153	2023
485.622	2051
486.092	2106
486.561	2060
487.031	2157
487.5	2192
487.97	2212
488.439	2271
488.909	2346
489.378	2431
489.848	2417
490.318	2465
490.787	2559
491.257	2581
491.727	2596
492.197	2623
492.667	2630
493.137	2662
493.607	2700
494.077	2713
494.547	2688
495.017	2675
495.487	2720
495.957	2771
496.427	2718
496.897	2710
497.368	2757
497.838	2737
498.308	2770
498.779	2818
499.249	2839
499.719	2876
500.19	2893
500.66	2917
501.131	2936
501.602	2990
502.072	2974
502.543	3035
503.014	3145
503.484	3135
503.955	3228
504.426	3345
504.897	3367
505.368	3426
505.838	3521
506.309	3608
506.78	3704
507.251	3757
507.722	3844
508.194	3941
508.665	3989
509.136	3975
509.607	4109
510.078	4128
510.549	4145
511.021	4252
511.492	4268
511.964	4335
512.435	4385
512.906	4355
513.378	4392
513.849	4454
514.321	4477
514.793	4537
515.264	4596
515.736	4636
516.208	4731
516.679	4780
517.151	4793
517.623	4841
518.095	4919
518.567	4957
519.038	5048
519.51	5035
519.982	5088
520.454	5153
520.927	5246
521.399	5346
521.871	5401
522.343	5404
522.815	5434
523.287	5428
523.76	5486
524.232	5579
524.704	5605
525.177	5512
525.649	5544
526.122	5601
526.594	5472
527.067	5614
527.539	5719
528.012	5663
528.484	5640
528.957	5655
529.43	5647
529.903	5615
530.375	5818
530.848	5703
531.321	5777
531.794	5764
532.267	5894
532.74	5816
533.213	5783
533.686	5871
534.159	5846
534.632	5999
535.105	6040
535.578	6171
536.051	6192
536.525	6209
536.998	6189
537.471	6341
537.945	6286
538.418	6383
538.891	6379
539.365	6468
539.838	6498
540.312	6467
540.786	6492
541.259	6464
541.733	6604
542.206	6618
542.68	6549
543.154	6563
543.628	6577
544.101	6686
544.575	6573
545.049	6402
545.523	6512
545.997	6506
546.471	6564
546.945	6509
547.419	6635
547.893	6419
548.367	6571
548.842	6490
549.316	6523
549.79	6547
550.264	6493
550.739	6566
551.213	6562
551.687	6565
552.162	6627
552.636	6555
553.111	6556
553.585	6771
554.06	6699
554.534	6808
555.009	6761
555.484	6875
555.958	6971
556.433	6945
556.908	7047
557.383	6987
557.858	7188
558.333	7211
558.807	7166
559.282	7233
559.757	7432
560.232	7403
560.708	7269
561.183	7208
561.658	7299
562.133	7287
562.608	7221
563.083	7390
563.559	7244
564.034	7295
564.509	7274
564.985	7290
565.46	7190
565.936	7338
566.411	7310
566.887	7237
567.362	7342
567.838	7374
568.313	7458
568.789	7290
569.265	7276
569.74	7338
570.216	7259
570.692	7362
571.168	7345
571.644	7407
572.12	7408
572.596	7465
573.071	7512
573.547	7738
574.024	7809
574.5	7847
574.976	7839
575.452	7967
575.928	8093
576.404	8175
576.881	8411
577.357	8241
577.833	8257
578.31	8488
578.786	8549
579.262	8651
579.739	8523
580.215	8745
580.692	8734
581.169	8677
581.645	8712
582.122	8998
582.598	8996
583.075	8988
583.552	9022
584.029	8949
584.506	8861
584.982	8793
585.459	9022
585.936	8916
586.413	9011
586.89	9194
587.367	9104
587.844	9241
588.321	9108
588.799	9154
589.276	9105
589.753	9275
590.23	9290
590.707	9245
591.185	9262
591.662	9274
592.139	9358
592.617	9439
593.094	9418
593.572	9488
594.049	9579
594.527	9675
595.004	9739
595.482	9982
595.96	9923
596.437	9932
596.915	10170
597.393	10010
597.871	10257
598.349	10158
598.826	10340
599.304	10293
599.782	10483
600.26	10411
600.738	10654
601.216	10590
601.694	10627
602.173	10679
602.651	10703
603.129	10524
603.607	10577
604.085	10644
604.564	10691
605.042	10742
605.52	10665
605.999	10900
606.477	10616
606.956	10636
607.434	10772
607.913	10908
608.391	10869
608.87	10813
609.348	10638
609.827	10666
610.306	10753
610.785	10791
611.263	10760
611.742	10656
612.221	10539
612.7	10687
613.179	10741
613.658	10633
614.137	10797
614.616	10876
615.095	10691
615.574	10841
616.053	10923
616.532	10820
617.011	10847
617.491	10950
617.97	10911
618.449	11061
618.928	11117
619.408	11007
619.887	11125
620.367	11160
620.846	11257
621.326	11193
621.805	11439
622.285	11439
622.764	11492
623.244	11490
623.724	11587
624.203	11631
624.683	11457
625.163	11671
625.643	11630
626.123	11510
626.602	11757
627.082	11513
627.562	11487
628.042	11692
628.522	11591
629.002	11481
629.482	11584
629.963	11628
630.443	11545
630.923	11562
631.403	11617
631.883	11575
632.364	11583
632.844	11481
633.324	11565
633.805	11641
634.285	11487
634.766	11385
635.246	11423
635.727	11400
636.207	11372
636.688	11374
637.168	11363
637.649	11298
638.13	11277
638.611	11359
639.091	11332
639.572	11280
640.053	11218
640.534	11305
641.015	11246
641.496	11094
641.977	11284
642.458	11195
642.939	11268
643.42	11291
643.901	11275
644.382	11373
644.863	11312
645.345	11244
645.826	11251
646.307	11234
646.788	11413
647.27	11236
647.751	11245
648.233	11305
648.714	11066
649.196	11354
649.677	11295
650.159	11303
650.64	11176
651.122	11385
651.603	11211
652.085	11330
652.567	11403
653.049	11310
653.53	11297
654.012	11441
654.494	11261
654.976	11420
655.458	11362
655.94	11329
656.422	11497
656.904	11318
657.386	11215
657.868	11227
658.35	11159
658.833	11248
659.315	11264
659.797	11082
660.279	11008
660.762	11043
661.244	10939
661.726	10807
662.209	10818
662.691	10809
663.174	10654
663.656	10731
664.139	10731
664.621	10612
665.104	10534
665.587	10689
666.069	10755
666.552	10721
667.035	10593
667.517	10609
668	10726
668.483	10709
668.966	10614
669.449	10569
669.932	10550
670.415	10687
670.898	10599
671.381	10645
671.864	10635
672.347	10471
672.83	10478
673.313	10519
673.797	10475
674.28	10690
674.763	10740
675.247	10738
675.73	10640
676.213	10727
676.697	10777
677.18	10786
677.664	10809
678.147	10776
678.631	10846
679.114	10901
679.598	10920
680.082	11025
680.565	11011
681.049	10971
681.533	10948
682.017	10974
682.5	10900
682.984	10960
683.468	10968
683.952	10782
684.436	10956
684.92	10833
685.404	10897
685.888	10998
686.372	10896
686.856	10918
687.341	11029
687.825	10869
688.309	10922
688.793	10940
689.278	10805
689.762	10874
690.246	10813
690.731	10840
691.215	10895
691.7	10648
692.184	10760
692.669	10667
693.153	10677
693.638	10513
694.122	10490
694.607	10602
695.092	10462
695.577	10508
696.061	10300
696.546	10333
697.031	10315
697.516	10425
698.001	10435
698.486	10344
698.971	10401
699.456	10146
699.941	10130
700.426	10149
700.911	10302
701.396	10257
701.881	10328
702.366	10234
702.852	10168
703.337	10200
703.822	10196
704.308	10215
704.793	10280
705.278	10304
705.764	10351
706.249	10297
706.735	10278
707.22	10346
707.706	10187
708.191	10347
708.677	10321
709.163	10155
709.648	10170
710.134	10317
710.62	10228
711.106	10280
711.592	10440
712.077	10403
712.563	10100
713.049	10069
713.535	10276
714.021	10223
714.507	10153
714.993	10006
715.479	10063
715.966	9950
716.452	9976
716.938	10058
717.424	9794
717.91	9998
718.397	9924
718.883	9867
719.369	9869
719.856	9780
720.342	9920
720.829	9811
721.315	9859
721.802	9741
722.288	9763
722.775	9380
723.262	9130
723.748	9474
724.235	9422
724.722	9568
725.208	9359
725.695	9340
726.182	9342
726.669	9234
727.156	9273
727.643	9160
728.13	9116
728.617	9000
729.104	9025
729.591	8953
730.078	9055
730.565	9073
731.052	8954
731.539	8967
732.027	8893
732.514	8738
733.001	8815
733.488	8758
733.976	8754
734.463	8737
734.951	8746
735.438	8801
735.926	8674
736.413	8708
736.901	8612
737.388	8692
737.876	8659
738.364	8626
738.851	8712
739.339	8724
739.827	8809
740.314	8504
740.802	8517
741.29	8509
741.778	8418
742.266	8441
742.754	8445
743.242	8508
743.73	8340
744.218	8330
744.706	8215
745.194	8302
745.682	8255
746.17	8290
746.659	8294
747.147	8089
747.635	8116
748.123	8049
748.612	7940
749.1	7913
749.589	8013
750.077	7993
750.566	7985
751.054	8044
751.543	8078
752.031	7892
752.52	7806
753.008	7623
753.497	7652
753.986	7647
754.474	7620
754.963	7680
755.452	7540
755.941	7498
756.43	7485
756.919	7415
757.408	7345
757.896	7370
758.385	7379
758.875	7300
759.364	7228
759.853	7137
760.342	7038
760.831	7191
761.32	7127
761.809	7032
762.299	7045
762.788	7031
763.277	6990
763.767	6875
764.256	6862
764.745	6808
765.235	6928
765.724	6720
766.214	6786
766.703	6676
767.193	6569
767.683	6566
768.172	6439
768.662	6482
769.152	6453
769.641	6479
770.131	6326
770.621	6402
771.111	6300
771.601	6283
772.09	6264
772.58	6212
773.07	6206
773.56	6245
774.05	6111
774.54	6068
775.031	6047
775.521	6029
776.011	6033
776.501	6053
776.991	5912
777.482	5952
777.972	5796
778.462	5777
778.953	5807
779.443	5759
779.933	5754
780.424	5700
780.914	5749
781.405	5738
781.895	5670
782.386	5653
782.877	5595
783.367	5495
783.858	5446
784.349	5443
784.839	5414
785.33	5444
785.821	5422
786.312	5390
786.803	5413
787.293	5403
787.784	5319
788.275	5240
788.766	5174
789.257	5248
789.748	5124
790.24	5058
790.731	5068
791.222	4966
791.713	4931
792.204	4944
792.696	4818
793.187	4904
793.678	4864
794.169	4708
794.661	4770
795.152	4692
795.644	4641
796.135	4639
796.627	4663
797.118	4575
797.61	4530
798.101	4464
798.593	4524
799.085	4449
799.576	4472
800.068	4400
800.56	4393
801.052	4294
801.544	4302
802.035	4305
802.527	4234
803.019	4165
803.511	4116
804.003	4087
804.495	4129
804.987	4083
805.479	4010
805.971	4025
806.464	4009
806.956	3888
807.448	3862
807.94	3866
808.433	3829
808.925	3811
809.417	3764
809.91	3746
810.402	3642
810.894	3667
811.387	3689
811.879	3629
812.372	3671
812.865	3640
813.357	3633
813.85	3604
814.342	3584
814.835	3585
815.328	3548
815.821	3489
816.313	3483
816.806	3481
817.299	3413
817.792	3429
818.285	3375
818.778	3424
819.271	3418
819.764	3379
820.257	3387
820.75	3394
821.243	3390
821.736	3340
822.229	3356
822.722	3337
823.216	3406
