Data from lamp4bck_noballon_Subt2__65__265.txt Node

Date: Wed Apr 09 11:11:15 CEST 2025
User: fys-lab-0081
Spectrometer: S04999
Trigger mode: 0
Resolution mode: 1024 pixels
Integration Time (sec): 1.000000E-1
Scans to average: 1
Nonlinearity correction enabled: false
Boxcar width: 0
Baseline correction enabled: true
XAxis mode: Wavelengths
Number of Pixels in Spectrum: 1024
>>>>>Begin Spectral Data<<<<<
336.42	6
336.877	6
337.334	6
337.792	7
338.249	8
338.706	5
339.164	5
339.621	6
340.079	10
340.536	8
340.994	6
341.452	11
341.909	14
342.367	8
342.825	3
343.283	9
343.741	7
344.198	6
344.656	2
345.114	7
345.572	12
346.03	7
346.488	12
346.947	10
347.405	13
347.863	11
348.321	10
348.779	11
349.238	10
349.696	12
350.154	12
350.613	9
351.071	18
351.53	19
351.988	16
352.447	12
352.905	12
353.364	15
353.823	20
354.282	15
354.74	12
355.199	20
355.658	20
356.117	16
356.576	18
357.035	17
357.494	18
357.953	15
358.412	25
358.871	24
359.33	24
359.789	19
360.249	25
360.708	26
361.167	26
361.626	23
362.086	25
362.545	27
363.005	25
363.464	28
363.924	32
364.383	30
364.843	32
365.303	33
365.762	37
366.222	36
366.682	39
367.142	36
367.601	38
368.061	36
368.521	37
368.981	36
369.441	45
369.901	41
370.361	43
370.821	38
371.282	43
371.742	42
372.202	46
372.662	47
373.123	43
373.583	47
374.043	52
374.504	46
374.964	51
375.425	56
375.885	56
376.346	58
376.806	60
377.267	56
377.728	60
378.188	67
378.649	61
379.11	66
379.571	59
380.032	66
380.493	71
380.954	76
381.414	72
381.876	74
382.337	76
382.798	79
383.259	90
383.72	87
384.181	90
384.642	93
385.104	100
385.565	101
386.026	107
386.488	108
386.949	110
387.411	114
387.872	116
388.334	119
388.795	127
389.257	128
389.719	125
390.181	128
390.642	134
391.104	136
391.566	141
392.028	142
392.49	149
392.952	152
393.414	158
393.876	159
394.338	159
394.8	162
395.262	164
395.724	174
396.186	171
396.648	173
397.111	182
397.573	183
398.035	180
398.498	189
398.96	195
399.423	192
399.885	197
400.348	200
400.81	212
401.273	214
401.736	213
402.198	228
402.661	238
403.124	228
403.587	247
404.049	246
404.512	245
404.975	254
405.438	250
405.901	261
406.364	257
406.827	260
407.29	266
407.754	260
408.217	265
408.68	269
409.143	274
409.607	282
410.07	282
410.533	277
410.997	288
411.46	289
411.924	304
412.387	304
412.851	304
413.314	317
413.778	319
414.242	320
414.705	338
415.169	336
415.633	336
416.097	335
416.561	337
417.024	353
417.488	340
417.952	351
418.416	342
418.88	345
419.344	350
419.809	355
420.273	362
420.737	360
421.201	368
421.665	385
422.13	384
422.594	395
423.059	404
423.523	411
423.987	416
424.452	428
424.916	432
425.381	449
425.846	444
426.31	459
426.775	459
427.24	476
427.704	465
428.169	474
428.634	474
429.099	476
429.564	475
430.029	480
430.494	481
430.959	488
431.424	478
431.889	498
432.354	513
432.819	501
433.284	529
433.75	529
434.215	549
434.68	548
435.146	559
435.611	580
436.077	599
436.542	602
437.008	630
437.473	626
437.939	632
438.404	651
438.87	666
439.336	653
439.801	647
440.267	663
440.733	682
441.199	683
441.665	682
442.131	712
442.596	693
443.062	715
443.529	740
443.995	759
444.461	771
444.927	815
445.393	817
445.859	851
446.325	862
446.792	915
447.258	918
447.724	940
448.191	975
448.657	976
449.124	1013
449.59	994
450.057	1066
450.523	1066
450.99	1086
451.457	1064
451.923	1107
452.39	1093
452.857	1121
453.324	1115
453.791	1133
454.257	1132
454.724	1156
455.191	1160
455.658	1158
456.125	1196
456.592	1176
457.059	1196
457.527	1217
457.994	1249
458.461	1261
458.928	1292
459.396	1275
459.863	1321
460.33	1306
460.798	1312
461.265	1339
461.732	1320
462.2	1366
462.668	1353
463.135	1381
463.603	1332
464.07	1371
464.538	1339
465.006	1379
465.474	1349
465.941	1361
466.409	1379
466.877	1336
467.345	1384
467.813	1366
468.281	1387
468.749	1409
469.217	1403
469.685	1424
470.153	1465
470.621	1465
471.09	1472
471.558	1536
472.026	1536
472.494	1584
472.963	1601
473.431	1651
473.9	1678
474.368	1721
474.837	1741
475.305	1762
475.774	1789
476.242	1838
476.711	1836
477.18	1904
477.648	1881
478.117	1890
478.586	1882
479.055	1891
479.524	1913
479.993	1908
480.462	1911
480.93	1918
481.399	1909
481.869	1934
482.338	1916
482.807	1950
483.276	1933
483.745	1924
484.214	1992
484.684	2020
485.153	2041
485.622	2056
486.092	2126
486.561	2086
487.031	2167
487.5	2198
487.97	2226
488.439	2291
488.909	2361
489.378	2445
489.848	2438
490.318	2482
490.787	2583
491.257	2606
491.727	2611
492.197	2640
492.667	2648
493.137	2685
493.607	2716
494.077	2737
494.547	2702
495.017	2698
495.487	2732
495.957	2790
496.427	2732
496.897	2727
497.368	2780
497.838	2754
498.308	2784
498.779	2832
499.249	2857
499.719	2891
500.19	2921
500.66	2930
501.131	2958
501.602	3008
502.072	2994
502.543	3054
503.014	3170
503.484	3157
503.955	3250
504.426	3373
504.897	3385
505.368	3457
505.838	3553
506.309	3631
506.78	3731
507.251	3786
507.722	3879
508.194	3969
508.665	4022
509.136	4010
509.607	4142
510.078	4156
510.549	4166
511.021	4277
511.492	4293
511.964	4360
512.435	4423
512.906	4382
513.378	4420
513.849	4493
514.321	4509
514.793	4567
515.264	4637
515.736	4665
516.208	4760
516.679	4809
517.151	4836
517.623	4868
518.095	4957
518.567	4994
519.038	5086
519.51	5071
519.982	5127
520.454	5197
520.927	5276
521.399	5377
521.871	5440
522.343	5462
522.815	5474
523.287	5473
523.76	5532
524.232	5615
524.704	5643
525.177	5543
525.649	5580
526.122	5644
526.594	5505
527.067	5643
527.539	5748
528.012	5702
528.484	5680
528.957	5706
529.43	5699
529.903	5655
530.375	5854
530.848	5741
531.321	5818
531.794	5816
532.267	5922
532.74	5843
533.213	5809
533.686	5916
534.159	5891
534.632	6036
535.105	6079
535.578	6222
536.051	6241
536.525	6253
536.998	6218
537.471	6382
537.945	6330
538.418	6432
538.891	6420
539.365	6514
539.838	6547
540.312	6519
540.786	6532
541.259	6515
541.733	6649
542.206	6677
542.68	6589
543.154	6600
543.628	6616
544.101	6727
544.575	6618
545.049	6438
545.523	6551
545.997	6542
546.471	6615
546.945	6566
547.419	6678
547.893	6443
548.367	6613
548.842	6541
549.316	6564
549.79	6589
550.264	6528
550.739	6624
551.213	6626
551.687	6611
552.162	6666
552.636	6599
553.111	6602
553.585	6815
554.06	6738
554.534	6849
555.009	6812
555.484	6917
555.958	7023
556.433	7001
556.908	7098
557.383	7022
557.858	7227
558.333	7244
558.807	7221
559.282	7278
559.757	7475
560.232	7457
560.708	7304
561.183	7254
561.658	7350
562.133	7334
562.608	7266
563.083	7425
563.559	7298
564.034	7341
564.509	7313
564.985	7340
565.46	7250
565.936	7385
566.411	7342
566.887	7285
567.362	7383
567.838	7422
568.313	7495
568.789	7341
569.265	7308
569.74	7365
570.216	7309
570.692	7394
571.168	7406
571.644	7433
572.12	7459
572.596	7518
573.071	7566
573.547	7805
574.024	7860
574.5	7879
574.976	7893
575.452	8018
575.928	8139
576.404	8222
576.881	8465
577.357	8281
577.833	8302
578.31	8533
578.786	8607
579.262	8688
579.739	8573
580.215	8808
580.692	8792
581.169	8736
581.645	8783
582.122	9054
582.598	9058
583.075	9052
583.552	9083
584.029	9007
584.506	8904
584.982	8843
585.459	9070
585.936	8965
586.413	9066
586.89	9252
587.367	9160
587.844	9291
588.321	9171
588.799	9201
589.276	9160
589.753	9319
590.23	9349
590.707	9284
591.185	9306
591.662	9340
592.139	9414
592.617	9517
593.094	9456
593.572	9551
594.049	9631
594.527	9739
595.004	9788
595.482	10038
595.96	9986
596.437	9989
596.915	10235
597.393	10073
597.871	10308
598.349	10220
598.826	10405
599.304	10354
599.782	10559
600.26	10485
600.738	10709
601.216	10670
601.694	10705
602.173	10730
602.651	10766
603.129	10574
603.607	10630
604.085	10704
604.564	10736
605.042	10819
605.52	10725
605.999	10976
606.477	10675
606.956	10696
607.434	10833
607.913	10970
608.391	10931
608.87	10871
609.348	10700
609.827	10717
610.306	10824
610.785	10853
611.263	10821
611.742	10728
612.221	10592
612.7	10728
613.179	10804
613.658	10689
614.137	10857
614.616	10926
615.095	10746
615.574	10904
616.053	10974
616.532	10881
617.011	10904
617.491	11012
617.97	10982
618.449	11109
618.928	11162
619.408	11061
619.887	11191
620.367	11223
620.846	11332
621.326	11262
621.805	11508
622.285	11509
622.764	11549
623.244	11554
623.724	11633
624.203	11675
624.683	11512
625.163	11721
625.643	11695
626.123	11565
626.602	11806
627.082	11563
627.562	11541
628.042	11771
628.522	11653
629.002	11546
629.482	11656
629.963	11696
630.443	11603
630.923	11627
631.403	11678
631.883	11637
632.364	11650
632.844	11557
633.324	11640
633.805	11703
634.285	11550
634.766	11452
635.246	11478
635.727	11469
636.207	11443
636.688	11427
637.168	11425
637.649	11360
638.13	11337
638.611	11422
639.091	11393
639.572	11333
640.053	11296
640.534	11361
641.015	11304
641.496	11136
641.977	11341
642.458	11241
642.939	11348
643.42	11371
643.901	11328
644.382	11434
644.863	11371
645.345	11311
645.826	11300
646.307	11294
646.788	11486
647.27	11289
647.751	11293
648.233	11363
648.714	11110
649.196	11431
649.677	11367
650.159	11356
650.64	11246
651.122	11433
651.603	11279
652.085	11392
652.567	11456
653.049	11376
653.53	11346
654.012	11503
654.494	11310
654.976	11467
655.458	11421
655.94	11382
656.422	11557
656.904	11385
657.386	11270
657.868	11282
658.35	11210
658.833	11318
659.315	11326
659.797	11146
660.279	11067
660.762	11102
661.244	11003
661.726	10870
662.209	10872
662.691	10864
663.174	10711
663.656	10775
664.139	10788
664.621	10669
665.104	10600
665.587	10752
666.069	10798
666.552	10787
667.035	10646
667.517	10667
668	10769
668.483	10767
668.966	10661
669.449	10621
669.932	10625
670.415	10744
670.898	10664
671.381	10693
671.864	10700
672.347	10526
672.83	10538
673.313	10563
673.797	10538
674.28	10752
674.763	10802
675.247	10794
675.73	10696
676.213	10790
676.697	10841
677.18	10843
677.664	10885
678.147	10835
678.631	10898
679.114	10954
679.598	10961
680.082	11072
680.565	11076
681.049	11017
681.533	10999
682.017	11028
682.5	10965
682.984	11000
683.468	11034
683.952	10838
684.436	11010
684.92	10877
685.404	10943
685.888	11046
686.372	10953
686.856	10973
687.341	11068
687.825	10927
688.309	10971
688.793	11008
689.278	10870
689.762	10937
690.246	10864
690.731	10884
691.215	10954
691.7	10708
692.184	10818
692.669	10708
693.153	10739
693.638	10567
694.122	10533
694.607	10653
695.092	10510
695.577	10572
696.061	10358
696.546	10390
697.031	10379
697.516	10468
698.001	10491
698.486	10388
698.971	10446
699.456	10203
699.941	10189
700.426	10211
700.911	10354
701.396	10311
701.881	10371
702.366	10287
702.852	10225
703.337	10263
703.822	10252
704.308	10275
704.793	10352
705.278	10352
705.764	10408
706.249	10346
706.735	10328
707.22	10399
707.706	10242
708.191	10403
708.677	10359
709.163	10202
709.648	10214
710.134	10378
710.62	10287
711.106	10329
711.592	10495
712.077	10455
712.563	10144
713.049	10126
713.535	10323
714.021	10276
714.507	10206
714.993	10069
715.479	10132
715.966	9987
716.452	10028
716.938	10110
717.424	9859
717.91	10049
718.397	9962
718.883	9906
719.369	9924
719.856	9817
720.342	9968
720.829	9853
721.315	9900
721.802	9793
722.288	9818
722.775	9415
723.262	9161
723.748	9532
724.235	9475
724.722	9607
725.208	9416
725.695	9387
726.182	9374
726.669	9275
727.156	9323
727.643	9198
728.13	9150
728.617	9040
729.104	9069
729.591	8995
730.078	9091
730.565	9107
731.052	9002
731.539	9017
732.027	8927
732.514	8782
733.001	8867
733.488	8798
733.976	8801
734.463	8778
734.951	8776
735.438	8843
735.926	8730
736.413	8751
736.901	8658
737.388	8735
737.876	8703
738.364	8680
738.851	8751
739.339	8763
739.827	8847
740.314	8559
740.802	8567
741.29	8545
741.778	8450
742.266	8469
742.754	8494
743.242	8549
743.73	8385
744.218	8357
744.706	8270
745.194	8342
745.682	8294
746.17	8321
746.659	8343
747.147	8142
747.635	8145
748.123	8088
748.612	7969
749.1	7953
749.589	8047
750.077	8029
750.566	8026
751.054	8071
751.543	8116
752.031	7914
752.52	7851
753.008	7665
753.497	7687
753.986	7666
754.474	7652
754.963	7719
755.452	7575
755.941	7536
756.43	7515
756.919	7466
757.408	7388
757.896	7412
758.385	7421
758.875	7328
759.364	7267
759.853	7180
760.342	7061
760.831	7220
761.32	7161
761.809	7066
762.299	7076
762.788	7068
763.277	7023
763.767	6912
764.256	6899
764.745	6840
765.235	6960
765.724	6744
766.214	6827
766.703	6702
767.193	6605
767.683	6605
768.172	6471
768.662	6518
769.152	6482
769.641	6506
770.131	6344
770.621	6442
771.111	6333
771.601	6324
772.09	6297
772.58	6233
773.07	6257
773.56	6281
774.05	6134
774.54	6093
775.031	6081
775.521	6067
776.011	6059
776.501	6087
776.991	5928
777.482	5979
777.972	5819
778.462	5798
778.953	5819
779.443	5789
779.933	5776
780.424	5718
780.914	5780
781.405	5761
781.895	5697
782.386	5669
782.877	5628
783.367	5512
783.858	5474
784.349	5474
784.839	5441
785.33	5470
785.821	5445
786.312	5414
786.803	5432
787.293	5426
787.784	5344
788.275	5260
788.766	5208
789.257	5283
789.748	5136
790.24	5092
790.731	5088
791.222	4990
791.713	4948
792.204	4969
792.696	4848
793.187	4916
793.678	4888
794.169	4751
794.661	4790
795.152	4714
795.644	4662
796.135	4654
796.627	4685
797.118	4598
797.61	4547
798.101	4483
798.593	4538
799.085	4471
799.576	4489
800.068	4420
800.56	4424
801.052	4325
801.544	4322
802.035	4333
802.527	4245
803.019	4185
803.511	4141
804.003	4107
804.495	4135
804.987	4107
805.479	4027
805.971	4050
806.464	4023
806.956	3912
807.448	3877
807.94	3880
808.433	3845
808.925	3832
809.417	3792
809.91	3764
810.402	3651
810.894	3676
811.387	3704
811.879	3645
812.372	3679
812.865	3650
813.357	3653
813.85	3625
814.342	3602
814.835	3596
815.328	3567
815.821	3508
816.313	3500
816.806	3493
817.299	3428
817.792	3445
818.285	3389
818.778	3443
819.271	3422
819.764	3390
820.257	3406
820.75	3404
821.243	3400
821.736	3357
822.229	3368
822.722	3362
823.216	3421
