Data from lamp4bck_noballon_Subt2__7__207.txt Node

Date: Wed Apr 09 11:11:08 CEST 2025
User: fys-lab-0081
Spectrometer: S04999
Trigger mode: 0
Resolution mode: 1024 pixels
Integration Time (sec): 1.000000E-1
Scans to average: 1
Nonlinearity correction enabled: false
Boxcar width: 0
Baseline correction enabled: true
XAxis mode: Wavelengths
Number of Pixels in Spectrum: 1024
>>>>>Begin Spectral Data<<<<<
336.42	4
336.877	4
337.334	7
337.792	8
338.249	7
338.706	6
339.164	6
339.621	6
340.079	7
340.536	7
340.994	6
341.452	8
341.909	11
342.367	6
342.825	6
343.283	12
343.741	11
344.198	7
344.656	7
345.114	7
345.572	13
346.03	8
346.488	9
346.947	15
347.405	12
347.863	8
348.321	7
348.779	18
349.238	13
349.696	15
350.154	11
350.613	11
351.071	18
351.53	20
351.988	21
352.447	16
352.905	13
353.364	15
353.823	18
354.282	17
354.74	14
355.199	19
355.658	26
356.117	18
356.576	15
357.035	14
357.494	25
357.953	21
358.412	23
358.871	21
359.33	21
359.789	20
360.249	22
360.708	26
361.167	26
361.626	28
362.086	24
362.545	26
363.005	29
363.464	29
363.924	35
364.383	28
364.843	35
365.303	36
365.762	38
366.222	36
366.682	37
367.142	35
367.601	38
368.061	36
368.521	37
368.981	39
369.441	41
369.901	41
370.361	42
370.821	42
371.282	45
371.742	52
372.202	45
372.662	50
373.123	45
373.583	49
374.043	49
374.504	49
374.964	49
375.425	51
375.885	54
376.346	57
376.806	59
377.267	56
377.728	66
378.188	63
378.649	64
379.11	64
379.571	63
380.032	73
380.493	70
380.954	75
381.414	74
381.876	80
382.337	77
382.798	82
383.259	90
383.72	90
384.181	92
384.642	91
385.104	100
385.565	101
386.026	109
386.488	107
386.949	107
387.411	116
387.872	122
388.334	121
388.795	118
389.257	125
389.719	125
390.181	133
390.642	129
391.104	136
391.566	141
392.028	146
392.49	153
392.952	151
393.414	153
393.876	162
394.338	160
394.8	157
395.262	162
395.724	176
396.186	177
396.648	174
397.111	177
397.573	184
398.035	185
398.498	188
398.96	195
399.423	192
399.885	198
400.348	202
400.81	213
401.273	214
401.736	210
402.198	229
402.661	230
403.124	233
403.587	242
404.049	245.5
404.512	249
404.975	251
405.438	252
405.901	258
406.364	259
406.827	266
407.29	266
407.754	261
408.217	263
408.68	266
409.143	278
409.607	285
410.07	285
410.533	281
410.997	291
411.46	292
411.924	305
412.387	304
412.851	308
413.314	318
413.778	314
414.242	323
414.705	339
415.169	332
415.633	339
416.097	336
416.561	343
417.024	349
417.488	335
417.952	350
418.416	340
418.88	346
419.344	348
419.809	355
420.273	366
420.737	358
421.201	371
421.665	378
422.13	386
422.594	399
423.059	404
423.523	410
423.987	412
424.452	428
424.916	434
425.381	445
425.846	450
426.31	462
426.775	463
427.24	477
427.704	460
428.169	476
428.634	474
429.099	476
429.564	474
430.029	480
430.494	479
430.959	487
431.424	485
431.889	501
432.354	510
432.819	503
433.284	533
433.75	527
434.215	555
434.68	551
435.146	565
435.611	576
436.077	598
436.542	597
437.008	624
437.473	632
437.939	633
438.404	650
438.87	666
439.336	650
439.801	648
440.267	667
440.733	680
441.199	683
441.665	686
442.131	713
442.596	693
443.062	718
443.529	746
443.995	763
444.461	772
444.927	812
445.393	823
445.859	854
446.325	863
446.792	920
447.258	919
447.724	944
448.191	979
448.657	981
449.124	1010
449.59	999
450.057	1061
450.523	1061
450.99	1086
451.457	1078
451.923	1110
452.39	1092
452.857	1124
453.324	1115
453.791	1136
454.257	1128
454.724	1152
455.191	1157
455.658	1156
456.125	1198
456.592	1181
457.059	1201
457.527	1218
457.994	1256
458.461	1266
458.928	1284
459.396	1280
459.863	1319
460.33	1311
460.798	1310
461.265	1336
461.732	1325
462.2	1367
462.668	1355
463.135	1380
463.603	1325
464.07	1374
464.538	1335
465.006	1391
465.474	1355
465.941	1366
466.409	1373
466.877	1336
467.345	1384
467.813	1373
468.281	1394
468.749	1403
469.217	1407
469.685	1431
470.153	1464
470.621	1467
471.09	1462
471.558	1536
472.026	1532
472.494	1584
472.963	1599
473.431	1645
473.9	1679
474.368	1719
474.837	1743
475.305	1761
475.774	1788
476.242	1842
476.711	1839
477.18	1899
477.648	1888
478.117	1895
478.586	1880
479.055	1891
479.524	1912
479.993	1910
480.462	1907
480.93	1920
481.399	1920
481.869	1933
482.338	1920
482.807	1949
483.276	1927
483.745	1927
484.214	1988
484.684	2026
485.153	2037
485.622	2061
486.092	2128
486.561	2081
487.031	2168
487.5	2207
487.97	2225
488.439	2289
488.909	2364
489.378	2445
489.848	2434
490.318	2486
490.787	2587
491.257	2601
491.727	2609
492.197	2642
492.667	2647
493.137	2689
493.607	2716
494.077	2743
494.547	2698
495.017	2698
495.487	2737
495.957	2793
496.427	2740
496.897	2733
497.368	2780
497.838	2754
498.308	2784
498.779	2839
499.249	2857
499.719	2901
500.19	2912
500.66	2938
501.131	2958
501.602	3014
502.072	3000
502.543	3047
503.014	3167
503.484	3156
503.955	3254
504.426	3374
504.897	3392
505.368	3451
505.838	3553
506.309	3634
506.78	3727
507.251	3784
507.722	3876
508.194	3971
508.665	4023
509.136	4004
509.607	4132
510.078	4153
510.549	4167
511.021	4276
511.492	4306
511.964	4365
512.435	4428
512.906	4392
513.378	4423
513.849	4495
514.321	4512
514.793	4564
515.264	4634
515.736	4666
516.208	4767
516.679	4815
517.151	4837
517.623	4858
518.095	4962
518.567	4997
519.038	5092
519.51	5062
519.982	5126
520.454	5205
520.927	5282
521.399	5380
521.871	5443
522.343	5445
522.815	5476
523.287	5474
523.76	5519
524.232	5621
524.704	5653
525.177	5554
525.649	5580
526.122	5636
526.594	5503
527.067	5651
527.539	5746
528.012	5699
528.484	5677
528.957	5692
529.43	5699
529.903	5663
530.375	5853
530.848	5739
531.321	5823
531.794	5820
532.267	5934
532.74	5846
533.213	5820
533.686	5913
534.159	5887
534.632	6037
535.105	6076
535.578	6221
536.051	6237
536.525	6242
536.998	6224
537.471	6380
537.945	6325
538.418	6428
538.891	6416
539.365	6516
539.838	6543
540.312	6520
540.786	6538
541.259	6501
541.733	6634
542.206	6673
542.68	6593
543.154	6596
543.628	6623
544.101	6727
544.575	6614
545.049	6429
545.523	6561
545.997	6548
546.471	6606
546.945	6558
547.419	6671
547.893	6461
548.367	6608
548.842	6521
549.316	6566
549.79	6584
550.264	6524
550.739	6613
551.213	6604
551.687	6619
552.162	6668
552.636	6587
553.111	6605
553.585	6820
554.06	6739
554.534	6846
555.009	6811
555.484	6915
555.958	7011
556.433	6993
556.908	7097
557.383	7018
557.858	7235
558.333	7244
558.807	7213
559.282	7279
559.757	7471
560.232	7458
560.708	7312
561.183	7250
561.658	7349
562.133	7342
562.608	7267
563.083	7433
563.559	7302
564.034	7326
564.509	7314
564.985	7342
565.46	7248
565.936	7380
566.411	7357
566.887	7279
567.362	7388
567.838	7422
568.313	7505
568.789	7331
569.265	7327
569.74	7375
570.216	7312
570.692	7396
571.168	7392
571.644	7444
572.12	7458
572.596	7526
573.071	7545
573.547	7785
574.024	7845
574.5	7884
574.976	7893
575.452	8025
575.928	8151
576.404	8221
576.881	8465
577.357	8291
577.833	8320
578.31	8535
578.786	8599
579.262	8684
579.739	8580
580.215	8805
580.692	8793
581.169	8732
581.645	8772
582.122	9046
582.598	9043
583.075	9056
583.552	9088
584.029	9014
584.506	8906
584.982	8842
585.459	9067
585.936	8957
586.413	9069
586.89	9246
587.367	9159
587.844	9293
588.321	9174
588.799	9195
589.276	9156
589.753	9301
590.23	9336
590.707	9309
591.185	9314
591.662	9346
592.139	9409
592.617	9511
593.094	9458
593.572	9531
594.049	9624
594.527	9743
595.004	9787
595.482	10031
595.96	9974
596.437	9987
596.915	10220
597.393	10070
597.871	10302
598.349	10210
598.826	10391
599.304	10363
599.782	10543
600.26	10472
600.738	10718
601.216	10662
601.694	10707
602.173	10740
602.651	10758
603.129	10567
603.607	10633
604.085	10700
604.564	10742
605.042	10805
605.52	10709
605.999	10956
606.477	10679
606.956	10690
607.434	10832.5
607.913	10975
608.391	10928
608.87	10888
609.348	10691
609.827	10723
610.306	10825
610.785	10855
611.263	10819
611.742	10723
612.221	10603
612.7	10733
613.179	10823
613.658	10696
614.137	10848
614.616	10926
615.095	10746
615.574	10897
616.053	10981
616.532	10880
617.011	10912
617.491	11009
617.97	10983
618.449	11111
618.928	11168
619.408	11068
619.887	11185
620.367	11212
620.846	11322
621.326	11256
621.805	11493
622.285	11493
622.764	11551
623.244	11559
623.724	11643
624.203	11688
624.683	11510
625.163	11721
625.643	11695
626.123	11574
626.602	11817
627.082	11577
627.562	11554
628.042	11767
628.522	11660
629.002	11570
629.482	11661
629.963	11684
630.443	11619
630.923	11641
631.403	11678
631.883	11639
632.364	11658
632.844	11546
633.324	11623
633.805	11704
634.285	11562
634.766	11449
635.246	11468
635.727	11454
636.207	11445
636.688	11442
637.168	11422
637.649	11362
638.13	11345
638.611	11412
639.091	11402
639.572	11342
640.053	11281
640.534	11357
641.015	11317
641.496	11151
641.977	11344
642.458	11254
642.939	11327
643.42	11374
643.901	11335
644.382	11413
644.863	11369
645.345	11315
645.826	11293
646.307	11296
646.788	11487
647.27	11291
647.751	11305
648.233	11378
648.714	11125
649.196	11434
649.677	11375
650.159	11360
650.64	11255
651.122	11440
651.603	11278
652.085	11392
652.567	11461
653.049	11382
653.53	11361
654.012	11512
654.494	11319
654.976	11472
655.458	11431
655.94	11388
656.422	11562
656.904	11370
657.386	11275
657.868	11273
658.35	11211
658.833	11314
659.315	11338
659.797	11153
660.279	11079
660.762	11106
661.244	11016
661.726	10877
662.209	10885
662.691	10878
663.174	10710
663.656	10795
664.139	10777
664.621	10652
665.104	10603
665.587	10754
666.069	10821
666.552	10787
667.035	10645
667.517	10660
668	10775
668.483	10774
668.966	10671
669.449	10619
669.932	10623
670.415	10744
670.898	10663
671.381	10709
671.864	10697
672.347	10526
672.83	10540
673.313	10574
673.797	10542
674.28	10766
674.763	10798
675.247	10802
675.73	10704
676.213	10792
676.697	10848
677.18	10842
677.664	10860
678.147	10836
678.631	10902
679.114	10956
679.598	10968
680.082	11074
680.565	11069
681.049	11031
681.533	11014
682.017	11048
682.5	10975
682.984	11004
683.468	11019
683.952	10837
684.436	11023
684.92	10881
685.404	10964
685.888	11047
686.372	10969
686.856	10967
687.341	11073
687.825	10936
688.309	10986
688.793	10992
689.278	10864
689.762	10934
690.246	10874
690.731	10894
691.215	10955
691.7	10716
692.184	10818
692.669	10731
693.153	10751
693.638	10568
694.122	10555
694.607	10675
695.092	10539
695.577	10579
696.061	10360
696.546	10402
697.031	10382
697.516	10478
698.001	10500
698.486	10398
698.971	10446
699.456	10215
699.941	10201
700.426	10212
700.911	10367
701.396	10321
701.881	10382
702.366	10293
702.852	10217
703.337	10267
703.822	10251
704.308	10282
704.793	10349
705.278	10370
705.764	10404
706.249	10346
706.735	10330
707.22	10405
707.706	10270
708.191	10407
708.677	10380
709.163	10221
709.648	10245
710.134	10387
710.62	10304
711.106	10345
711.592	10502
712.077	10450
712.563	10170
713.049	10129
713.535	10337
714.021	10302
714.507	10212
714.993	10066
715.479	10125
715.966	10005
716.452	10041
716.938	10119
717.424	9869
717.91	10061
718.397	9980
718.883	9914
719.369	9942
719.856	9842
720.342	9985
720.829	9867
721.315	9918
721.802	9801
722.288	9824
722.775	9433
723.262	9175
723.748	9536
724.235	9501
724.722	9610
725.208	9429
725.695	9417
726.182	9393
726.669	9301
727.156	9340
727.643	9212
728.13	9170
728.617	9057
729.104	9083
729.591	9012
730.078	9101
730.565	9135
731.052	9010
731.539	9029
732.027	8949
732.514	8790
733.001	8866
733.488	8805
733.976	8807
734.463	8778
734.951	8796
735.438	8862
735.926	8735
736.413	8757
736.901	8678
737.388	8748
737.876	8717
738.364	8677
738.851	8778
739.339	8795
739.827	8861
740.314	8569
740.802	8584
741.29	8568
741.778	8481
742.266	8487
742.754	8493
743.242	8557
743.73	8392
744.218	8367
744.706	8272
745.194	8355
745.682	8306
746.17	8338
746.659	8352
747.147	8149
747.635	8168
748.123	8087
748.612	7988
749.1	7958
749.589	8067
750.077	8049
750.566	8041
751.054	8099
751.543	8117
752.031	7928
752.52	7863
753.008	7669
753.497	7700
753.986	7685
754.474	7661
754.963	7724
755.452	7590
755.941	7534
756.43	7533
756.919	7481
757.408	7407
757.896	7419
758.385	7437
758.875	7344
759.364	7278
759.853	7199
760.342	7076
760.831	7236
761.32	7176
761.809	7083
762.299	7100
762.788	7068
763.277	7046
763.767	6922
764.256	6920
764.745	6849
765.235	6972
765.724	6769
766.214	6838
766.703	6709
767.193	6619
767.683	6623
768.172	6483
768.662	6529
769.152	6488
769.641	6515
770.131	6364
770.621	6448
771.111	6346
771.601	6328
772.09	6301
772.58	6244
773.07	6270
773.56	6290
774.05	6150
774.54	6121
775.031	6090
775.521	6079
776.011	6069
776.501	6091
776.991	5953
777.482	5997
777.972	5836
778.462	5813
778.953	5839
779.443	5809
779.933	5787
780.424	5733
780.914	5779
781.405	5778
781.895	5718
782.386	5691
782.877	5639
783.367	5524
783.858	5483
784.349	5477
784.839	5453
785.33	5472
785.821	5464
786.312	5427
786.803	5443
787.293	5441
787.784	5348
788.275	5261
788.766	5225
789.257	5288
789.748	5151
790.24	5087
790.731	5102
791.222	5010
791.713	4968
792.204	4984
792.696	4865
793.187	4933
793.678	4903
794.169	4754
794.661	4797
795.152	4721
795.644	4669
796.135	4664
796.627	4702
797.118	4610
797.61	4556
798.101	4488
798.593	4553
799.085	4473
799.576	4494
800.068	4411
800.56	4433
801.052	4334
801.544	4334
802.035	4333
802.527	4265
803.019	4197
803.511	4146
804.003	4112
804.495	4144
804.987	4114
805.479	4031
805.971	4058
806.464	4038
806.956	3914
807.448	3887
807.94	3893
808.433	3861
808.925	3846
809.417	3803
809.91	3780
810.402	3669
810.894	3684
811.387	3711
811.879	3656
812.372	3688
812.865	3656
813.357	3663
813.85	3634
814.342	3612
814.835	3608
815.328	3574
815.821	3514
816.313	3502
816.806	3507
817.299	3447
817.792	3456
818.285	3402
818.778	3434
819.271	3444
819.764	3403
820.257	3411
820.75	3407
821.243	3413
821.736	3371
822.229	3387
822.722	3365
823.216	3429
