Data from lamp4bck_noballon_Subt2__12__212.txt Node

Date: Wed Apr 09 11:11:09 CEST 2025
User: fys-lab-0081
Spectrometer: S04999
Trigger mode: 0
Resolution mode: 1024 pixels
Integration Time (sec): 1.000000E-1
Scans to average: 1
Nonlinearity correction enabled: false
Boxcar width: 0
Baseline correction enabled: true
XAxis mode: Wavelengths
Number of Pixels in Spectrum: 1024
>>>>>Begin Spectral Data<<<<<
336.42	6
336.877	8
337.334	7
337.792	6
338.249	7
338.706	13
339.164	5
339.621	4
340.079	6
340.536	9
340.994	8
341.452	9
341.909	13
342.367	5
342.825	4
343.283	9
343.741	3
344.198	6
344.656	9
345.114	9
345.572	16
346.03	7
346.488	13
346.947	9
347.405	14
347.863	12
348.321	11
348.779	12
349.238	14
349.696	12
350.154	9
350.613	11
351.071	12
351.53	18
351.988	17
352.447	15
352.905	12
353.364	16
353.823	18
354.282	16
354.74	12
355.199	18
355.658	20
356.117	19
356.576	19
357.035	16
357.494	21
357.953	22
358.412	23
358.871	24
359.33	19
359.789	17
360.249	23
360.708	22
361.167	27
361.626	22
362.086	23
362.545	22
363.005	31
363.464	28
363.924	29
364.383	30
364.843	33
365.303	34
365.762	38
366.222	33
366.682	33
367.142	39
367.601	37
368.061	35
368.521	39
368.981	36
369.441	43
369.901	40
370.361	42
370.821	39
371.282	46
371.742	41
372.202	45
372.662	51
373.123	47
373.583	48
374.043	53
374.504	47
374.964	53
375.425	55
375.885	55
376.346	58
376.806	60
377.267	55
377.728	66
378.188	63
378.649	62
379.11	69
379.571	59
380.032	68
380.493	68
380.954	77
381.414	76
381.876	80
382.337	76
382.798	81
383.259	89
383.72	89
384.181	92
384.642	91
385.104	95
385.565	102
386.026	107
386.488	111
386.949	110
387.411	115
387.872	115
388.334	120
388.795	122
389.257	124
389.719	125
390.181	128
390.642	131
391.104	138
391.566	143
392.028	146
392.49	151
392.952	152
393.414	159
393.876	156
394.338	156
394.8	160
395.262	159
395.724	176
396.186	175
396.648	175
397.111	175
397.573	184
398.035	186
398.498	186
398.96	189
399.423	196
399.885	198
400.348	200
400.81	208
401.273	210
401.736	211
402.198	228
402.661	233
403.124	232
403.587	242
404.049	244
404.512	246
404.975	251
405.438	247
405.901	257
406.364	259
406.827	260
407.29	262
407.754	262
408.217	266
408.68	261
409.143	275
409.607	284
410.07	283
410.533	277
410.997	285
411.46	287
411.924	304
412.387	303
412.851	309
413.314	313
413.778	317
414.242	325
414.705	338
415.169	334
415.633	337
416.097	331
416.561	341
417.024	350
417.488	340
417.952	350
418.416	346
418.88	345
419.344	350
419.809	351
420.273	366
420.737	355
421.201	372
421.665	384
422.13	379
422.594	399
423.059	404
423.523	406
423.987	414
424.452	425
424.916	431
425.381	450
425.846	441
426.31	459
426.775	465
427.24	474
427.704	466
428.169	473
428.634	479
429.099	470
429.564	474
430.029	480
430.494	476
430.959	483
431.424	479
431.889	500
432.354	507
432.819	494
433.284	528
433.75	532
434.215	551
434.68	552
435.146	561
435.611	578
436.077	597
436.542	600
437.008	625
437.473	628
437.939	630
438.404	645
438.87	667
439.336	649
439.801	641
440.267	667
440.733	680
441.199	681
441.665	684
442.131	711
442.596	687
443.062	717
443.529	751
443.995	757
444.461	774
444.927	808
445.393	815
445.859	855
446.325	863
446.792	923
447.258	914
447.724	940
448.191	976
448.657	984
449.124	1011
449.59	997
450.057	1053
450.523	1059
450.99	1087
451.457	1072
451.923	1100
452.39	1091
452.857	1122
453.324	1115
453.791	1132
454.257	1134
454.724	1144
455.191	1157
455.658	1159
456.125	1193
456.592	1173
457.059	1196
457.527	1220
457.994	1248
458.461	1258
458.928	1282
459.396	1282
459.863	1319
460.33	1303
460.798	1308
461.265	1336
461.732	1319
462.2	1364
462.668	1352
463.135	1372
463.603	1322
464.07	1375
464.538	1332
465.006	1371
465.474	1350
465.941	1360
466.409	1371
466.877	1343
467.345	1380
467.813	1370
468.281	1387
468.749	1407
469.217	1403
469.685	1424
470.153	1466
470.621	1467
471.09	1466
471.558	1536
472.026	1535
472.494	1585
472.963	1597
473.431	1643
473.9	1676
474.368	1716
474.837	1742
475.305	1761
475.774	1791
476.242	1834
476.711	1832
477.18	1899
477.648	1882
478.117	1888
478.586	1881
479.055	1893
479.524	1910
479.993	1906
480.462	1910
480.93	1917
481.399	1910
481.869	1930
482.338	1911
482.807	1950
483.276	1925
483.745	1934
484.214	1988
484.684	2026
485.153	2031
485.622	2061
486.092	2126
486.561	2083
487.031	2164
487.5	2204
487.97	2224
488.439	2283
488.909	2356
489.378	2438
489.848	2434
490.318	2480
490.787	2583
491.257	2595
491.727	2607
492.197	2646
492.667	2644
493.137	2678
493.607	2705
494.077	2736
494.547	2695
495.017	2687
495.487	2727
495.957	2793
496.427	2724
496.897	2727
497.368	2770
497.838	2746
498.308	2787
498.779	2840
499.249	2847
499.719	2890
500.19	2914
500.66	2922
501.131	2949
501.602	3005
502.072	3004
502.543	3048
503.014	3166
503.484	3152
503.955	3261
504.426	3373
504.897	3381
505.368	3445
505.838	3546
506.309	3626
506.78	3719
507.251	3774
507.722	3876
508.194	3961
508.665	4015
509.136	4000
509.607	4129
510.078	4157
510.549	4155
511.021	4271
511.492	4283
511.964	4355
512.435	4423
512.906	4378
513.378	4412
513.849	4485
514.321	4511
514.793	4558
515.264	4619
515.736	4660
516.208	4759
516.679	4809
517.151	4825
517.623	4868
518.095	4957
518.567	4989
519.038	5073
519.51	5054
519.982	5114
520.454	5195
520.927	5270
521.399	5369
521.871	5436
522.343	5443
522.815	5464
523.287	5456
523.76	5514
524.232	5609
524.704	5648
525.177	5531
525.649	5581
526.122	5629
526.594	5498
527.067	5646
527.539	5734
528.012	5692
528.484	5666
528.957	5695
529.43	5688
529.903	5643
530.375	5838
530.848	5741
531.321	5802
531.794	5799
532.267	5929
532.74	5833
533.213	5819
533.686	5901
534.159	5884
534.632	6025
535.105	6062
535.578	6209
536.051	6221
536.525	6243
536.998	6213
537.471	6377
537.945	6321
538.418	6430
538.891	6419
539.365	6503
539.838	6527
540.312	6507
540.786	6523
541.259	6494
541.733	6635
542.206	6663
542.68	6582
543.154	6599
543.628	6601
544.101	6727
544.575	6607
545.049	6424
545.523	6542
545.997	6541
546.471	6612
546.945	6556
547.419	6661
547.893	6460
548.367	6602
548.842	6524
549.316	6559
549.79	6584
550.264	6529
550.739	6599
551.213	6608
551.687	6599
552.162	6655
552.636	6579
553.111	6600
553.585	6820
554.06	6730
554.534	6840
555.009	6798
555.484	6912
555.958	7009
556.433	6981
556.908	7088
557.383	7020
557.858	7207
558.333	7249
558.807	7209
559.282	7271
559.757	7471
560.232	7432
560.708	7292
561.183	7241
561.658	7333
562.133	7322
562.608	7247
563.083	7431
563.559	7291
564.034	7326
564.509	7306
564.985	7325
565.46	7245
565.936	7375
566.411	7339
566.887	7277
567.362	7376
567.838	7417
568.313	7497
568.789	7309
569.265	7299
569.74	7360
570.216	7291
570.692	7400
571.168	7388
571.644	7431
572.12	7449
572.596	7515
573.071	7541
573.547	7775
574.024	7848
574.5	7875
574.976	7885
575.452	8023
575.928	8121
576.404	8220
576.881	8464
577.357	8279
577.833	8307
578.31	8527
578.786	8594
579.262	8674
579.739	8563
580.215	8796
580.692	8778
581.169	8720
581.645	8756
582.122	9033
582.598	9029
583.075	9029
583.552	9071
584.029	8990
584.506	8905
584.982	8841
585.459	9058
585.936	8951
586.413	9054
586.89	9249
587.367	9163
587.844	9271
588.321	9170
588.799	9192
589.276	9152
589.753	9310
590.23	9336
590.707	9293
591.185	9299
591.662	9322
592.139	9402
592.617	9502
593.094	9456
593.572	9536
594.049	9623
594.527	9715
595.004	9777
595.482	10028
595.96	9964
596.437	9981
596.915	10224
597.393	10055
597.871	10311
598.349	10213
598.826	10389
599.304	10348
599.782	10541
600.26	10473
600.738	10725
601.216	10647
601.694	10686
602.173	10722
602.651	10755
603.129	10553
603.607	10628
604.085	10680
604.564	10725
605.042	10797
605.52	10709
605.999	10953
606.477	10664
606.956	10686
607.434	10824
607.913	10962
608.391	10921
608.87	10858
609.348	10672
609.827	10705
610.306	10800
610.785	10845
611.263	10790
611.742	10704
612.221	10584
612.7	10742
613.179	10806
613.658	10671
614.137	10836
614.616	10922
615.095	10745
615.574	10886
616.053	10967
616.532	10878
617.011	10892
617.491	11012
617.97	10972
618.449	11100
618.928	11173
619.408	11053
619.887	11172
620.367	11209
620.846	11321
621.326	11249
621.805	11492
622.285	11482
622.764	11533
623.244	11554
623.724	11628
624.203	11683
624.683	11496
625.163	11712
625.643	11681
626.123	11571
626.602	11790
627.082	11559
627.562	11536
628.042	11755
628.522	11646
629.002	11548
629.482	11633
629.963	11669
630.443	11601
630.923	11602
631.403	11668
631.883	11629
632.364	11634
632.844	11547
633.324	11634
633.805	11687
634.285	11543
634.766	11449
635.246	11457
635.727	11450
636.207	11425
636.688	11428
637.168	11413
637.649	11354
638.13	11331
638.611	11419
639.091	11379
639.572	11325
640.053	11281
640.534	11353
641.015	11294
641.496	11141
641.977	11327
642.458	11242
642.939	11319
643.42	11347
643.901	11325
644.382	11410
644.863	11341
645.345	11297
645.826	11289
646.307	11289
646.788	11463
647.27	11276
647.751	11296
648.233	11365
648.714	11105
649.196	11419
649.677	11350
650.159	11353
650.64	11239
651.122	11423
651.603	11261
652.085	11376
652.567	11435
653.049	11356
653.53	11345
654.012	11486
654.494	11307
654.976	11447
655.458	11413
655.94	11370
656.422	11554
656.904	11370
657.386	11259
657.868	11263
658.35	11204
658.833	11288
659.315	11325
659.797	11128
660.279	11065
660.762	11099
661.244	11002
661.726	10853
662.209	10877
662.691	10859
663.174	10693
663.656	10775
664.139	10783
664.621	10656
665.104	10598
665.587	10749
666.069	10805
666.552	10772
667.035	10629
667.517	10663
668	10771
668.483	10748
668.966	10662
669.449	10607
669.932	10609
670.415	10739
670.898	10661
671.381	10672
671.864	10676
672.347	10519
672.83	10524
673.313	10556
673.797	10529
674.28	10745
674.763	10774
675.247	10793
675.73	10688
676.213	10766
676.697	10819
677.18	10835
677.664	10849
678.147	10825
678.631	10895
679.114	10949
679.598	10958
680.082	11078
680.565	11062
681.049	11009
681.533	11004
682.017	11029
682.5	10954
682.984	10997
683.468	11015
683.952	10831
684.436	11003
684.92	10871
685.404	10943
685.888	11049
686.372	10953
686.856	10967
687.341	11065
687.825	10919
688.309	10971
688.793	10981
689.278	10851
689.762	10921
690.246	10848
690.731	10874
691.215	10949
691.7	10704
692.184	10812
692.669	10702
693.153	10736
693.638	10546
694.122	10526
694.607	10650
695.092	10500
695.577	10567
696.061	10348
696.546	10377
697.031	10363
697.516	10472
698.001	10478
698.486	10382
698.971	10434
699.456	10197
699.941	10178
700.426	10210
700.911	10344
701.396	10310
701.881	10364
702.366	10285
702.852	10221
703.337	10250
703.822	10245
704.308	10267
704.793	10338
705.278	10353
705.764	10398
706.249	10334
706.735	10316
707.22	10383
707.706	10244
708.191	10387
708.677	10359
709.163	10201
709.648	10200
710.134	10370
710.62	10263
711.106	10326
711.592	10495
712.077	10451
712.563	10148
713.049	10106
713.535	10334
714.021	10277
714.507	10202
714.993	10046
715.479	10120
715.966	9989
716.452	10024
716.938	10102
717.424	9837
717.91	10045
718.397	9962
718.883	9902
719.369	9920
719.856	9818
720.342	9958
720.829	9851
721.315	9900
721.802	9785
722.288	9816
722.775	9413
723.262	9155
723.748	9526
724.235	9473
724.722	9592
725.208	9407
725.695	9394
726.182	9388
726.669	9281
727.156	9315
727.643	9201
728.13	9175
728.617	9049
729.104	9061
729.591	8983
730.078	9089
730.565	9114
731.052	9003
731.539	9020
732.027	8922
732.514	8781
733.001	8857
733.488	8797
733.976	8793
734.463	8776
734.951	8781
735.438	8844
735.926	8713
736.413	8746
736.901	8669
737.388	8739
737.876	8700
738.364	8661
738.851	8742
739.339	8769
739.827	8849
740.314	8551
740.802	8548
741.29	8550
741.778	8461
742.266	8470
742.754	8483
743.242	8551
743.73	8384
744.218	8351
744.706	8257
745.194	8327
745.682	8285
746.17	8316
746.659	8329
747.147	8127
747.635	8152
748.123	8088
748.612	7966
749.1	7943
749.589	8056
750.077	8025
750.566	8021
751.054	8079
751.543	8112
752.031	7906
752.52	7844
753.008	7665
753.497	7683
753.986	7675
754.474	7651
754.963	7709
755.452	7578
755.941	7530
756.43	7521
756.919	7456
757.408	7388
757.896	7409
758.385	7419
758.875	7333
759.364	7273
759.853	7182
760.342	7061
760.831	7223
761.32	7164
761.809	7065
762.299	7082
762.788	7062
763.277	7025
763.767	6903
764.256	6895
764.745	6827
765.235	6958
765.724	6751
766.214	6808
766.703	6704
767.193	6605
767.683	6617
768.172	6477
768.662	6513
769.152	6484
769.641	6505
770.131	6345
770.621	6429
771.111	6332
771.601	6321
772.09	6298
772.58	6219
773.07	6248
773.56	6285
774.05	6143
774.54	6093
775.031	6071
775.521	6062
776.011	6067
776.501	6078
776.991	5937
777.482	5976
777.972	5814
778.462	5802
778.953	5822
779.443	5790
779.933	5779
780.424	5723
780.914	5771
781.405	5766
781.895	5699
782.386	5675
782.877	5627
783.367	5509
783.858	5466
784.349	5476
784.839	5447
785.33	5463
785.821	5454
786.312	5414
786.803	5441
787.293	5429
787.784	5341
788.275	5258
788.766	5204
789.257	5272
789.748	5138
790.24	5078
790.731	5100
791.222	4985
791.713	4956
792.204	4965
792.696	4845
793.187	4932
793.678	4900
794.169	4733
794.661	4786
795.152	4714
795.644	4661
796.135	4648
796.627	4686
797.118	4584
797.61	4555
798.101	4477
798.593	4535
799.085	4475
799.576	4483
800.068	4420
800.56	4419
801.052	4327
801.544	4323
802.035	4317
802.527	4244
803.019	4177
803.511	4132
804.003	4106
804.495	4145
804.987	4112
805.479	4023
805.971	4057
806.464	4025
806.956	3915
807.448	3882
807.94	3887
808.433	3852
808.925	3835
809.417	3789
809.91	3771
810.402	3662
810.894	3672
811.387	3701
811.879	3644
812.372	3677
812.865	3655
813.357	3645
813.85	3627
814.342	3601
814.835	3599
815.328	3571
815.821	3506
816.313	3495
816.806	3487
817.299	3436
817.792	3449
818.285	3385
818.778	3438
819.271	3431
819.764	3393
820.257	3405
820.75	3398
821.243	3404
821.736	3355
822.229	3374
822.722	3365
823.216	3424
