Data from lamp4bck_noballon_Subt2__38__238.txt Node

Date: Wed Apr 09 11:11:12 CEST 2025
User: fys-lab-0081
Spectrometer: S04999
Trigger mode: 0
Resolution mode: 1024 pixels
Integration Time (sec): 1.000000E-1
Scans to average: 1
Nonlinearity correction enabled: false
Boxcar width: 0
Baseline correction enabled: true
XAxis mode: Wavelengths
Number of Pixels in Spectrum: 1024
>>>>>Begin Spectral Data<<<<<
336.42	3
336.877	7
337.334	5
337.792	8
338.249	7
338.706	7
339.164	8
339.621	9
340.079	11
340.536	9
340.994	8
341.452	6
341.909	15
342.367	7
342.825	8
343.283	13
343.741	5
344.198	7
344.656	12
345.114	11
345.572	11
346.03	7
346.488	9
346.947	6
347.405	10
347.863	11
348.321	7
348.779	14
349.238	7
349.696	14
350.154	10
350.613	13
351.071	16
351.53	20
351.988	15
352.447	15
352.905	10
353.364	17
353.823	18
354.282	15
354.74	12
355.199	22
355.658	22
356.117	19
356.576	20
357.035	19
357.494	21
357.953	16
358.412	22
358.871	21
359.33	21
359.789	20
360.249	25
360.708	22
361.167	26
361.626	25
362.086	27
362.545	26
363.005	26
363.464	30
363.924	28
364.383	31
364.843	35
365.303	35
365.762	36
366.222	37
366.682	34
367.142	35
367.601	36
368.061	38
368.521	43
368.981	36
369.441	44
369.901	41
370.361	41
370.821	41
371.282	44
371.742	43
372.202	46
372.662	47
373.123	45
373.583	48
374.043	52
374.504	47
374.964	49
375.425	53
375.885	51
376.346	59
376.806	65
377.267	61
377.728	58
378.188	66
378.649	62
379.11	68
379.571	57
380.032	68
380.493	68
380.954	80
381.414	71
381.876	76
382.337	77
382.798	84
383.259	85
383.72	88
384.181	85
384.642	95
385.104	98
385.565	97
386.026	104
386.488	111
386.949	109
387.411	110
387.872	112
388.334	122
388.795	122
389.257	124
389.719	127
390.181	129
390.642	134
391.104	131
391.566	140
392.028	144
392.49	152
392.952	155
393.414	153
393.876	158
394.338	160
394.8	160
395.262	159
395.724	177
396.186	176
396.648	173
397.111	177
397.573	183
398.035	181
398.498	184
398.96	187
399.423	192
399.885	197
400.348	200
400.81	209
401.273	216
401.736	213
402.198	231
402.661	235
403.124	230
403.587	242
404.049	244.5
404.512	247
404.975	256
405.438	251
405.901	262
406.364	264
406.827	266
407.29	260
407.754	264
408.217	269
408.68	267
409.143	277
409.607	285
410.07	284
410.533	279
410.997	286
411.46	287
411.924	298
412.387	303
412.851	311
413.314	313
413.778	316
414.242	326
414.705	342
415.169	330
415.633	333
416.097	333
416.561	339
417.024	349
417.488	338
417.952	347
418.416	343
418.88	348
419.344	349
419.809	353
420.273	361
420.737	358
421.201	371
421.665	384
422.13	376
422.594	397
423.059	402
423.523	407
423.987	410
424.452	422
424.916	432
425.381	443
425.846	445
426.31	453
426.775	462
427.24	473
427.704	469
428.169	476
428.634	476
429.099	476
429.564	476
430.029	481
430.494	479
430.959	483
431.424	482
431.889	498
432.354	508
432.819	499
433.284	527
433.75	529
434.215	552
434.68	550
435.146	560
435.611	584
436.077	599
436.542	605
437.008	624
437.473	627
437.939	630
438.404	648
438.87	666
439.336	647
439.801	643
440.267	663
440.733	676
441.199	680
441.665	688
442.131	712
442.596	688
443.062	717
443.529	744
443.995	756
444.461	767
444.927	816
445.393	821
445.859	846
446.325	856
446.792	917
447.258	917
447.724	947
448.191	976
448.657	979
449.124	1009
449.59	1001
450.057	1059
450.523	1059
450.99	1084
451.457	1073
451.923	1101
452.39	1093
452.857	1125
453.324	1112
453.791	1137
454.257	1128
454.724	1154
455.191	1153
455.658	1154
456.125	1199
456.592	1178
457.059	1194
457.527	1212
457.994	1248
458.461	1261
458.928	1279
459.396	1272
459.863	1324
460.33	1307
460.798	1304
461.265	1343
461.732	1324
462.2	1367
462.668	1352
463.135	1376
463.603	1327
464.07	1374
464.538	1331
465.006	1379
465.474	1355
465.941	1359
466.409	1376
466.877	1339
467.345	1382
467.813	1374
468.281	1383
468.749	1407
469.217	1402
469.685	1430
470.153	1465
470.621	1456
471.09	1469
471.558	1536
472.026	1536
472.494	1579
472.963	1597
473.431	1642
473.9	1676
474.368	1718
474.837	1747
475.305	1757
475.774	1789
476.242	1838
476.711	1834
477.18	1895
477.648	1879
478.117	1890
478.586	1882
479.055	1891
479.524	1911
479.993	1903
480.462	1906
480.93	1909
481.399	1911
481.869	1926
482.338	1914
482.807	1949
483.276	1929
483.745	1926
484.214	1985
484.684	2017
485.153	2032
485.622	2053
486.092	2126
486.561	2077
487.031	2163
487.5	2196
487.97	2212
488.439	2285
488.909	2360
489.378	2438
489.848	2439
490.318	2482
490.787	2579
491.257	2600
491.727	2607
492.197	2644
492.667	2642
493.137	2681
493.607	2713
494.077	2733
494.547	2705
495.017	2695
495.487	2725
495.957	2796
496.427	2732
496.897	2723
497.368	2771
497.838	2749
498.308	2793
498.779	2838
499.249	2849
499.719	2892
500.19	2919
500.66	2932
501.131	2959
501.602	3011
502.072	3006
502.543	3051
503.014	3163
503.484	3153
503.955	3251
504.426	3366
504.897	3387
505.368	3446
505.838	3551
506.309	3630
506.78	3718
507.251	3774
507.722	3875
508.194	3970
508.665	4017
509.136	4002
509.607	4135
510.078	4152
510.549	4162
511.021	4271
511.492	4292
511.964	4348
512.435	4425
512.906	4384
513.378	4402
513.849	4488
514.321	4509
514.793	4564
515.264	4625
515.736	4661
516.208	4754
516.679	4809
517.151	4830
517.623	4864
518.095	4952
518.567	4988
519.038	5085
519.51	5053
519.982	5118
520.454	5184
520.927	5272
521.399	5371
521.871	5432
522.343	5443
522.815	5472
523.287	5464
523.76	5527
524.232	5611
524.704	5638
525.177	5551
525.649	5580
526.122	5635
526.594	5494
527.067	5646
527.539	5745
528.012	5702
528.484	5662
528.957	5702
529.43	5695
529.903	5655
530.375	5851
530.848	5732
531.321	5818
531.794	5800
532.267	5932
532.74	5837
533.213	5807
533.686	5901
534.159	5879
534.632	6039
535.105	6078
535.578	6217
536.051	6229
536.525	6241
536.998	6213
537.471	6384
537.945	6326
538.418	6437
538.891	6417
539.365	6503
539.838	6542
540.312	6520
540.786	6533
541.259	6506
541.733	6647
542.206	6671
542.68	6586
543.154	6595
543.628	6604
544.101	6717
544.575	6612
545.049	6430
545.523	6542
545.997	6549
546.471	6606
546.945	6558
547.419	6678
547.893	6454
548.367	6604
548.842	6534
549.316	6573
549.79	6582
550.264	6526
550.739	6616
551.213	6614
551.687	6614
552.162	6657
552.636	6597
553.111	6580
553.585	6820
554.06	6731
554.534	6852
555.009	6800
555.484	6915
555.958	7011
556.433	6998
556.908	7095
557.383	7017
557.858	7227
558.333	7251
558.807	7210
559.282	7267
559.757	7460
560.232	7441
560.708	7305
561.183	7238
561.658	7340
562.133	7323
562.608	7256
563.083	7438
563.559	7295
564.034	7341
564.509	7312
564.985	7325
565.46	7243
565.936	7377
566.411	7353
566.887	7281
567.362	7381
567.838	7424
568.313	7496
568.789	7316
569.265	7301
569.74	7367
570.216	7297
570.692	7403
571.168	7394
571.644	7429
572.12	7452
572.596	7516
573.071	7531
573.547	7792
574.024	7837
574.5	7877
574.976	7891
575.452	8027
575.928	8128
576.404	8215
576.881	8476
577.357	8276
577.833	8314
578.31	8544
578.786	8604
579.262	8689
579.739	8560
580.215	8798
580.692	8790
581.169	8731
581.645	8757
582.122	9041
582.598	9048
583.075	9035
583.552	9089
584.029	9002
584.506	8895
584.982	8839
585.459	9067
585.936	8956
586.413	9059
586.89	9244
587.367	9153
587.844	9286
588.321	9165
588.799	9204
589.276	9153
589.753	9303
590.23	9349
590.707	9287
591.185	9302
591.662	9330
592.139	9417
592.617	9514
593.094	9461
593.572	9545
594.049	9630
594.527	9734
595.004	9788
595.482	10034
595.96	9967
596.437	9990
596.915	10219
597.393	10067
597.871	10308
598.349	10214
598.826	10395
599.304	10340
599.782	10533
600.26	10472
600.738	10706
601.216	10657
601.694	10703
602.173	10732
602.651	10752
603.129	10563
603.607	10638
604.085	10693
604.564	10731
605.042	10793
605.52	10712
605.999	10962
606.477	10665
606.956	10685
607.434	10829
607.913	10973
608.391	10921
608.87	10862
609.348	10696
609.827	10714
610.306	10822
610.785	10855
611.263	10806
611.742	10726
612.221	10583
612.7	10732
613.179	10802
613.658	10686
614.137	10852
614.616	10923
615.095	10751
615.574	10885
616.053	10968
616.532	10876
617.011	10905
617.491	11005
617.97	10974
618.449	11106
618.928	11159
619.408	11054
619.887	11177
620.367	11219
620.846	11321
621.326	11251
621.805	11506
622.285	11478
622.764	11548
623.244	11556
623.724	11624
624.203	11694
624.683	11507
625.163	11712
625.643	11687
626.123	11574
626.602	11809
627.082	11560
627.562	11538
628.042	11759
628.522	11632
629.002	11554
629.482	11650
629.963	11676
630.443	11614
630.923	11616
631.403	11673
631.883	11627
632.364	11636
632.844	11555
633.324	11627
633.805	11695
634.285	11538
634.766	11454
635.246	11466
635.727	11450
636.207	11444
636.688	11424
637.168	11426
637.649	11347
638.13	11337
638.611	11415
639.091	11389
639.572	11328
640.053	11269
640.534	11354
641.015	11297
641.496	11139
641.977	11334
642.458	11241
642.939	11317
643.42	11374
643.901	11326
644.382	11416
644.863	11364
645.345	11306
645.826	11304
646.307	11300
646.788	11486
647.27	11289
647.751	11298
648.233	11362
648.714	11117
649.196	11422
649.677	11358
650.159	11348
650.64	11227
651.122	11423
651.603	11275
652.085	11370
652.567	11452
653.049	11357
653.53	11357
654.012	11497
654.494	11307
654.976	11474
655.458	11408
655.94	11370
656.422	11557
656.904	11380
657.386	11273
657.868	11281
658.35	11202
658.833	11290
659.315	11316
659.797	11126
660.279	11055
660.762	11097
661.244	11009
661.726	10872
662.209	10873
662.691	10860
663.174	10697
663.656	10775
664.139	10793
664.621	10653
665.104	10591
665.587	10743
666.069	10792
666.552	10785
667.035	10648
667.517	10662
668	10772
668.483	10748
668.966	10662
669.449	10613
669.932	10620
670.415	10721
670.898	10654
671.381	10681
671.864	10682
672.347	10533
672.83	10535
673.313	10554
673.797	10529
674.28	10751
674.763	10793
675.247	10788
675.73	10676
676.213	10784
676.697	10840
677.18	10849
677.664	10865
678.147	10831
678.631	10895
679.114	10946
679.598	10964
680.082	11076
680.565	11054
681.049	11023
681.533	10993
682.017	11026
682.5	10950
682.984	11003
683.468	11021
683.952	10829
684.436	11026
684.92	10880
685.404	10944
685.888	11046
686.372	10945
686.856	10968
687.341	11058
687.825	10923
688.309	10975
688.793	11004
689.278	10856
689.762	10925
690.246	10857
690.731	10883
691.215	10959
691.7	10704
692.184	10806
692.669	10711
693.153	10744
693.638	10553
694.122	10526
694.607	10647
695.092	10508
695.577	10570
696.061	10359
696.546	10375
697.031	10367
697.516	10460
698.001	10488
698.486	10376
698.971	10438
699.456	10202
699.941	10194
700.426	10203
700.911	10365
701.396	10305
701.881	10372
702.366	10283
702.852	10208
703.337	10249
703.822	10236
704.308	10278
704.793	10328
705.278	10351
705.764	10398
706.249	10339
706.735	10320
707.22	10400
707.706	10240
708.191	10398
708.677	10369
709.163	10210
709.648	10216
710.134	10384
710.62	10277
711.106	10325
711.592	10490
712.077	10444
712.563	10145
713.049	10119
713.535	10326
714.021	10271
714.507	10193
714.993	10054
715.479	10128
715.966	9988
716.452	10028
716.938	10102
717.424	9848
717.91	10054
718.397	9981
718.883	9904
719.369	9936
719.856	9818
720.342	9959
720.829	9850
721.315	9890
721.802	9787
722.288	9826
722.775	9424
723.262	9165
723.748	9534
724.235	9475
724.722	9599
725.208	9420
725.695	9405
726.182	9378
726.669	9273
727.156	9331
727.643	9202
728.13	9160
728.617	9045
729.104	9063
729.591	8987
730.078	9095
730.565	9106
731.052	8996
731.539	9032
732.027	8929
732.514	8774
733.001	8862
733.488	8793
733.976	8805
734.463	8770
734.951	8783
735.438	8843
735.926	8717
736.413	8747
736.901	8667
737.388	8728
737.876	8703
738.364	8674
738.851	8745
739.339	8760
739.827	8845
740.314	8551
740.802	8562
741.29	8556
741.778	8456
742.266	8466
742.754	8490
743.242	8554
743.73	8380
744.218	8356
744.706	8264
745.194	8333
745.682	8299
746.17	8330
746.659	8325
747.147	8127
747.635	8151
748.123	8087
748.612	7973
749.1	7949
749.589	8045
750.077	8030
750.566	8014
751.054	8086
751.543	8105
752.031	7910
752.52	7851
753.008	7667
753.497	7693
753.986	7667
754.474	7654
754.963	7725
755.452	7574
755.941	7534
756.43	7513
756.919	7448
757.408	7389
757.896	7413
758.385	7431
758.875	7327
759.364	7254
759.853	7169
760.342	7064
760.831	7225
761.32	7161
761.809	7049
762.299	7083
762.788	7072
763.277	7028
763.767	6906
764.256	6902
764.745	6848
765.235	6957
765.724	6745
766.214	6821
766.703	6694
767.193	6610
767.683	6605
768.172	6472
768.662	6512
769.152	6475
769.641	6500
770.131	6344
770.621	6429
771.111	6325
771.601	6321
772.09	6292
772.58	6231
773.07	6238
773.56	6276
774.05	6136
774.54	6102
775.031	6070
775.521	6060
776.011	6047
776.501	6081
776.991	5936
777.482	5981
777.972	5812
778.462	5798
778.953	5827
779.443	5789
779.933	5776
780.424	5718
780.914	5780
781.405	5781
781.895	5697
782.386	5665
782.877	5619
783.367	5519
783.858	5470
784.349	5469
784.839	5437
785.33	5469
785.821	5454
786.312	5407
786.803	5422
787.293	5425
787.784	5344
788.275	5262
788.766	5204
789.257	5275
789.748	5142
790.24	5080
790.731	5096
791.222	4986
791.713	4956
792.204	4965
792.696	4855
793.187	4917
793.678	4889
794.169	4730
794.661	4790
795.152	4710
795.644	4659
796.135	4648
796.627	4693
797.118	4595
797.61	4545
798.101	4484
798.593	4531
799.085	4464
799.576	4487
800.068	4416
800.56	4425
801.052	4326
801.544	4326
802.035	4321
802.527	4246
803.019	4182
803.511	4128
804.003	4105
804.495	4138
804.987	4100
805.479	4023
805.971	4046
806.464	4030
806.956	3909
807.448	3881
807.94	3879
808.433	3851
808.925	3828
809.417	3790
809.91	3766
810.402	3655
810.894	3673
811.387	3705
811.879	3651
812.372	3684
812.865	3654
813.357	3657
813.85	3629
814.342	3603
814.835	3599
815.328	3566
815.821	3511
816.313	3487
816.806	3491
817.299	3437
817.792	3452
818.285	3392
818.778	3429
819.271	3424
819.764	3396
820.257	3405
820.75	3403
821.243	3403
821.736	3355
822.229	3375
822.722	3357
823.216	3422
