Data from lamp4bck_noballon_Subt2__69__269.txt Node

Date: Wed Apr 09 11:11:16 CEST 2025
User: fys-lab-0081
Spectrometer: S04999
Trigger mode: 0
Resolution mode: 1024 pixels
Integration Time (sec): 1.000000E-1
Scans to average: 1
Nonlinearity correction enabled: false
Boxcar width: 0
Baseline correction enabled: true
XAxis mode: Wavelengths
Number of Pixels in Spectrum: 1024
>>>>>Begin Spectral Data<<<<<
336.42	6
336.877	8
337.334	6
337.792	8
338.249	8
338.706	9
339.164	6
339.621	9
340.079	9
340.536	11
340.994	11
341.452	7
341.909	12
342.367	7
342.825	5
343.283	9
343.741	2
344.198	10
344.656	6
345.114	11
345.572	14
346.03	8
346.488	9
346.947	9
347.405	14
347.863	7
348.321	9
348.779	11
349.238	9
349.696	17
350.154	8
350.613	11
351.071	15
351.53	22
351.988	18
352.447	13
352.905	11
353.364	13
353.823	19
354.282	18
354.74	12
355.199	18
355.658	21
356.117	15
356.576	20
357.035	17
357.494	21
357.953	18
358.412	22
358.871	18
359.33	20
359.789	19
360.249	27
360.708	25
361.167	26
361.626	27
362.086	25
362.545	25
363.005	28
363.464	29
363.924	31
364.383	29
364.843	34
365.303	37
365.762	37
366.222	36
366.682	36
367.142	40
367.601	36
368.061	37
368.521	34
368.981	37
369.441	45
369.901	43
370.361	40
370.821	34
371.282	46
371.742	46
372.202	45
372.662	45
373.123	46
373.583	51
374.043	51
374.504	45
374.964	53
375.425	55
375.885	55
376.346	56
376.806	61
377.267	56
377.728	63
378.188	66
378.649	61
379.11	66
379.571	63
380.032	69
380.493	71
380.954	76
381.414	70
381.876	76
382.337	78
382.798	81
383.259	88
383.72	89
384.181	86
384.642	90
385.104	97
385.565	104
386.026	109
386.488	107
386.949	111
387.411	113
387.872	115
388.334	122
388.795	122
389.257	128
389.719	127
390.181	131
390.642	131
391.104	133
391.566	144
392.028	144
392.49	150
392.952	152
393.414	156
393.876	162
394.338	160
394.8	163
395.262	162
395.724	173
396.186	172
396.648	171
397.111	177
397.573	184
398.035	181
398.498	188
398.96	186
399.423	193
399.885	200
400.348	203
400.81	208
401.273	207
401.736	211
402.198	227
402.661	237
403.124	228
403.587	238
404.049	244
404.512	250
404.975	257
405.438	249
405.901	263
406.364	264
406.827	263
407.29	262
407.754	259
408.217	268
408.68	271
409.143	275
409.607	284
410.07	285
410.533	276
410.997	289
411.46	292
411.924	301
412.387	302
412.851	309
413.314	318
413.778	320
414.242	327
414.705	338
415.169	336
415.633	334
416.097	337
416.561	340
417.024	353
417.488	337
417.952	347
418.416	341
418.88	345
419.344	343
419.809	350
420.273	367
420.737	362
421.201	368
421.665	377
422.13	384
422.594	398
423.059	400
423.523	413
423.987	412
424.452	426
424.916	433
425.381	447
425.846	446
426.31	456
426.775	467
427.24	473
427.704	470
428.169	475
428.634	478
429.099	472
429.564	478
430.029	477
430.494	479
430.959	484
431.424	480
431.889	498
432.354	507
432.819	497
433.284	532
433.75	529
434.215	551
434.68	552
435.146	561
435.611	579
436.077	601
436.542	599
437.008	629
437.473	627
437.939	631
438.404	652
438.87	667
439.336	650
439.801	646
440.267	662
440.733	675
441.199	677
441.665	685
442.131	709
442.596	692
443.062	714
443.529	751
443.995	759
444.461	769
444.927	805
445.393	820
445.859	856
446.325	869
446.792	915
447.258	909
447.724	941
448.191	980
448.657	981
449.124	1009
449.59	996
450.057	1056
450.523	1059
450.99	1088
451.457	1067
451.923	1103
452.39	1090
452.857	1124
453.324	1113
453.791	1128
454.257	1129
454.724	1151
455.191	1157
455.658	1152
456.125	1195
456.592	1172
457.059	1198
457.527	1216
457.994	1251
458.461	1257
458.928	1287
459.396	1280
459.863	1317
460.33	1310
460.798	1309
461.265	1338
461.732	1327
462.2	1366
462.668	1357
463.135	1375
463.603	1331
464.07	1376
464.538	1335
465.006	1381
465.474	1354
465.941	1363
466.409	1374
466.877	1344
467.345	1382
467.813	1366
468.281	1379
468.749	1404
469.217	1404
469.685	1428
470.153	1462
470.621	1457
471.09	1469
471.558	1541
472.026	1541
472.494	1581
472.963	1601
473.431	1642
473.9	1683
474.368	1716
474.837	1739
475.305	1764
475.774	1793
476.242	1838
476.711	1832
477.18	1898
477.648	1886
478.117	1897
478.586	1883
479.055	1888
479.524	1914
479.993	1906
480.462	1905
480.93	1916
481.399	1908
481.869	1936
482.338	1923
482.807	1951
483.276	1929
483.745	1936
484.214	1992
484.684	2024
485.153	2040
485.622	2062
486.092	2129
486.561	2091
487.031	2165
487.5	2204
487.97	2224
488.439	2292
488.909	2363
489.378	2443
489.848	2443
490.318	2483
490.787	2583
491.257	2602
491.727	2615
492.197	2648
492.667	2645
493.137	2689
493.607	2716
494.077	2740
494.547	2703
495.017	2693
495.487	2734
495.957	2798
496.427	2730
496.897	2730
497.368	2777
497.838	2748
498.308	2784
498.779	2840
499.249	2851
499.719	2890
500.19	2920
500.66	2929
501.131	2955
501.602	3012
502.072	3007
502.543	3054
503.014	3168
503.484	3150
503.955	3254
504.426	3376
504.897	3387
505.368	3447
505.838	3545
506.309	3636
506.78	3725
507.251	3781
507.722	3872
508.194	3965
508.665	4018
509.136	4003
509.607	4139
510.078	4154
510.549	4162
511.021	4281
511.492	4294
511.964	4349
512.435	4421
512.906	4388
513.378	4411
513.849	4486
514.321	4512
514.793	4560
515.264	4625
515.736	4672
516.208	4760
516.679	4812
517.151	4832
517.623	4861
518.095	4952
518.567	4994
519.038	5097
519.51	5063
519.982	5125
520.454	5198
520.927	5277
521.399	5385
521.871	5442
522.343	5457
522.815	5468
523.287	5469
523.76	5521
524.232	5620
524.704	5650
525.177	5557
525.649	5576
526.122	5641
526.594	5505
527.067	5649
527.539	5747
528.012	5699
528.484	5675
528.957	5701
529.43	5696
529.903	5659
530.375	5851
530.848	5725
531.321	5821
531.794	5806
532.267	5922
532.74	5837
533.213	5812
533.686	5901
534.159	5881
534.632	6027
535.105	6072
535.578	6215
536.051	6251
536.525	6256
536.998	6220
537.471	6371
537.945	6326
538.418	6426
538.891	6429
539.365	6512
539.838	6535
540.312	6524
540.786	6532
541.259	6514
541.733	6641
542.206	6670
542.68	6596
543.154	6594
543.628	6619
544.101	6736
544.575	6616
545.049	6433
545.523	6551
545.997	6558
546.471	6609
546.945	6563
547.419	6684
547.893	6451
548.367	6599
548.842	6521
549.316	6560
549.79	6587
550.264	6529
550.739	6608
551.213	6612
551.687	6608
552.162	6667
552.636	6585
553.111	6595
553.585	6813
554.06	6739
554.534	6853
555.009	6818
555.484	6922
555.958	7024
556.433	7012
556.908	7090
557.383	7039
557.858	7231
558.333	7244
558.807	7213
559.282	7273
559.757	7471
560.232	7436
560.708	7308
561.183	7258
561.658	7349
562.133	7334
562.608	7257
563.083	7431
563.559	7291
564.034	7338
564.509	7323
564.985	7343
565.46	7243
565.936	7392
566.411	7359
566.887	7284
567.362	7389
567.838	7425
568.313	7495
568.789	7326
569.265	7307
569.74	7367
570.216	7297
570.692	7400
571.168	7401
571.644	7440
572.12	7458
572.596	7532
573.071	7550
573.547	7787
574.024	7863
574.5	7892
574.976	7901
575.452	8015
575.928	8140
576.404	8224
576.881	8465
577.357	8281
577.833	8311
578.31	8539
578.786	8601
579.262	8699
579.739	8586
580.215	8800
580.692	8787
581.169	8728
581.645	8772
582.122	9044
582.598	9050
583.075	9055
583.552	9085
584.029	9009
584.506	8897
584.982	8845
585.459	9076
585.936	8977
586.413	9058
586.89	9236
587.367	9157
587.844	9298
588.321	9176
588.799	9197
589.276	9155
589.753	9318
590.23	9344
590.707	9304
591.185	9304
591.662	9344
592.139	9415
592.617	9509
593.094	9468
593.572	9531
594.049	9632
594.527	9734
595.004	9791
595.482	10034
595.96	9977
596.437	9991
596.915	10222
597.393	10067
597.871	10307
598.349	10223
598.826	10397
599.304	10347
599.782	10555
600.26	10484
600.738	10721
601.216	10651
601.694	10699
602.173	10723
602.651	10752
603.129	10579
603.607	10634
604.085	10691
604.564	10733
605.042	10800
605.52	10725
605.999	10974
606.477	10682
606.956	10700
607.434	10838
607.913	10976
608.391	10930
608.87	10864
609.348	10693
609.827	10716
610.306	10808
610.785	10852
611.263	10807
611.742	10713
612.221	10587
612.7	10738
613.179	10805
613.658	10683
614.137	10845
614.616	10928
615.095	10759
615.574	10896
616.053	10975
616.532	10879
617.011	10911
617.491	11012
617.97	10983
618.449	11111
618.928	11168
619.408	11068
619.887	11200
620.367	11212
620.846	11324
621.326	11247
621.805	11511
622.285	11500
622.764	11558
623.244	11561
623.724	11638
624.203	11695
624.683	11506
625.163	11719
625.643	11695
626.123	11572
626.602	11816
627.082	11571
627.562	11546
628.042	11772
628.522	11663
629.002	11563
629.482	11657
629.963	11681
630.443	11602
630.923	11619
631.403	11668
631.883	11624
632.364	11659
632.844	11564
633.324	11621
633.805	11700
634.285	11547
634.766	11443
635.246	11471
635.727	11459
636.207	11441
636.688	11426
637.168	11423
637.649	11366
638.13	11345
638.611	11407
639.091	11379
639.572	11332
640.053	11290
640.534	11363
641.015	11301
641.496	11149
641.977	11333
642.458	11242
642.939	11332
643.42	11354
643.901	11330
644.382	11423
644.863	11356
645.345	11308
645.826	11301
646.307	11300
646.788	11470
647.27	11282
647.751	11310
648.233	11365
648.714	11119
649.196	11423
649.677	11373
650.159	11350
650.64	11239
651.122	11436
651.603	11272
652.085	11383
652.567	11459
653.049	11370
653.53	11351
654.012	11508
654.494	11311
654.976	11461
655.458	11423
655.94	11383
656.422	11545
656.904	11374
657.386	11268
657.868	11281
658.35	11216
658.833	11295
659.315	11330
659.797	11133
660.279	11063
660.762	11088
661.244	11007
661.726	10870
662.209	10893
662.691	10877
663.174	10703
663.656	10783
664.139	10783
664.621	10672
665.104	10606
665.587	10743
666.069	10816
666.552	10783
667.035	10644
667.517	10667
668	10790
668.483	10756
668.966	10655
669.449	10612
669.932	10615
670.415	10743
670.898	10664
671.381	10697
671.864	10678
672.347	10529
672.83	10538
673.313	10562
673.797	10542
674.28	10756
674.763	10792
675.247	10790
675.73	10697
676.213	10779
676.697	10828
677.18	10844
677.664	10865
678.147	10823
678.631	10900
679.114	10963
679.598	10973
680.082	11077
680.565	11074
681.049	11026
681.533	11005
682.017	11045
682.5	10963
682.984	10999
683.468	11027
683.952	10829
684.436	11015
684.92	10882
685.404	10939
685.888	11035
686.372	10956
686.856	10969
687.341	11076
687.825	10931
688.309	10976
688.793	11002
689.278	10863
689.762	10934
690.246	10859
690.731	10887
691.215	10970
691.7	10693
692.184	10818
692.669	10708
693.153	10736
693.638	10554
694.122	10544
694.607	10652
695.092	10508
695.577	10570
696.061	10344
696.546	10387
697.031	10371
697.516	10471
698.001	10474
698.486	10392
698.971	10441
699.456	10191
699.941	10191
700.426	10195
700.911	10348
701.396	10307
701.881	10378
702.366	10287
702.852	10221
703.337	10252
703.822	10248
704.308	10276
704.793	10334
705.278	10352
705.764	10404
706.249	10336
706.735	10321
707.22	10394
707.706	10237
708.191	10394
708.677	10365
709.163	10216
709.648	10216
710.134	10366
710.62	10284
711.106	10324
711.592	10492
712.077	10448
712.563	10151
713.049	10113
713.535	10326
714.021	10277
714.507	10209
714.993	10063
715.479	10114
715.966	9992
716.452	10034
716.938	10113
717.424	9850
717.91	10056
718.397	9963
718.883	9915
719.369	9918
719.856	9809
720.342	9960
720.829	9848
721.315	9902
721.802	9790
722.288	9821
722.775	9415
723.262	9170
723.748	9527
724.235	9474
724.722	9597
725.208	9411
725.695	9401
726.182	9385
726.669	9281
727.156	9323
727.643	9213
728.13	9162
728.617	9052
729.104	9059
729.591	9005
730.078	9093
730.565	9126
731.052	8997
731.539	9017
732.027	8931
732.514	8773
733.001	8863
733.488	8799
733.976	8796
734.463	8776
734.951	8784
735.438	8847
735.926	8720
736.413	8745
736.901	8671
737.388	8729
737.876	8707
738.364	8669
738.851	8757
739.339	8770
739.827	8842
740.314	8555
740.802	8565
741.29	8542
741.778	8461
742.266	8485
742.754	8482
743.242	8547
743.73	8389
744.218	8367
744.706	8258
745.194	8334
745.682	8310
746.17	8333
746.659	8340
747.147	8141
747.635	8138
748.123	8077
748.612	7984
749.1	7963
749.589	8051
750.077	8020
750.566	8023
751.054	8090
751.543	8105
752.031	7921
752.52	7850
753.008	7668
753.497	7683
753.986	7671
754.474	7655
754.963	7710
755.452	7583
755.941	7528
756.43	7516
756.919	7453
757.408	7394
757.896	7411
758.385	7418
758.875	7331
759.364	7259
759.853	7187
760.342	7068
760.831	7226
761.32	7147
761.809	7060
762.299	7086
762.788	7066
763.277	7018
763.767	6904
764.256	6905
764.745	6833
765.235	6949
765.724	6746
766.214	6819
766.703	6710
767.193	6601
767.683	6602
768.172	6480
768.662	6514
769.152	6475
769.641	6507
770.131	6348
770.621	6426
771.111	6332
771.601	6322
772.09	6287
772.58	6228
773.07	6250
773.56	6274
774.05	6134
774.54	6091
775.031	6066
775.521	6063
776.011	6053
776.501	6081
776.991	5933
777.482	5988
777.972	5829
778.462	5802
778.953	5823
779.443	5791
779.933	5781
780.424	5730
780.914	5768
781.405	5780
781.895	5698
782.386	5663
782.877	5618
783.367	5505
783.858	5468
784.349	5470
784.839	5431
785.33	5464
785.821	5455
786.312	5416
786.803	5422
787.293	5427
787.784	5348
788.275	5260
788.766	5204
789.257	5279
789.748	5144
790.24	5085
790.731	5102
791.222	4989
791.713	4949
792.204	4971
792.696	4851
793.187	4920
793.678	4891
794.169	4739
794.661	4788
795.152	4715
795.644	4668
796.135	4645
796.627	4681
797.118	4586
797.61	4549
798.101	4479
798.593	4541
799.085	4476
799.576	4483
800.068	4412
800.56	4417
801.052	4330
801.544	4317
802.035	4323
802.527	4242
803.019	4187
803.511	4139
804.003	4103
804.495	4146
804.987	4112
805.479	4022
805.971	4051
806.464	4027
806.956	3907
807.448	3879
807.94	3878
808.433	3853
808.925	3830
809.417	3790
809.91	3767
810.402	3657
810.894	3681
811.387	3708
811.879	3640
812.372	3684
812.865	3654
813.357	3649
813.85	3626
814.342	3600
814.835	3606
815.328	3562
815.821	3510
816.313	3496
816.806	3496
817.299	3430
817.792	3446
818.285	3392
818.778	3433
819.271	3433
819.764	3393
820.257	3401
820.75	3403
821.243	3412
821.736	3359
822.229	3381
822.722	3359
823.216	3416
