Data from lamp4bck_noballon_Subt2__10__210.txt Node

Date: Wed Apr 09 11:11:09 CEST 2025
User: fys-lab-0081
Spectrometer: S04999
Trigger mode: 0
Resolution mode: 1024 pixels
Integration Time (sec): 1.000000E-1
Scans to average: 1
Nonlinearity correction enabled: false
Boxcar width: 0
Baseline correction enabled: true
XAxis mode: Wavelengths
Number of Pixels in Spectrum: 1024
>>>>>Begin Spectral Data<<<<<
336.42	2
336.877	4
337.334	9
337.792	7
338.249	8
338.706	7
339.164	6
339.621	5
340.079	8
340.536	8
340.994	5
341.452	12
341.909	7
342.367	5
342.825	4
343.283	18
343.741	9
344.198	4
344.656	7
345.114	8
345.572	13
346.03	7
346.488	6
346.947	6
347.405	13
347.863	9
348.321	8
348.779	14
349.238	9
349.696	14
350.154	9
350.613	11
351.071	14
351.53	20
351.988	21
352.447	15
352.905	11
353.364	16
353.823	18
354.282	15
354.74	13
355.199	19
355.658	21
356.117	20
356.576	16
357.035	16
357.494	22
357.953	22
358.412	23
358.871	21
359.33	20
359.789	23
360.249	27
360.708	24
361.167	24
361.626	27
362.086	28
362.545	24
363.005	28
363.464	30
363.924	31
364.383	29
364.843	29
365.303	38
365.762	39
366.222	36
366.682	35
367.142	37
367.601	36
368.061	37
368.521	39
368.981	37
369.441	44
369.901	45
370.361	41
370.821	38
371.282	43
371.742	46
372.202	48
372.662	47
373.123	46
373.583	47
374.043	52
374.504	52
374.964	49
375.425	50
375.885	52
376.346	61
376.806	61
377.267	53
377.728	63
378.188	65
378.649	61
379.11	64
379.571	62
380.032	67
380.493	69
380.954	72
381.414	71
381.876	76
382.337	79
382.798	81
383.259	87
383.72	90
384.181	88
384.642	93
385.104	99
385.565	100
386.026	104
386.488	109
386.949	109
387.411	112
387.872	114
388.334	117
388.795	122
389.257	129
389.719	125
390.181	129
390.642	129
391.104	135
391.566	140
392.028	142
392.49	149
392.952	154
393.414	157
393.876	160
394.338	161
394.8	163
395.262	161
395.724	174
396.186	172
396.648	175
397.111	175
397.573	189
398.035	186
398.498	187
398.96	188
399.423	192
399.885	202
400.348	203
400.81	208
401.273	212
401.736	211
402.198	229
402.661	232
403.124	228
403.587	240
404.049	245
404.512	250
404.975	252
405.438	250
405.901	259
406.364	262
406.827	262
407.29	265
407.754	261
408.217	266
408.68	270
409.143	278
409.607	286
410.07	282
410.533	279
410.997	292
411.46	293
411.924	302
412.387	309
412.851	307
413.314	314
413.778	316
414.242	323
414.705	338
415.169	333
415.633	334
416.097	334
416.561	343
417.024	349
417.488	337
417.952	347
418.416	342
418.88	341
419.344	349
419.809	355
420.273	365
420.737	353
421.201	372
421.665	379
422.13	380
422.594	398
423.059	404
423.523	413
423.987	414
424.452	426
424.916	425
425.381	448
425.846	447
426.31	457
426.775	463
427.24	476
427.704	465
428.169	472
428.634	473
429.099	475
429.564	472
430.029	480
430.494	473
430.959	484
431.424	476
431.889	501
432.354	510
432.819	495
433.284	527
433.75	529
434.215	552
434.68	551
435.146	560
435.611	580
436.077	603
436.542	598
437.008	626
437.473	626
437.939	630
438.404	649
438.87	667
439.336	646
439.801	646
440.267	665
440.733	678
441.199	684
441.665	683
442.131	707
442.596	693
443.062	710
443.529	748
443.995	760
444.461	770
444.927	807
445.393	820
445.859	854
446.325	859
446.792	915
447.258	915
447.724	941
448.191	975
448.657	978
449.124	1005
449.59	991
450.057	1058
450.523	1060
450.99	1087
451.457	1070
451.923	1106
452.39	1095
452.857	1119
453.324	1113
453.791	1131
454.257	1130
454.724	1142
455.191	1156
455.658	1158
456.125	1198
456.592	1174
457.059	1196
457.527	1215
457.994	1252
458.461	1263
458.928	1282
459.396	1270
459.863	1317
460.33	1302
460.798	1313
461.265	1337
461.732	1321
462.2	1374
462.668	1356
463.135	1373
463.603	1329
464.07	1368
464.538	1332
465.006	1381
465.474	1351
465.941	1363
466.409	1380
466.877	1340
467.345	1384
467.813	1369
468.281	1389
468.749	1405
469.217	1403
469.685	1425
470.153	1465
470.621	1463
471.09	1466
471.558	1533
472.026	1539
472.494	1584
472.963	1604
473.431	1644
473.9	1672
474.368	1715
474.837	1746
475.305	1760
475.774	1785
476.242	1834
476.711	1838
477.18	1898
477.648	1879
478.117	1885
478.586	1879
479.055	1894
479.524	1910
479.993	1901
480.462	1904
480.93	1924
481.399	1909
481.869	1929
482.338	1913
482.807	1946
483.276	1927
483.745	1928
484.214	1988
484.684	2016
485.153	2029
485.622	2055
486.092	2119
486.561	2083
487.031	2157
487.5	2193
487.97	2223
488.439	2288
488.909	2359
489.378	2437
489.848	2431
490.318	2478
490.787	2579
491.257	2600
491.727	2608
492.197	2641
492.667	2649
493.137	2679
493.607	2707
494.077	2737
494.547	2696
495.017	2687
495.487	2736
495.957	2796
496.427	2730
496.897	2724
497.368	2769
497.838	2751
498.308	2785
498.779	2837
499.249	2850
499.719	2883
500.19	2910
500.66	2929
501.131	2957
501.602	3009
502.072	3003
502.543	3048
503.014	3164
503.484	3155
503.955	3249
504.426	3361
504.897	3380
505.368	3448
505.838	3542
506.309	3625
506.78	3716
507.251	3775
507.722	3878
508.194	3959
508.665	4013
509.136	4010
509.607	4131
510.078	4157
510.549	4168
511.021	4268
511.492	4288
511.964	4348
512.435	4411
512.906	4388
513.378	4413
513.849	4487
514.321	4502
514.793	4561
515.264	4619
515.736	4665
516.208	4756
516.679	4794
517.151	4832
517.623	4865
518.095	4952
518.567	4981
519.038	5078
519.51	5053
519.982	5117
520.454	5185
520.927	5263
521.399	5364
521.871	5435
522.343	5443
522.815	5470
523.287	5453
523.76	5513
524.232	5612
524.704	5645
525.177	5538
525.649	5574
526.122	5629
526.594	5495
527.067	5649
527.539	5746
528.012	5697
528.484	5659
528.957	5695
529.43	5688
529.903	5647
530.375	5843
530.848	5722
531.321	5801
531.794	5795
532.267	5921
532.74	5840
533.213	5804
533.686	5908
534.159	5883
534.632	6024
535.105	6071
535.578	6206
536.051	6227
536.525	6244
536.998	6213
537.471	6369
537.945	6309
538.418	6425
538.891	6422
539.365	6504
539.838	6522
540.312	6503
540.786	6539
541.259	6507
541.733	6638
542.206	6654
542.68	6575
543.154	6588
543.628	6594
544.101	6718
544.575	6605
545.049	6419
545.523	6541
545.997	6537
546.471	6605
546.945	6545
547.419	6679
547.893	6446
548.367	6591
548.842	6527
549.316	6553
549.79	6575
550.264	6525
550.739	6615
551.213	6609
551.687	6609
552.162	6661
552.636	6580
553.111	6594
553.585	6815
554.06	6725
554.534	6843
555.009	6802
555.484	6915
555.958	7000
556.433	6996
556.908	7095
557.383	7022
557.858	7209
558.333	7236
558.807	7203
559.282	7266
559.757	7474
560.232	7438
560.708	7300
561.183	7228
561.658	7338
562.133	7321
562.608	7257
563.083	7431
563.559	7302
564.034	7322
564.509	7306
564.985	7332
565.46	7235
565.936	7376
566.411	7352
566.887	7283
567.362	7375
567.838	7417
568.313	7497
568.789	7315
569.265	7295
569.74	7363
570.216	7288
570.692	7401
571.168	7390
571.644	7429
572.12	7452
572.596	7511
573.071	7540
573.547	7779
574.024	7847
574.5	7869
574.976	7886
575.452	8007
575.928	8118
576.404	8222
576.881	8463
577.357	8277
577.833	8302
578.31	8530
578.786	8601
579.262	8668
579.739	8559
580.215	8794
580.692	8773
581.169	8733
581.645	8759
582.122	9029
582.598	9033
583.075	9030
583.552	9074
584.029	8992
584.506	8892
584.982	8839
585.459	9067
585.936	8953
586.413	9040
586.89	9232
587.367	9149
587.844	9266
588.321	9162
588.799	9198
589.276	9150
589.753	9310
590.23	9343
590.707	9296
591.185	9302
591.662	9329
592.139	9393
592.617	9506
593.094	9445
593.572	9537
594.049	9627
594.527	9716
595.004	9780
595.482	10017
595.96	9969
596.437	9977
596.915	10223
597.393	10060
597.871	10298
598.349	10211
598.826	10385
599.304	10343
599.782	10539
600.26	10466
600.738	10706
601.216	10638
601.694	10685
602.173	10728
602.651	10758
603.129	10561
603.607	10626
604.085	10679
604.564	10722
605.042	10795
605.52	10707
605.999	10964
606.477	10661
606.956	10680
607.434	10824.5
607.913	10969
608.391	10917
608.87	10865
609.348	10680
609.827	10706
610.306	10809
610.785	10828
611.263	10806
611.742	10719
612.221	10588
612.7	10733
613.179	10802
613.658	10678
614.137	10830
614.616	10918
615.095	10747
615.574	10885
616.053	10963
616.532	10872
617.011	10899
617.491	11001
617.97	10973
618.449	11091
618.928	11154
619.408	11063
619.887	11176
620.367	11207
620.846	11313
621.326	11245
621.805	11493
622.285	11484
622.764	11543
623.244	11544
623.724	11624
624.203	11673
624.683	11499
625.163	11712
625.643	11683
626.123	11573
626.602	11798
627.082	11551
627.562	11540
628.042	11757
628.522	11642
629.002	11551
629.482	11648
629.963	11684
630.443	11609
630.923	11602
631.403	11672
631.883	11623
632.364	11642
632.844	11548
633.324	11615
633.805	11692
634.285	11534
634.766	11443
635.246	11461
635.727	11441
636.207	11430
636.688	11428
637.168	11403
637.649	11346
638.13	11330
638.611	11409
639.091	11377
639.572	11321
640.053	11281
640.534	11337
641.015	11287
641.496	11128
641.977	11317
642.458	11239
642.939	11315
643.42	11366
643.901	11324
644.382	11411
644.863	11336
645.345	11292
645.826	11297
646.307	11293
646.788	11476
647.27	11273
647.751	11284
648.233	11360
648.714	11100
649.196	11414
649.677	11345
650.159	11351
650.64	11236
651.122	11432
651.603	11257
652.085	11373
652.567	11443
653.049	11367
653.53	11337
654.012	11498
654.494	11303
654.976	11455
655.458	11411
655.94	11366
656.422	11545
656.904	11368
657.386	11265
657.868	11281
658.35	11196
658.833	11298
659.315	11320
659.797	11129
660.279	11059
660.762	11095
661.244	10996
661.726	10856
662.209	10877
662.691	10859
663.174	10686
663.656	10780
664.139	10786
664.621	10645
665.104	10587
665.587	10744
666.069	10808
666.552	10766
667.035	10639
667.517	10658
668	10765
668.483	10765
668.966	10657
669.449	10612
669.932	10615
670.415	10720
670.898	10660
671.381	10681
671.864	10671
672.347	10525
672.83	10518
673.313	10546
673.797	10536
674.28	10743
674.763	10791
675.247	10784
675.73	10682
676.213	10773
676.697	10818
677.18	10833
677.664	10870
678.147	10821
678.631	10891
679.114	10948
679.598	10946
680.082	11072
680.565	11037
681.049	11011
681.533	10992
682.017	11024
682.5	10950
682.984	10998
683.468	11011
683.952	10826
684.436	11004
684.92	10874
685.404	10944
685.888	11026
686.372	10935
686.856	10959
687.341	11061
687.825	10920
688.309	10969
688.793	10996
689.278	10853
689.762	10920
690.246	10856
690.731	10878
691.215	10942
691.7	10701
692.184	10819
692.669	10712
693.153	10735
693.638	10554
694.122	10539
694.607	10652
695.092	10507
695.577	10568
696.061	10355
696.546	10385
697.031	10358
697.516	10458
698.001	10486
698.486	10386
698.971	10434
699.456	10187
699.941	10181
700.426	10195
700.911	10342
701.396	10313
701.881	10363
702.366	10280
702.852	10208
703.337	10253
703.822	10234
704.308	10255
704.793	10328
705.278	10341
705.764	10400
706.249	10332
706.735	10311
707.22	10395
707.706	10243
708.191	10392
708.677	10368
709.163	10204
709.648	10217
710.134	10375
710.62	10282
711.106	10320
711.592	10486
712.077	10437
712.563	10136
713.049	10104
713.535	10318
714.021	10279
714.507	10192
714.993	10055
715.479	10123
715.966	9981
716.452	10030
716.938	10104
717.424	9852
717.91	10045
718.397	9959
718.883	9889
719.369	9915
719.856	9808
720.342	9960
720.829	9849
721.315	9891
721.802	9791
722.288	9808
722.775	9404
723.262	9157
723.748	9530
724.235	9468
724.722	9591
725.208	9410
725.695	9390
726.182	9374
726.669	9276
727.156	9323
727.643	9202
728.13	9160
728.617	9047
729.104	9072
729.591	8990
730.078	9084
730.565	9113
731.052	8990
731.539	9024
732.027	8928
732.514	8774
733.001	8849
733.488	8799
733.976	8801
734.463	8775
734.951	8774
735.438	8847
735.926	8709
736.413	8742
736.901	8665
737.388	8724
737.876	8705
738.364	8671
738.851	8765
739.339	8765
739.827	8849
740.314	8555
740.802	8562
741.29	8540
741.778	8452
742.266	8475
742.754	8499
743.242	8552
743.73	8371
744.218	8361
744.706	8263
745.194	8338
745.682	8292
746.17	8321
746.659	8333
747.147	8126
747.635	8134
748.123	8088
748.612	7963
749.1	7945
749.589	8047
750.077	8033
750.566	8025
751.054	8081
751.543	8110
752.031	7913
752.52	7838
753.008	7655
753.497	7684
753.986	7667
754.474	7650
754.963	7720
755.452	7566
755.941	7529
756.43	7514
756.919	7452
757.408	7386
757.896	7407
758.385	7423
758.875	7328
759.364	7254
759.853	7171
760.342	7064
760.831	7213
761.32	7159
761.809	7061
762.299	7088
762.788	7059
763.277	7027
763.767	6903
764.256	6894
764.745	6835
765.235	6953
765.724	6746
766.214	6811
766.703	6695
767.193	6601
767.683	6602
768.172	6473
768.662	6514
769.152	6473
769.641	6498
770.131	6353
770.621	6429
771.111	6330
771.601	6320
772.09	6296
772.58	6230
773.07	6247
773.56	6279
774.05	6143
774.54	6092
775.031	6072
775.521	6069
776.011	6056
776.501	6085
776.991	5924
777.482	5976
777.972	5824
778.462	5803
778.953	5819
779.443	5789
779.933	5777
780.424	5725
780.914	5766
781.405	5768
781.895	5705
782.386	5668
782.877	5623
783.367	5516
783.858	5461
784.349	5467
784.839	5438
785.33	5465
785.821	5455
786.312	5407
786.803	5432
787.293	5429
787.784	5336
788.275	5258
788.766	5202
789.257	5277
789.748	5148
790.24	5085
790.731	5086
791.222	4991
791.713	4956
792.204	4966
792.696	4846
793.187	4921
793.678	4895
794.169	4740
794.661	4792
795.152	4710
795.644	4672
796.135	4650
796.627	4681
797.118	4596
797.61	4542
798.101	4477
798.593	4544
799.085	4462
799.576	4487
800.068	4415
800.56	4421
801.052	4325
801.544	4310
802.035	4328
802.527	4249
803.019	4185
803.511	4133
804.003	4110
804.495	4143
804.987	4099
805.479	4023
805.971	4042
806.464	4017
806.956	3904
807.448	3879
807.94	3884
808.433	3855
808.925	3827
809.417	3786
809.91	3767
810.402	3660
810.894	3681
811.387	3703
811.879	3643
812.372	3675
812.865	3650
813.357	3647
813.85	3638
814.342	3604
814.835	3595
815.328	3571
815.821	3506
816.313	3491
816.806	3493
817.299	3426
817.792	3444
818.285	3393
818.778	3439
819.271	3436
819.764	3382
820.257	3401
820.75	3398
821.243	3406
821.736	3350
822.229	3379
822.722	3359
823.216	3419
