Data from lamp4bck_noballon_Subt2__54__254.txt Node

Date: Wed Apr 09 11:11:14 CEST 2025
User: fys-lab-0081
Spectrometer: S04999
Trigger mode: 0
Resolution mode: 1024 pixels
Integration Time (sec): 1.000000E-1
Scans to average: 1
Nonlinearity correction enabled: false
Boxcar width: 0
Baseline correction enabled: true
XAxis mode: Wavelengths
Number of Pixels in Spectrum: 1024
>>>>>Begin Spectral Data<<<<<
336.42	4
336.877	4
337.334	10
337.792	3
338.249	6
338.706	7
339.164	6
339.621	10
340.079	7
340.536	9
340.994	5
341.452	8
341.909	14
342.367	1
342.825	7
343.283	9
343.741	7
344.198	8
344.656	5
345.114	8
345.572	12
346.03	8
346.488	8
346.947	9
347.405	9
347.863	8
348.321	10
348.779	12
349.238	11
349.696	16
350.154	6
350.613	16
351.071	14
351.53	19
351.988	19
352.447	13
352.905	15
353.364	15
353.823	19
354.282	20
354.74	13
355.199	21
355.658	23
356.117	17
356.576	19
357.035	20
357.494	17
357.953	22
358.412	23
358.871	24
359.33	22
359.789	20
360.249	21
360.708	23
361.167	28
361.626	27
362.086	26
362.545	27
363.005	31
363.464	31
363.924	29
364.383	30
364.843	34
365.303	38
365.762	37
366.222	36
366.682	35
367.142	38
367.601	34
368.061	38
368.521	39
368.981	36
369.441	44
369.901	43
370.361	39
370.821	38
371.282	42
371.742	43
372.202	46
372.662	48
373.123	47
373.583	51
374.043	50
374.504	47
374.964	50
375.425	50
375.885	53
376.346	59
376.806	60
377.267	57
377.728	63
378.188	64
378.649	58
379.11	65
379.571	63
380.032	73
380.493	68
380.954	76
381.414	69
381.876	77
382.337	81
382.798	83
383.259	84
383.72	88
384.181	91
384.642	95
385.104	97
385.565	101
386.026	106
386.488	109
386.949	110
387.411	109
387.872	117
388.334	123
388.795	121
389.257	123
389.719	126
390.181	128
390.642	134
391.104	131
391.566	141
392.028	150
392.49	155
392.952	153
393.414	153
393.876	158
394.338	161
394.8	160
395.262	163
395.724	173
396.186	173
396.648	177
397.111	178
397.573	186
398.035	182
398.498	183
398.96	196
399.423	196
399.885	200
400.348	202
400.81	204
401.273	213
401.736	209
402.198	228
402.661	234
403.124	229
403.587	241
404.049	245
404.512	249
404.975	252
405.438	251
405.901	261
406.364	261
406.827	263
407.29	260
407.754	269
408.217	264
408.68	263
409.143	280
409.607	281
410.07	279
410.533	280
410.997	291
411.46	291
411.924	304
412.387	309
412.851	313
413.314	314
413.778	313
414.242	326
414.705	340
415.169	334
415.633	337
416.097	335
416.561	345
417.024	348
417.488	337
417.952	348
418.416	344
418.88	346
419.344	351
419.809	355
420.273	367
420.737	359
421.201	374
421.665	382
422.13	380
422.594	394
423.059	405
423.523	413
423.987	410
424.452	428
424.916	429
425.381	450
425.846	448
426.31	455
426.775	464
427.24	469
427.704	464
428.169	473
428.634	475
429.099	473
429.564	471
430.029	482
430.494	476
430.959	483
431.424	480
431.889	498
432.354	511
432.819	502
433.284	523
433.75	529
434.215	557
434.68	553
435.146	557
435.611	575
436.077	597
436.542	602
437.008	628
437.473	629
437.939	633
438.404	645
438.87	662
439.336	654
439.801	643
440.267	667
440.733	679
441.199	688
441.665	682
442.131	709
442.596	691
443.062	715
443.529	748
443.995	759
444.461	768
444.927	815
445.393	821
445.859	854
446.325	869
446.792	915
447.258	921
447.724	945
448.191	980
448.657	985
449.124	1010
449.59	999
450.057	1062
450.523	1064
450.99	1086
451.457	1076
451.923	1107
452.39	1092
452.857	1123
453.324	1116
453.791	1136
454.257	1126
454.724	1153
455.191	1158
455.658	1159
456.125	1202
456.592	1176
457.059	1200
457.527	1219
457.994	1257
458.461	1261
458.928	1281
459.396	1276
459.863	1322
460.33	1310
460.798	1309
461.265	1341
461.732	1328
462.2	1372
462.668	1358
463.135	1376
463.603	1330
464.07	1366
464.538	1341
465.006	1379
465.474	1352
465.941	1360
466.409	1375
466.877	1341
467.345	1385
467.813	1368
468.281	1392
468.749	1405
469.217	1412
469.685	1426
470.153	1466
470.621	1461
471.09	1468
471.558	1540
472.026	1542
472.494	1584
472.963	1597
473.431	1648
473.9	1680
474.368	1717
474.837	1743
475.305	1759
475.774	1789
476.242	1835
476.711	1842
477.18	1900
477.648	1885
478.117	1894
478.586	1887
479.055	1894
479.524	1915
479.993	1912
480.462	1904
480.93	1919
481.399	1919
481.869	1928
482.338	1919
482.807	1958
483.276	1929
483.745	1932
484.214	1989
484.684	2027
485.153	2037
485.622	2061
486.092	2131
486.561	2087
487.031	2171
487.5	2206
487.97	2221
488.439	2287
488.909	2367
489.378	2443
489.848	2442
490.318	2488
490.787	2582
491.257	2601
491.727	2613
492.197	2651
492.667	2653
493.137	2687
493.607	2719
494.077	2732
494.547	2702
495.017	2699
495.487	2730
495.957	2795
496.427	2738
496.897	2731
497.368	2781
497.838	2759
498.308	2801
498.779	2839
499.249	2855
499.719	2904
500.19	2916
500.66	2932
501.131	2959
501.602	3009
502.072	3007
502.543	3061
503.014	3178
503.484	3156
503.955	3259
504.426	3381
504.897	3393
505.368	3451
505.838	3548
506.309	3638
506.78	3727
507.251	3787
507.722	3881
508.194	3972
508.665	4024
509.136	4007
509.607	4140
510.078	4155
510.549	4168
511.021	4274
511.492	4296
511.964	4362
512.435	4423
512.906	4392
513.378	4422
513.849	4495
514.321	4511
514.793	4561
515.264	4634
515.736	4667
516.208	4763
516.679	4816
517.151	4844
517.623	4867
518.095	4956
518.567	4994
519.038	5090
519.51	5058
519.982	5123
520.454	5202
520.927	5271
521.399	5383
521.871	5446
522.343	5449
522.815	5486
523.287	5483
523.76	5525
524.232	5614
524.704	5639
525.177	5551
525.649	5576
526.122	5643
526.594	5503
527.067	5657
527.539	5761
528.012	5697
528.484	5681
528.957	5706
529.43	5698
529.903	5656
530.375	5862
530.848	5746
531.321	5828
531.794	5814
532.267	5941
532.74	5843
533.213	5823
533.686	5913
534.159	5904
534.632	6038
535.105	6071
535.578	6227
536.051	6239
536.525	6249
536.998	6240
537.471	6391
537.945	6332
538.418	6436
538.891	6427
539.365	6512
539.838	6551
540.312	6516
540.786	6543
541.259	6515
541.733	6643
542.206	6672
542.68	6595
543.154	6607
543.628	6619
544.101	6737
544.575	6620
545.049	6446
545.523	6547
545.997	6556
546.471	6616
546.945	6557
547.419	6685
547.893	6458
548.367	6612
548.842	6536
549.316	6572
549.79	6594
550.264	6534
550.739	6626
551.213	6618
551.687	6629
552.162	6672
552.636	6600
553.111	6598
553.585	6816
554.06	6749
554.534	6853
555.009	6813
555.484	6929
555.958	7023
556.433	7000
556.908	7111
557.383	7045
557.858	7244
558.333	7253
558.807	7229
559.282	7285
559.757	7492
560.232	7446
560.708	7312
561.183	7250
561.658	7361
562.133	7335
562.608	7267
563.083	7443
563.559	7301
564.034	7342
564.509	7332
564.985	7343
565.46	7250
565.936	7392
566.411	7369
566.887	7300
567.362	7400
567.838	7428
568.313	7508
568.789	7330
569.265	7316
569.74	7383
570.216	7312
570.692	7407
571.168	7420
571.644	7435
572.12	7460
572.596	7537
573.071	7559
573.547	7793
574.024	7868
574.5	7889
574.976	7896
575.452	8016
575.928	8131
576.404	8234
576.881	8466
577.357	8298
577.833	8326
578.31	8541
578.786	8609
579.262	8694
579.739	8587
580.215	8804
580.692	8797
581.169	8727
581.645	8777
582.122	9058
582.598	9055
583.075	9055
583.552	9094
584.029	9011
584.506	8915
584.982	8858
585.459	9077
585.936	8967
586.413	9072
586.89	9261
587.367	9166
587.844	9284
588.321	9173
588.799	9211
589.276	9160
589.753	9316
590.23	9364
590.707	9317
591.185	9326
591.662	9346
592.139	9426
592.617	9522
593.094	9465
593.572	9552
594.049	9637
594.527	9743
595.004	9797
595.482	10047
595.96	9987
596.437	9996
596.915	10228
597.393	10084
597.871	10323
598.349	10227
598.826	10409
599.304	10365
599.782	10566
600.26	10492
600.738	10737
601.216	10672
601.694	10711
602.173	10746
602.651	10777
603.129	10573
603.607	10651
604.085	10700
604.564	10746
605.042	10828
605.52	10736
605.999	10978
606.477	10688
606.956	10700
607.434	10839
607.913	10978
608.391	10942
608.87	10883
609.348	10703
609.827	10718
610.306	10817
610.785	10853
611.263	10834
611.742	10736
612.221	10606
612.7	10748
613.179	10814
613.658	10689
614.137	10884
614.616	10943
615.095	10760
615.574	10912
616.053	10976
616.532	10888
617.011	10920
617.491	11024
617.97	10990
618.449	11124
618.928	11169
619.408	11077
619.887	11208
620.367	11229
620.846	11324
621.326	11252
621.805	11524
622.285	11501
622.764	11569
623.244	11569
623.724	11655
624.203	11696
624.683	11529
625.163	11724
625.643	11711
626.123	11579
626.602	11833
627.082	11576
627.562	11553
628.042	11780
628.522	11668
629.002	11569
629.482	11657
629.963	11694
630.443	11618
630.923	11640
631.403	11697
631.883	11629
632.364	11653
632.844	11563
633.324	11629
633.805	11710
634.285	11565
634.766	11461
635.246	11478
635.727	11473
636.207	11446
636.688	11439
637.168	11424
637.649	11358
638.13	11348
638.611	11429
639.091	11393
639.572	11332
640.053	11298
640.534	11368
641.015	11311
641.496	11166
641.977	11350
642.458	11265
642.939	11330
643.42	11377
643.901	11340
644.382	11434
644.863	11368
645.345	11310
645.826	11324
646.307	11304
646.788	11493
647.27	11294
647.751	11310
648.233	11364
648.714	11135
649.196	11442
649.677	11372
650.159	11364
650.64	11241
651.122	11446
651.603	11286
652.085	11400
652.567	11474
653.049	11377
653.53	11364
654.012	11506
654.494	11312
654.976	11491
655.458	11439
655.94	11405
656.422	11562
656.904	11386
657.386	11279
657.868	11295
658.35	11216
658.833	11308
659.315	11338
659.797	11149
660.279	11083
660.762	11107
661.244	11022
661.726	10875
662.209	10882
662.691	10887
663.174	10711
663.656	10791
664.139	10796
664.621	10668
665.104	10601
665.587	10766
666.069	10818
666.552	10791
667.035	10637
667.517	10676
668	10778
668.483	10759
668.966	10682
669.449	10624
669.932	10631
670.415	10746
670.898	10682
671.381	10697
671.864	10698
672.347	10537
672.83	10540
673.313	10565
673.797	10545
674.28	10759
674.763	10804
675.247	10804
675.73	10700
676.213	10791
676.697	10849
677.18	10848
677.664	10881
678.147	10856
678.631	10903
679.114	10980
679.598	10972
680.082	11098
680.565	11073
681.049	11035
681.533	11020
682.017	11054
682.5	10970
682.984	11014
683.468	11028
683.952	10842
684.436	11018
684.92	10906
685.404	10955
685.888	11041
686.372	10952
686.856	10974
687.341	11079
687.825	10939
688.309	10984
688.793	11011
689.278	10870
689.762	10951
690.246	10877
690.731	10896
691.215	10959
691.7	10707
692.184	10839
692.669	10732
693.153	10751
693.638	10554
694.122	10550
694.607	10663
695.092	10523
695.577	10585
696.061	10355
696.546	10387
697.031	10383
697.516	10478
698.001	10514
698.486	10393
698.971	10446
699.456	10211
699.941	10194
700.426	10207
700.911	10365
701.396	10327
701.881	10391
702.366	10300
702.852	10217
703.337	10269
703.822	10260
704.308	10274
704.793	10344
705.278	10366
705.764	10409
706.249	10362
706.735	10331
707.22	10403
707.706	10252
708.191	10408
708.677	10367
709.163	10208
709.648	10230
710.134	10388
710.62	10291
711.106	10345
711.592	10502
712.077	10448
712.563	10165
713.049	10129
713.535	10340
714.021	10281
714.507	10206
714.993	10063
715.479	10133
715.966	10000
716.452	10037
716.938	10121
717.424	9855
717.91	10055
718.397	9975
718.883	9910
719.369	9929
719.856	9820
720.342	9977
720.829	9861
721.315	9909
721.802	9799
722.288	9833
722.775	9432
723.262	9180
723.748	9529
724.235	9491
724.722	9607
725.208	9425
725.695	9398
726.182	9394
726.669	9289
727.156	9344
727.643	9204
728.13	9178
728.617	9055
729.104	9078
729.591	9010
730.078	9110
730.565	9130
731.052	9006
731.539	9033
732.027	8943
732.514	8779
733.001	8863
733.488	8809
733.976	8812
734.463	8784
734.951	8791
735.438	8859
735.926	8732
736.413	8762
736.901	8677
737.388	8738
737.876	8706
738.364	8686
738.851	8762
739.339	8785
739.827	8861
740.314	8560
740.802	8570
741.29	8556
741.778	8480
742.266	8497
742.754	8498
743.242	8554
743.73	8394
744.218	8365
744.706	8280
745.194	8353
745.682	8319
746.17	8329
746.659	8344
747.147	8139
747.635	8151
748.123	8103
748.612	7977
749.1	7950
749.589	8063
750.077	8043
750.566	8034
751.054	8086
751.543	8110
752.031	7927
752.52	7848
753.008	7674
753.497	7688
753.986	7690
754.474	7660
754.963	7715
755.452	7581
755.941	7534
756.43	7525
756.919	7459
757.408	7391
757.896	7415
758.385	7433
758.875	7342
759.364	7270
759.853	7185
760.342	7073
760.831	7231
761.32	7176
761.809	7077
762.299	7085
762.788	7079
763.277	7042
763.767	6915
764.256	6909
764.745	6839
765.235	6954
765.724	6765
766.214	6840
766.703	6711
767.193	6603
767.683	6606
768.172	6483
768.662	6526
769.152	6486
769.641	6496
770.131	6360
770.621	6442
771.111	6344
771.601	6330
772.09	6302
772.58	6237
773.07	6252
773.56	6291
774.05	6133
774.54	6095
775.031	6079
775.521	6073
776.011	6062
776.501	6086
776.991	5951
777.482	5992
777.972	5829
778.462	5803
778.953	5840
779.443	5800
779.933	5788
780.424	5730
780.914	5782
781.405	5777
781.895	5710
782.386	5668
782.877	5635
783.367	5524
783.858	5480
784.349	5485
784.839	5441
785.33	5475
785.821	5460
786.312	5416
786.803	5439
787.293	5430
787.784	5350
788.275	5269
788.766	5215
789.257	5287
789.748	5147
790.24	5088
790.731	5097
791.222	4997
791.713	4957
792.204	4970
792.696	4855
793.187	4926
793.678	4889
794.169	4741
794.661	4797
795.152	4723
795.644	4672
796.135	4667
796.627	4696
797.118	4601
797.61	4545
798.101	4481
798.593	4545
799.085	4473
799.576	4492
800.068	4415
800.56	4425
801.052	4324
801.544	4325
802.035	4329
802.527	4261
803.019	4191
803.511	4140
804.003	4108
804.495	4139
804.987	4106
805.479	4031
805.971	4060
806.464	4032
806.956	3917
807.448	3884
807.94	3878
808.433	3852
808.925	3836
809.417	3795
809.91	3767
810.402	3666
810.894	3682
811.387	3706
811.879	3656
812.372	3689
812.865	3659
813.357	3661
813.85	3630
814.342	3619
814.835	3597
815.328	3569
815.821	3511
816.313	3499
816.806	3498
817.299	3440
817.792	3455
818.285	3391
818.778	3432
819.271	3428
819.764	3389
820.257	3401
820.75	3404
821.243	3413
821.736	3356
822.229	3376
822.722	3367
823.216	3425
