Data from lamp4bck_noballon_Subt2__25__225.txt Node

Date: Wed Apr 09 11:11:10 CEST 2025
User: fys-lab-0081
Spectrometer: S04999
Trigger mode: 0
Resolution mode: 1024 pixels
Integration Time (sec): 1.000000E-1
Scans to average: 1
Nonlinearity correction enabled: false
Boxcar width: 0
Baseline correction enabled: true
XAxis mode: Wavelengths
Number of Pixels in Spectrum: 1024
>>>>>Begin Spectral Data<<<<<
336.42	1
336.877	8
337.334	5
337.792	8
338.249	8
338.706	1
339.164	4
339.621	7
340.079	10
340.536	12
340.994	6
341.452	7
341.909	10
342.367	5
342.825	6
343.283	12
343.741	9
344.198	2
344.656	6
345.114	7
345.572	13
346.03	7
346.488	8
346.947	9
347.405	13
347.863	8
348.321	10
348.779	17
349.238	15
349.696	12
350.154	11
350.613	12
351.071	15
351.53	14
351.988	14
352.447	15
352.905	14
353.364	16
353.823	17
354.282	16
354.74	9
355.199	17
355.658	24
356.117	15
356.576	18
357.035	17
357.494	21
357.953	17
358.412	23
358.871	25
359.33	20
359.789	19
360.249	24
360.708	18
361.167	24
361.626	29
362.086	25
362.545	27
363.005	29
363.464	32
363.924	32
364.383	26
364.843	31
365.303	41
365.762	40
366.222	36
366.682	33
367.142	34
367.601	37
368.061	34
368.521	39
368.981	37
369.441	44
369.901	43
370.361	38
370.821	40
371.282	40
371.742	46
372.202	42
372.662	46
373.123	42
373.583	51
374.043	53
374.504	49
374.964	46
375.425	56
375.885	54
376.346	59
376.806	61
377.267	56
377.728	61
378.188	65
378.649	59
379.11	65
379.571	59
380.032	68
380.493	69
380.954	75
381.414	73
381.876	74
382.337	78
382.798	84
383.259	84
383.72	85
384.181	85
384.642	96
385.104	96
385.565	102
386.026	107
386.488	105
386.949	111
387.411	109
387.872	116
388.334	120
388.795	124
389.257	127
389.719	126
390.181	126
390.642	132
391.104	132
391.566	143
392.028	148
392.49	152
392.952	158
393.414	159
393.876	162
394.338	159
394.8	159
395.262	159
395.724	167
396.186	174
396.648	173
397.111	176
397.573	184
398.035	185
398.498	187
398.96	188
399.423	193
399.885	195
400.348	204
400.81	213
401.273	212
401.736	210
402.198	231
402.661	233
403.124	226
403.587	240
404.049	244
404.512	248
404.975	251
405.438	249
405.901	259
406.364	263
406.827	265
407.29	263
407.754	265
408.217	266
408.68	268
409.143	276
409.607	282
410.07	284
410.533	279
410.997	289
411.46	292
411.924	298
412.387	305
412.851	310
413.314	317
413.778	318
414.242	322
414.705	341
415.169	332
415.633	337
416.097	329
416.561	340
417.024	346
417.488	335
417.952	347
418.416	343
418.88	343
419.344	351
419.809	358
420.273	364
420.737	356
421.201	369
421.665	381
422.13	383
422.594	399
423.059	402
423.523	410
423.987	411
424.452	422
424.916	436
425.381	448
425.846	448
426.31	459
426.775	461
427.24	473
427.704	462
428.169	472
428.634	476
429.099	473
429.564	473
430.029	477
430.494	480
430.959	482
431.424	480
431.889	500
432.354	508
432.819	499
433.284	524
433.75	526
434.215	552
434.68	551
435.146	555
435.611	579
436.077	600
436.542	601
437.008	624
437.473	628
437.939	633
438.404	643
438.87	664
439.336	649
439.801	642
440.267	660
440.733	683
441.199	680
441.665	682
442.131	708
442.596	692
443.062	714
443.529	743
443.995	758
444.461	770
444.927	809
445.393	821
445.859	849
446.325	857
446.792	915
447.258	913
447.724	939
448.191	978
448.657	978
449.124	1006
449.59	992
450.057	1058
450.523	1064
450.99	1091
451.457	1071
451.923	1101
452.39	1091
452.857	1120
453.324	1111
453.791	1131
454.257	1128
454.724	1151
455.191	1157
455.658	1155
456.125	1195
456.592	1172
457.059	1195
457.527	1221
457.994	1247
458.461	1262
458.928	1278
459.396	1276
459.863	1316
460.33	1305
460.798	1309
461.265	1334
461.732	1321
462.2	1365
462.668	1350
463.135	1373
463.603	1320
464.07	1366
464.538	1334
465.006	1374
465.474	1352
465.941	1361
466.409	1381
466.877	1339
467.345	1386
467.813	1364
468.281	1383
468.749	1407
469.217	1404
469.685	1417
470.153	1458
470.621	1459
471.09	1463
471.558	1533
472.026	1534
472.494	1584
472.963	1598
473.431	1642
473.9	1674
474.368	1719
474.837	1742
475.305	1753
475.774	1790
476.242	1830
476.711	1835
477.18	1896
477.648	1873
478.117	1889
478.586	1880
479.055	1889
479.524	1905
479.993	1907
480.462	1901
480.93	1915
481.399	1912
481.869	1923
482.338	1909
482.807	1949
483.276	1921
483.745	1922
484.214	1986
484.684	2017
485.153	2034
485.622	2062
486.092	2116
486.561	2078
487.031	2156
487.5	2203
487.97	2219
488.439	2280
488.909	2357
489.378	2442
489.848	2431
490.318	2479
490.787	2579
491.257	2591
491.727	2607
492.197	2642
492.667	2644
493.137	2677
493.607	2709
494.077	2730
494.547	2695
495.017	2686
495.487	2730
495.957	2795
496.427	2730
496.897	2720
497.368	2775
497.838	2752
498.308	2784
498.779	2828
499.249	2849
499.719	2880
500.19	2916
500.66	2928
501.131	2957
501.602	3011
502.072	3000
502.543	3045
503.014	3159
503.484	3151
503.955	3242
504.426	3363
504.897	3376
505.368	3441
505.838	3538
506.309	3620
506.78	3716
507.251	3770
507.722	3866
508.194	3967
508.665	4005
509.136	3996
509.607	4130
510.078	4148
510.549	4164
511.021	4270
511.492	4282
511.964	4344
512.435	4412
512.906	4380
513.378	4408
513.849	4483
514.321	4501
514.793	4560
515.264	4621
515.736	4652
516.208	4755
516.679	4804
517.151	4825
517.623	4855
518.095	4951
518.567	4986
519.038	5075
519.51	5046
519.982	5115
520.454	5183
520.927	5267
521.399	5370
521.871	5429
522.343	5426
522.815	5457
523.287	5458
523.76	5513
524.232	5613
524.704	5627
525.177	5535
525.649	5573
526.122	5625
526.594	5489
527.067	5626
527.539	5731
528.012	5682
528.484	5655
528.957	5694
529.43	5669
529.903	5641
530.375	5840
530.848	5732
531.321	5814
531.794	5797
532.267	5911
532.74	5828
533.213	5808
533.686	5898
534.159	5866
534.632	6025
535.105	6068
535.578	6209
536.051	6222
536.525	6234
536.998	6206
537.471	6373
537.945	6315
538.418	6409
538.891	6417
539.365	6491
539.838	6533
540.312	6504
540.786	6521
541.259	6495
541.733	6622
542.206	6655
542.68	6573
543.154	6586
543.628	6599
544.101	6721
544.575	6598
545.049	6422
545.523	6537
545.997	6531
546.471	6598
546.945	6545
547.419	6662
547.893	6440
548.367	6586
548.842	6512
549.316	6544
549.79	6579
550.264	6515
550.739	6603
551.213	6595
551.687	6596
552.162	6654
552.636	6581
553.111	6585
553.585	6795
554.06	6721
554.534	6841
555.009	6795
555.484	6904
555.958	6999
556.433	6980
556.908	7091
557.383	7008
557.858	7217
558.333	7222
558.807	7196
559.282	7260
559.757	7460
560.232	7435
560.708	7282
561.183	7234
561.658	7328
562.133	7310
562.608	7233
563.083	7415
563.559	7278
564.034	7318
564.509	7312
564.985	7313
565.46	7226
565.936	7376
566.411	7346
566.887	7272
567.362	7367
567.838	7410
568.313	7489
568.789	7308
569.265	7294
569.74	7358
570.216	7293
570.692	7396
571.168	7391
571.644	7425
572.12	7443
572.596	7514
573.071	7533
573.547	7777
574.024	7836
574.5	7876
574.976	7880
575.452	8012
575.928	8118
576.404	8209
576.881	8454
577.357	8277
577.833	8293
578.31	8534
578.786	8583
579.262	8671
579.739	8563
580.215	8781
580.692	8779
581.169	8706
581.645	8754
582.122	9025
582.598	9027
583.075	9023
583.552	9065
584.029	8980
584.506	8886
584.982	8837
585.459	9057
585.936	8946
586.413	9043
586.89	9233
587.367	9148
587.844	9262
588.321	9150
588.799	9185
589.276	9133
589.753	9302
590.23	9337
590.707	9293
591.185	9282
591.662	9322
592.139	9401
592.617	9496
593.094	9442
593.572	9521
594.049	9617
594.527	9710
595.004	9782
595.482	10017
595.96	9967
596.437	9966
596.915	10206
597.393	10065
597.871	10296
598.349	10190
598.826	10377
599.304	10331
599.782	10530
600.26	10463
600.738	10704
601.216	10648
601.694	10679
602.173	10705
602.651	10750
603.129	10544
603.607	10615
604.085	10679
604.564	10716
605.042	10787
605.52	10699
605.999	10941
606.477	10651
606.956	10679
607.434	10821
607.913	10963
608.391	10904
608.87	10864
609.348	10676
609.827	10710
610.306	10797
610.785	10822
611.263	10794
611.742	10710
612.221	10583
612.7	10731
613.179	10788
613.658	10663
614.137	10843
614.616	10912
615.095	10727
615.574	10868
616.053	10953
616.532	10864
617.011	10899
617.491	11003
617.97	10957
618.449	11090
618.928	11146
619.408	11042
619.887	11166
620.367	11208
620.846	11316
621.326	11229
621.805	11490
622.285	11463
622.764	11520
623.244	11535
623.724	11612
624.203	11661
624.683	11467
625.163	11700
625.643	11672
626.123	11553
626.602	11784
627.082	11551
627.562	11527
628.042	11745
628.522	11634
629.002	11543
629.482	11637
629.963	11664
630.443	11593
630.923	11598
631.403	11652
631.883	11611
632.364	11638
632.844	11549
633.324	11610
633.805	11681
634.285	11520
634.766	11430
635.246	11449
635.727	11441
636.207	11440
636.688	11408
637.168	11411
637.649	11344
638.13	11324
638.611	11399
639.091	11368
639.572	11321
640.053	11269
640.534	11342
641.015	11289
641.496	11125
641.977	11327
642.458	11238
642.939	11313
643.42	11341
643.901	11302
644.382	11416
644.863	11324
645.345	11281
645.826	11277
646.307	11277
646.788	11467
647.27	11280
647.751	11283
648.233	11348
648.714	11105
649.196	11408
649.677	11344
650.159	11337
650.64	11221
651.122	11403
651.603	11257
652.085	11381
652.567	11439
653.049	11351
653.53	11325
654.012	11490
654.494	11307
654.976	11449
655.458	11400
655.94	11370
656.422	11538
656.904	11361
657.386	11255
657.868	11274
658.35	11183
658.833	11294
659.315	11303
659.797	11113
660.279	11051
660.762	11087
661.244	10990
661.726	10860
662.209	10864
662.691	10854
663.174	10690
663.656	10770
664.139	10769
664.621	10650
665.104	10577
665.587	10728
666.069	10785
666.552	10772
667.035	10626
667.517	10655
668	10749
668.483	10745
668.966	10661
669.449	10599
669.932	10613
670.415	10713
670.898	10645
671.381	10681
671.864	10670
672.347	10502
672.83	10524
673.313	10539
673.797	10528
674.28	10742
674.763	10774
675.247	10776
675.73	10677
676.213	10765
676.697	10821
677.18	10823
677.664	10854
678.147	10808
678.631	10887
679.114	10933
679.598	10941
680.082	11055
680.565	11065
681.049	10997
681.533	10998
682.017	11021
682.5	10950
682.984	10978
683.468	11003
683.952	10821
684.436	11006
684.92	10877
685.404	10940
685.888	11023
686.372	10930
686.856	10951
687.341	11054
687.825	10912
688.309	10962
688.793	10978
689.278	10842
689.762	10917
690.246	10853
690.731	10879
691.215	10936
691.7	10697
692.184	10794
692.669	10709
693.153	10727
693.638	10537
694.122	10531
694.607	10647
695.092	10501
695.577	10556
696.061	10336
696.546	10374
697.031	10340
697.516	10451
698.001	10483
698.486	10373
698.971	10430
699.456	10188
699.941	10173
700.426	10192
700.911	10338
701.396	10306
701.881	10363
702.366	10275
702.852	10212
703.337	10262
703.822	10251
704.308	10256
704.793	10312
705.278	10355
705.764	10390
706.249	10333
706.735	10312
707.22	10384
707.706	10239
708.191	10385
708.677	10359
709.163	10198
709.648	10211
710.134	10353
710.62	10272
711.106	10324
711.592	10476
712.077	10434
712.563	10137
713.049	10105
713.535	10319
714.021	10268
714.507	10195
714.993	10042
715.479	10109
715.966	9976
716.452	10014
716.938	10101
717.424	9844
717.91	10041
718.397	9956
718.883	9884
719.369	9917
719.856	9816
720.342	9953
720.829	9837
721.315	9884
721.802	9771
722.288	9810
722.775	9400
723.262	9152
723.748	9519
724.235	9473
724.722	9583
725.208	9400
725.695	9385
726.182	9380
726.669	9261
727.156	9324
727.643	9199
728.13	9154
728.617	9031
729.104	9056
729.591	8980
730.078	9083
730.565	9101
731.052	9001
731.539	9011
732.027	8921
732.514	8767
733.001	8849
733.488	8784
733.976	8797
734.463	8767
734.951	8774
735.438	8829
735.926	8711
736.413	8732
736.901	8661
737.388	8727
737.876	8697
738.364	8667
738.851	8761
739.339	8767
739.827	8848
740.314	8551
740.802	8550
741.29	8538
741.778	8451
742.266	8459
742.754	8475
743.242	8541
743.73	8378
744.218	8350
744.706	8251
745.194	8335
745.682	8291
746.17	8316
746.659	8321
747.147	8127
747.635	8142
748.123	8075
748.612	7967
749.1	7945
749.589	8039
750.077	8017
750.566	8014
751.054	8062
751.543	8096
752.031	7914
752.52	7836
753.008	7650
753.497	7679
753.986	7663
754.474	7640
754.963	7712
755.452	7575
755.941	7523
756.43	7512
756.919	7452
757.408	7375
757.896	7401
758.385	7417
758.875	7324
759.364	7251
759.853	7182
760.342	7056
760.831	7219
761.32	7152
761.809	7058
762.299	7084
762.788	7062
763.277	7022
763.767	6912
764.256	6897
764.745	6823
765.235	6953
765.724	6747
766.214	6814
766.703	6696
767.193	6602
767.683	6602
768.172	6467
768.662	6510
769.152	6482
769.641	6493
770.131	6338
770.621	6416
771.111	6330
771.601	6314
772.09	6289
772.58	6221
773.07	6240
773.56	6275
774.05	6136
774.54	6096
775.031	6063
775.521	6057
776.011	6054
776.501	6075
776.991	5935
777.482	5978
777.972	5819
778.462	5795
778.953	5825
779.443	5787
779.933	5771
780.424	5707
780.914	5757
781.405	5769
781.895	5689
782.386	5665
782.877	5617
783.367	5513
783.858	5456
784.349	5460
784.839	5442
785.33	5471
785.821	5440
786.312	5416
786.803	5429
787.293	5425
787.784	5336
788.275	5244
788.766	5193
789.257	5272
789.748	5136
790.24	5070
790.731	5093
791.222	4987
791.713	4940
792.204	4964
792.696	4841
793.187	4913
793.678	4891
794.169	4726
794.661	4789
795.152	4712
795.644	4652
796.135	4647
796.627	4679
797.118	4600
797.61	4542
798.101	4483
798.593	4547
799.085	4455
799.576	4480
800.068	4400
800.56	4419
801.052	4321
801.544	4314
802.035	4323
802.527	4247
803.019	4179
803.511	4125
804.003	4102
804.495	4133
804.987	4099
805.479	4018
805.971	4041
806.464	4027
806.956	3904
807.448	3883
807.94	3872
808.433	3843
808.925	3832
809.417	3784
809.91	3767
810.402	3658
810.894	3678
811.387	3698
811.879	3634
812.372	3672
812.865	3645
813.357	3647
813.85	3623
814.342	3604
814.835	3597
815.328	3564
815.821	3495
816.313	3493
816.806	3489
817.299	3431
817.792	3443
818.285	3389
818.778	3431
819.271	3431
819.764	3390
820.257	3401
820.75	3401
821.243	3399
821.736	3355
822.229	3378
822.722	3363
823.216	3421
