Data from lamp4bck_noballon_Subt2__15__215.txt Node

Date: Wed Apr 09 11:11:09 CEST 2025
User: fys-lab-0081
Spectrometer: S04999
Trigger mode: 0
Resolution mode: 1024 pixels
Integration Time (sec): 1.000000E-1
Scans to average: 1
Nonlinearity correction enabled: false
Boxcar width: 0
Baseline correction enabled: true
XAxis mode: Wavelengths
Number of Pixels in Spectrum: 1024
>>>>>Begin Spectral Data<<<<<
336.42	4
336.877	4
337.334	5
337.792	9
338.249	5
338.706	9
339.164	8
339.621	8
340.079	11
340.536	7
340.994	9
341.452	8
341.909	12
342.367	8
342.825	2
343.283	11
343.741	2
344.198	7
344.656	9
345.114	10
345.572	12
346.03	6
346.488	8
346.947	10
347.405	8
347.863	8
348.321	8
348.779	13
349.238	7
349.696	16
350.154	13
350.613	11
351.071	13
351.53	16
351.988	17
352.447	12
352.905	11
353.364	15
353.823	15
354.282	17
354.74	13
355.199	21
355.658	23
356.117	19
356.576	19
357.035	20
357.494	21
357.953	20
358.412	23
358.871	19
359.33	21
359.789	18
360.249	26
360.708	24
361.167	27
361.626	24
362.086	28
362.545	26
363.005	28
363.464	28
363.924	31
364.383	29
364.843	33
365.303	37
365.762	38
366.222	32
366.682	32
367.142	34
367.601	35
368.061	39
368.521	38
368.981	39
369.441	43
369.901	43
370.361	38
370.821	40
371.282	41
371.742	43
372.202	47
372.662	47
373.123	44
373.583	50
374.043	53
374.504	49
374.964	51
375.425	55
375.885	53
376.346	57
376.806	60
377.267	58
377.728	63
378.188	60
378.649	65
379.11	66
379.571	59
380.032	66
380.493	70
380.954	81
381.414	72
381.876	75
382.337	77
382.798	87
383.259	87
383.72	90
384.181	86
384.642	91
385.104	96
385.565	101
386.026	103
386.488	107
386.949	106
387.411	112
387.872	118
388.334	121
388.795	124
389.257	126
389.719	128
390.181	130
390.642	128
391.104	131
391.566	140
392.028	146
392.49	153
392.952	151
393.414	154
393.876	159
394.338	159
394.8	158
395.262	158
395.724	170
396.186	176
396.648	176
397.111	177
397.573	183
398.035	181
398.498	190
398.96	193
399.423	192
399.885	196
400.348	201
400.81	209
401.273	211
401.736	214
402.198	229
402.661	233
403.124	229
403.587	242
404.049	245
404.512	248
404.975	253
405.438	250
405.901	262
406.364	261
406.827	261
407.29	264
407.754	262
408.217	270
408.68	267
409.143	278
409.607	282
410.07	279
410.533	280
410.997	290
411.46	286
411.924	303
412.387	310
412.851	306
413.314	317
413.778	319
414.242	323
414.705	338
415.169	330
415.633	338
416.097	332
416.561	344
417.024	351
417.488	342
417.952	348
418.416	345
418.88	345
419.344	351
419.809	354
420.273	361
420.737	358
421.201	375
421.665	386
422.13	379
422.594	399
423.059	400
423.523	413
423.987	411
424.452	422
424.916	433
425.381	447
425.846	444
426.31	458
426.775	465
427.24	473
427.704	464
428.169	473
428.634	475
429.099	476
429.564	475
430.029	482
430.494	479
430.959	486
431.424	480
431.889	499
432.354	509
432.819	497
433.284	530
433.75	528
434.215	553
434.68	552
435.146	560
435.611	581
436.077	601
436.542	601
437.008	621
437.473	626
437.939	634
438.404	649
438.87	664
439.336	650
439.801	650
440.267	663
440.733	675
441.199	680
441.665	687
442.131	713
442.596	692
443.062	711
443.529	746
443.995	755
444.461	773
444.927	808
445.393	821
445.859	853
446.325	864
446.792	917
447.258	919
447.724	941
448.191	977
448.657	981
449.124	1006
449.59	996
450.057	1060
450.523	1068
450.99	1081
451.457	1074
451.923	1106
452.39	1094
452.857	1128
453.324	1114
453.791	1134
454.257	1128
454.724	1147
455.191	1161
455.658	1159
456.125	1196
456.592	1170
457.059	1200
457.527	1219
457.994	1254
458.461	1258
458.928	1275
459.396	1274
459.863	1318
460.33	1304
460.798	1310
461.265	1335
461.732	1324
462.2	1367
462.668	1360
463.135	1377
463.603	1324
464.07	1367
464.538	1333
465.006	1376
465.474	1347
465.941	1358
466.409	1379
466.877	1337
467.345	1385
467.813	1368
468.281	1387
468.749	1405
469.217	1407
469.685	1419
470.153	1464
470.621	1458
471.09	1464
471.558	1538
472.026	1536
472.494	1578
472.963	1598
473.431	1648
473.9	1680
474.368	1715
474.837	1738
475.305	1756
475.774	1788
476.242	1830
476.711	1830
477.18	1890
477.648	1880
478.117	1898
478.586	1879
479.055	1896
479.524	1912
479.993	1904
480.462	1906
480.93	1919
481.399	1916
481.869	1927
482.338	1919
482.807	1949
483.276	1927
483.745	1931
484.214	1992
484.684	2023
485.153	2038
485.622	2056
486.092	2124
486.561	2085
487.031	2159
487.5	2199
487.97	2217
488.439	2287
488.909	2362
489.378	2441
489.848	2436
490.318	2474
490.787	2582
491.257	2600
491.727	2608
492.197	2640
492.667	2652
493.137	2680
493.607	2712
494.077	2729
494.547	2707
495.017	2689
495.487	2733
495.957	2790
496.427	2735
496.897	2730
497.368	2772
497.838	2749
498.308	2787
498.779	2837
499.249	2851
499.719	2887
500.19	2916
500.66	2940
501.131	2958
501.602	3008
502.072	2991
502.543	3050
503.014	3169
503.484	3153
503.955	3251
504.426	3366
504.897	3377
505.368	3450
505.838	3544
506.309	3628
506.78	3721
507.251	3784
507.722	3876
508.194	3960
508.665	4006
509.136	4006
509.607	4137
510.078	4139
510.549	4162
511.021	4257
511.492	4303
511.964	4353
512.435	4418
512.906	4387
513.378	4412
513.849	4483
514.321	4508
514.793	4564
515.264	4625
515.736	4670
516.208	4748
516.679	4809
517.151	4832
517.623	4863
518.095	4950
518.567	4985
519.038	5074
519.51	5057
519.982	5118
520.454	5195
520.927	5273
521.399	5373
521.871	5432
522.343	5440
522.815	5470
523.287	5471
523.76	5513
524.232	5597
524.704	5645
525.177	5539
525.649	5568
526.122	5625
526.594	5488
527.067	5646
527.539	5739
528.012	5693
528.484	5663
528.957	5688
529.43	5684
529.903	5653
530.375	5843
530.848	5730
531.321	5819
531.794	5811
532.267	5928
532.74	5832
533.213	5805
533.686	5910
534.159	5886
534.632	6027
535.105	6073
535.578	6210
536.051	6226
536.525	6238
536.998	6227
537.471	6371
537.945	6305
538.418	6419
538.891	6427
539.365	6504
539.838	6536
540.312	6502
540.786	6534
541.259	6509
541.733	6624
542.206	6656
542.68	6580
543.154	6593
543.628	6610
544.101	6723
544.575	6594
545.049	6441
545.523	6549
545.997	6544
546.471	6603
546.945	6546
547.419	6669
547.893	6447
548.367	6595
548.842	6520
549.316	6552
549.79	6574
550.264	6516
550.739	6596
551.213	6605
551.687	6609
552.162	6661
552.636	6582
553.111	6598
553.585	6813
554.06	6736
554.534	6841
555.009	6793
555.484	6908
555.958	7007
556.433	6990
556.908	7090
557.383	7017
557.858	7233
558.333	7244
558.807	7202
559.282	7271
559.757	7471
560.232	7448
560.708	7289
561.183	7241
561.658	7349
562.133	7325
562.608	7239
563.083	7430
563.559	7284
564.034	7333
564.509	7299
564.985	7329
565.46	7229
565.936	7384
566.411	7352
566.887	7273
567.362	7380
567.838	7420
568.313	7490
568.789	7319
569.265	7299
569.74	7365
570.216	7292
570.692	7400
571.168	7398
571.644	7425
572.12	7445
572.596	7520
573.071	7542
573.547	7781
574.024	7848
574.5	7878
574.976	7880
575.452	8008
575.928	8134
576.404	8209
576.881	8471
577.357	8265
577.833	8301
578.31	8523
578.786	8591
579.262	8690
579.739	8573
580.215	8793
580.692	8779
581.169	8726
581.645	8755
582.122	9038
582.598	9034
583.075	9032
583.552	9069
584.029	9001
584.506	8893
584.982	8835
585.459	9069
585.936	8960
586.413	9049
586.89	9226
587.367	9141
587.844	9280
588.321	9151
588.799	9199
589.276	9148
589.753	9303
590.23	9343
590.707	9291
591.185	9302
591.662	9330
592.139	9399
592.617	9494
593.094	9461
593.572	9537
594.049	9623
594.527	9732
595.004	9788
595.482	10025
595.96	9977
596.437	9974
596.915	10223
597.393	10063
597.871	10299
598.349	10202
598.826	10393
599.304	10349
599.782	10534
600.26	10460
600.738	10706
601.216	10645
601.694	10681
602.173	10731
602.651	10755
603.129	10575
603.607	10625
604.085	10683
604.564	10729
605.042	10793
605.52	10709
605.999	10967
606.477	10658
606.956	10664
607.434	10817.5
607.913	10971
608.391	10909
608.87	10859
609.348	10688
609.827	10715
610.306	10809
610.785	10836
611.263	10793
611.742	10716
612.221	10579
612.7	10724
613.179	10800
613.658	10676
614.137	10849
614.616	10926
615.095	10739
615.574	10881
616.053	10962
616.532	10863
617.011	10909
617.491	11000
617.97	10974
618.449	11092
618.928	11158
619.408	11056
619.887	11187
620.367	11201
620.846	11315
621.326	11235
621.805	11497
622.285	11478
622.764	11544
623.244	11544
623.724	11619
624.203	11689
624.683	11481
625.163	11707
625.643	11674
626.123	11568
626.602	11800
627.082	11566
627.562	11549
628.042	11755
628.522	11642
629.002	11548
629.482	11646
629.963	11668
630.443	11617
630.923	11618
631.403	11669
631.883	11619
632.364	11646
632.844	11556
633.324	11615
633.805	11685
634.285	11546
634.766	11433
635.246	11458
635.727	11456
636.207	11437
636.688	11425
637.168	11410
637.649	11359
638.13	11322
638.611	11405
639.091	11376
639.572	11327
640.053	11272
640.534	11350
641.015	11281
641.496	11139
641.977	11326
642.458	11231
642.939	11328
643.42	11349
643.901	11316
644.382	11413
644.863	11343
645.345	11299
645.826	11297
646.307	11288
646.788	11468
647.27	11281
647.751	11284
648.233	11356
648.714	11117
649.196	11417
649.677	11364
650.159	11350
650.64	11238
651.122	11432
651.603	11267
652.085	11377
652.567	11446
653.049	11363
653.53	11350
654.012	11491
654.494	11293
654.976	11464
655.458	11403
655.94	11375
656.422	11549
656.904	11374
657.386	11265
657.868	11265
658.35	11197
658.833	11290
659.315	11310
659.797	11138
660.279	11075
660.762	11101
661.244	10987
661.726	10856
662.209	10875
662.691	10867
663.174	10703
663.656	10772
664.139	10793
664.621	10659
665.104	10594
665.587	10744
666.069	10808
666.552	10783
667.035	10632
667.517	10662
668	10769
668.483	10752
668.966	10657
669.449	10607
669.932	10618
670.415	10729
670.898	10651
671.381	10682
671.864	10686
672.347	10521
672.83	10530
673.313	10549
673.797	10531
674.28	10758
674.763	10786
675.247	10786
675.73	10688
676.213	10785
676.697	10829
677.18	10834
677.664	10859
678.147	10837
678.631	10891
679.114	10957
679.598	10951
680.082	11070
680.565	11062
681.049	11012
681.533	10992
682.017	11026
682.5	10953
682.984	10992
683.468	11024
683.952	10829
684.436	11012
684.92	10877
685.404	10933
685.888	11031
686.372	10938
686.856	10957
687.341	11072
687.825	10924
688.309	10971
688.793	10983
689.278	10837
689.762	10927
690.246	10858
690.731	10879
691.215	10956
691.7	10703
692.184	10814
692.669	10718
693.153	10710
693.638	10559
694.122	10546
694.607	10651
695.092	10506
695.577	10567
696.061	10359
696.546	10377
697.031	10363
697.516	10464
698.001	10479
698.486	10384
698.971	10435
699.456	10196
699.941	10183
700.426	10204
700.911	10350
701.396	10313
701.881	10368
702.366	10279
702.852	10217
703.337	10265
703.822	10236
704.308	10246
704.793	10341
705.278	10358
705.764	10387
706.249	10336
706.735	10313
707.22	10388
707.706	10248
708.191	10390
708.677	10366
709.163	10208
709.648	10221
710.134	10370
710.62	10276
711.106	10328
711.592	10492
712.077	10450
712.563	10150
713.049	10119
713.535	10330
714.021	10288
714.507	10193
714.993	10059
715.479	10109
715.966	9992
716.452	10026
716.938	10106
717.424	9845
717.91	10040
718.397	9971
718.883	9907
719.369	9921
719.856	9803
720.342	9965
720.829	9850
721.315	9894
721.802	9789
722.288	9811
722.775	9415
723.262	9162
723.748	9522
724.235	9477
724.722	9599
725.208	9411
725.695	9389
726.182	9375
726.669	9285
727.156	9316
727.643	9195
728.13	9161
728.617	9049
729.104	9059
729.591	8993
730.078	9081
730.565	9111
731.052	8994
731.539	9024
732.027	8918
732.514	8782
733.001	8848
733.488	8795
733.976	8803
734.463	8773
734.951	8777
735.438	8847
735.926	8719
736.413	8753
736.901	8673
737.388	8734
737.876	8704
738.364	8679
738.851	8755
739.339	8767
739.827	8840
740.314	8545
740.802	8556
741.29	8535
741.778	8468
742.266	8480
742.754	8476
743.242	8541
743.73	8388
744.218	8361
744.706	8264
745.194	8345
745.682	8292
746.17	8319
746.659	8342
747.147	8128
747.635	8145
748.123	8082
748.612	7970
749.1	7944
749.589	8046
750.077	8038
750.566	8032
751.054	8084
751.543	8100
752.031	7908
752.52	7847
753.008	7662
753.497	7684
753.986	7684
754.474	7645
754.963	7716
755.452	7575
755.941	7529
756.43	7524
756.919	7455
757.408	7385
757.896	7406
758.385	7419
758.875	7328
759.364	7263
759.853	7184
760.342	7064
760.831	7221
761.32	7159
761.809	7064
762.299	7081
762.788	7052
763.277	7031
763.767	6908
764.256	6893
764.745	6825
765.235	6959
765.724	6754
766.214	6816
766.703	6713
767.193	6607
767.683	6607
768.172	6469
768.662	6520
769.152	6474
769.641	6500
770.131	6349
770.621	6434
771.111	6334
771.601	6311
772.09	6290
772.58	6228
773.07	6247
773.56	6279
774.05	6137
774.54	6091
775.031	6073
775.521	6081
776.011	6050
776.501	6078
776.991	5937
777.482	5971
777.972	5826
778.462	5801
778.953	5826
779.443	5791
779.933	5782
780.424	5723
780.914	5773
781.405	5764
781.895	5699
782.386	5669
782.877	5622
783.367	5511
783.858	5467
784.349	5469
784.839	5444
785.33	5476
785.821	5444
786.312	5408
786.803	5433
787.293	5435
787.784	5352
788.275	5264
788.766	5197
789.257	5277
789.748	5147
790.24	5079
790.731	5094
791.222	4991
791.713	4951
792.204	4965
792.696	4847
793.187	4931
793.678	4888
794.169	4736
794.661	4788
795.152	4716
795.644	4652
796.135	4662
796.627	4684
797.118	4594
797.61	4550
798.101	4484
798.593	4532
799.085	4471
799.576	4486
800.068	4409
800.56	4417
801.052	4327
801.544	4315
802.035	4328
802.527	4251
803.019	4187
803.511	4137
804.003	4110
804.495	4149
804.987	4101
805.479	4034
805.971	4044
806.464	4020
806.956	3912
807.448	3882
807.94	3883
808.433	3855
808.925	3833
809.417	3790
809.91	3767
810.402	3655
810.894	3675
811.387	3698
811.879	3646
812.372	3683
812.865	3652
813.357	3648
813.85	3629
814.342	3608
814.835	3601
815.328	3561
815.821	3501
816.313	3499
816.806	3500
817.299	3432
817.792	3453
818.285	3383
818.778	3437
819.271	3435
819.764	3386
820.257	3406
820.75	3401
821.243	3405
821.736	3352
822.229	3370
822.722	3362
823.216	3416
