Data from lamp4bck_noballon_Subt2__45__245.txt Node

Date: Wed Apr 09 11:11:13 CEST 2025
User: fys-lab-0081
Spectrometer: S04999
Trigger mode: 0
Resolution mode: 1024 pixels
Integration Time (sec): 1.000000E-1
Scans to average: 1
Nonlinearity correction enabled: false
Boxcar width: 0
Baseline correction enabled: true
XAxis mode: Wavelengths
Number of Pixels in Spectrum: 1024
>>>>>Begin Spectral Data<<<<<
336.42	4
336.877	11
337.334	4
337.792	5
338.249	8
338.706	6
339.164	7
339.621	7
340.079	9
340.536	12
340.994	6
341.452	11
341.909	11
342.367	11
342.825	4
343.283	11
343.741	7
344.198	9
344.656	3
345.114	9
345.572	12
346.03	8
346.488	13
346.947	9
347.405	12
347.863	7
348.321	8
348.779	14
349.238	11
349.696	11
350.154	11
350.613	13
351.071	15
351.53	21
351.988	16
352.447	15
352.905	15
353.364	17
353.823	17
354.282	18
354.74	11
355.199	18
355.658	24
356.117	14
356.576	17
357.035	13
357.494	23
357.953	18
358.412	25
358.871	22
359.33	22
359.789	22
360.249	23
360.708	27
361.167	24
361.626	27
362.086	26
362.545	26
363.005	29
363.464	32
363.924	33
364.383	31
364.843	33
365.303	34
365.762	35
366.222	35
366.682	35
367.142	36
367.601	38
368.061	36
368.521	38
368.981	36
369.441	44
369.901	44
370.361	39
370.821	42
371.282	42
371.742	45
372.202	45
372.662	49
373.123	41
373.583	48
374.043	50
374.504	49
374.964	53
375.425	54
375.885	54
376.346	58
376.806	60
377.267	58
377.728	65
378.188	64
378.649	63
379.11	70
379.571	63
380.032	70
380.493	68
380.954	77
381.414	70
381.876	78
382.337	75
382.798	77
383.259	88
383.72	92
384.181	89
384.642	93
385.104	97
385.565	103
386.026	109
386.488	109
386.949	103
387.411	117
387.872	115
388.334	115
388.795	122
389.257	123
389.719	128
390.181	132
390.642	130
391.104	137
391.566	141
392.028	146
392.49	151
392.952	153
393.414	153
393.876	158
394.338	159
394.8	163
395.262	165
395.724	174
396.186	172
396.648	177
397.111	176
397.573	183
398.035	183
398.498	186
398.96	191
399.423	195
399.885	195
400.348	204
400.81	207
401.273	209
401.736	214
402.198	231
402.661	233
403.124	230
403.587	237
404.049	242.5
404.512	248
404.975	255
405.438	253
405.901	262
406.364	264
406.827	261
407.29	264
407.754	259
408.217	267
408.68	264
409.143	279
409.607	285
410.07	279
410.533	278
410.997	288
411.46	289
411.924	303
412.387	302
412.851	309
413.314	316
413.778	316
414.242	325
414.705	338
415.169	330
415.633	330
416.097	338
416.561	342
417.024	350
417.488	337
417.952	350
418.416	347
418.88	343
419.344	348
419.809	353
420.273	364
420.737	354
421.201	368
421.665	382
422.13	381
422.594	395
423.059	400
423.523	406
423.987	416
424.452	425
424.916	431
425.381	448
425.846	449
426.31	458
426.775	462
427.24	478
427.704	466
428.169	472
428.634	475
429.099	478
429.564	470
430.029	480
430.494	481
430.959	487
431.424	482
431.889	502
432.354	512
432.819	503
433.284	532
433.75	527
434.215	552
434.68	554
435.146	551
435.611	577
436.077	600
436.542	599
437.008	625
437.473	628
437.939	632
438.404	651
438.87	665
439.336	651
439.801	641
440.267	661
440.733	676
441.199	684
441.665	686
442.131	704
442.596	691
443.062	714
443.529	750
443.995	760
444.461	767
444.927	812
445.393	822
445.859	853
446.325	860
446.792	917
447.258	920
447.724	942
448.191	974
448.657	974
449.124	1007
449.59	992
450.057	1062
450.523	1064
450.99	1085
451.457	1071
451.923	1106
452.39	1092
452.857	1123
453.324	1109
453.791	1138
454.257	1129
454.724	1146
455.191	1155
455.658	1156
456.125	1196
456.592	1174
457.059	1197
457.527	1210
457.994	1256
458.461	1260
458.928	1285
459.396	1273
459.863	1321
460.33	1306
460.798	1304
461.265	1334
461.732	1318
462.2	1366
462.668	1354
463.135	1377
463.603	1321
464.07	1366
464.538	1333
465.006	1380
465.474	1354
465.941	1358
466.409	1379
466.877	1341
467.345	1386
467.813	1369
468.281	1386
468.749	1412
469.217	1410
469.685	1429
470.153	1456
470.621	1458
471.09	1466
471.558	1534
472.026	1537
472.494	1579
472.963	1603
473.431	1651
473.9	1677
474.368	1713
474.837	1744
475.305	1757
475.774	1786
476.242	1844
476.711	1831
477.18	1895
477.648	1885
478.117	1897
478.586	1880
479.055	1896
479.524	1910
479.993	1914
480.462	1908
480.93	1913
481.399	1913
481.869	1930
482.338	1915
482.807	1941
483.276	1929
483.745	1927
484.214	1995
484.684	2023
485.153	2031
485.622	2052
486.092	2123
486.561	2085
487.031	2170
487.5	2201
487.97	2215
488.439	2289
488.909	2365
489.378	2443
489.848	2439
490.318	2476
490.787	2577
491.257	2599
491.727	2614
492.197	2646
492.667	2645
493.137	2681
493.607	2713
494.077	2739
494.547	2700
495.017	2692
495.487	2727
495.957	2789
496.427	2736
496.897	2728
497.368	2770
497.838	2741
498.308	2786
498.779	2833
499.249	2853
499.719	2892
500.19	2913
500.66	2932
501.131	2956
501.602	3012
502.072	2997
502.543	3054
503.014	3167
503.484	3151
503.955	3251
504.426	3378
504.897	3383
505.368	3455
505.838	3537
506.309	3625
506.78	3726
507.251	3785
507.722	3872
508.194	3967
508.665	4013
509.136	4008
509.607	4139
510.078	4150
510.549	4161
511.021	4270
511.492	4292
511.964	4353
512.435	4412
512.906	4382
513.378	4420
513.849	4485
514.321	4506
514.793	4562
515.264	4625
515.736	4661
516.208	4756
516.679	4808
517.151	4826
517.623	4866
518.095	4950
518.567	4988
519.038	5087
519.51	5055
519.982	5111
520.454	5189
520.927	5276
521.399	5375
521.871	5438
522.343	5439
522.815	5469
523.287	5468
523.76	5513
524.232	5611
524.704	5647
525.177	5542
525.649	5569
526.122	5642
526.594	5504
527.067	5641
527.539	5745
528.012	5694
528.484	5670
528.957	5694
529.43	5689
529.903	5652
530.375	5846
530.848	5737
531.321	5806
531.794	5813
532.267	5932
532.74	5833
533.213	5816
533.686	5906
534.159	5884
534.632	6035
535.105	6073
535.578	6215
536.051	6227
536.525	6242
536.998	6214
537.471	6374
537.945	6318
538.418	6417
538.891	6423
539.365	6500
539.838	6542
540.312	6519
540.786	6529
541.259	6502
541.733	6625
542.206	6658
542.68	6575
543.154	6593
543.628	6606
544.101	6728
544.575	6598
545.049	6430
545.523	6535
545.997	6546
546.471	6607
546.945	6552
547.419	6670
547.893	6465
548.367	6607
548.842	6533
549.316	6554
549.79	6575
550.264	6528
550.739	6607
551.213	6612
551.687	6608
552.162	6650
552.636	6581
553.111	6595
553.585	6806
554.06	6735
554.534	6852
555.009	6808
555.484	6907
555.958	7000
556.433	6996
556.908	7091
557.383	7025
557.858	7227
558.333	7245
558.807	7205
559.282	7266
559.757	7473
560.232	7436
560.708	7319
561.183	7255
561.658	7337
562.133	7321
562.608	7252
563.083	7434
563.559	7298
564.034	7325
564.509	7320
564.985	7335
565.46	7241
565.936	7381
566.411	7354
566.887	7277
567.362	7388
567.838	7415
568.313	7504
568.789	7323
569.265	7304
569.74	7371
570.216	7293
570.692	7401
571.168	7400
571.644	7429
572.12	7454
572.596	7515
573.071	7549
573.547	7789
574.024	7847
574.5	7875
574.976	7896
575.452	8012
575.928	8124
576.404	8212
576.881	8458
577.357	8285
577.833	8302
578.31	8540
578.786	8600
579.262	8686
579.739	8568
580.215	8792
580.692	8779
581.169	8725
581.645	8766
582.122	9043
582.598	9043
583.075	9054
583.552	9075
584.029	8992
584.506	8897
584.982	8840
585.459	9065
585.936	8970
586.413	9066
586.89	9234
587.367	9164
587.844	9279
588.321	9177
588.799	9210
589.276	9147
589.753	9312
590.23	9347
590.707	9305
591.185	9305
591.662	9327
592.139	9410
592.617	9503
593.094	9457
593.572	9535
594.049	9630
594.527	9732
595.004	9780
595.482	10031
595.96	9972
596.437	9987
596.915	10226
597.393	10074
597.871	10310
598.349	10214
598.826	10410
599.304	10345
599.782	10538
600.26	10477
600.738	10719
601.216	10645
601.694	10699
602.173	10739
602.651	10753
603.129	10563
603.607	10630
604.085	10687
604.564	10726
605.042	10789
605.52	10704
605.999	10960
606.477	10662
606.956	10687
607.434	10823.5
607.913	10960
608.391	10916
608.87	10872
609.348	10687
609.827	10715
610.306	10816
610.785	10846
611.263	10816
611.742	10722
612.221	10588
612.7	10744
613.179	10809
613.658	10689
614.137	10855
614.616	10922
615.095	10741
615.574	10871
616.053	10973
616.532	10883
617.011	10894
617.491	11003
617.97	10975
618.449	11103
618.928	11162
619.408	11057
619.887	11182
620.367	11207
620.846	11329
621.326	11243
621.805	11492
622.285	11487
622.764	11554
623.244	11550
623.724	11634
624.203	11687
624.683	11501
625.163	11712
625.643	11681
626.123	11573
626.602	11817
627.082	11567
627.562	11534
628.042	11763
628.522	11647
629.002	11553
629.482	11646
629.963	11681
630.443	11606
630.923	11623
631.403	11682
631.883	11628
632.364	11645
632.844	11557
633.324	11619
633.805	11698
634.285	11557
634.766	11452
635.246	11458
635.727	11456
636.207	11427
636.688	11431
637.168	11412
637.649	11340
638.13	11337
638.611	11408
639.091	11380
639.572	11337
640.053	11276
640.534	11349
641.015	11292
641.496	11145
641.977	11338
642.458	11241
642.939	11316
643.42	11362
643.901	11324
644.382	11434
644.863	11348
645.345	11294
645.826	11294
646.307	11296
646.788	11479
647.27	11279
647.751	11294
648.233	11369
648.714	11110
649.196	11424
649.677	11360
650.159	11356
650.64	11229
651.122	11420
651.603	11279
652.085	11396
652.567	11463
653.049	11371
653.53	11347
654.012	11501
654.494	11303
654.976	11456
655.458	11426
655.94	11375
656.422	11539
656.904	11366
657.386	11274
657.868	11276
658.35	11201
658.833	11300
659.315	11315
659.797	11134
660.279	11067
660.762	11086
661.244	10998
661.726	10859
662.209	10887
662.691	10861
663.174	10705
663.656	10784
664.139	10793
664.621	10661
665.104	10595
665.587	10750
666.069	10801
666.552	10789
667.035	10632
667.517	10666
668	10780
668.483	10738
668.966	10663
669.449	10620
669.932	10619
670.415	10740
670.898	10671
671.381	10684
671.864	10677
672.347	10521
672.83	10524
673.313	10546
673.797	10531
674.28	10751
674.763	10797
675.247	10791
675.73	10689
676.213	10769
676.697	10830
677.18	10838
677.664	10849
678.147	10826
678.631	10894
679.114	10955
679.598	10953
680.082	11076
680.565	11062
681.049	11014
681.533	11004
682.017	11037
682.5	10962
682.984	11000
683.468	11012
683.952	10830
684.436	11019
684.92	10886
685.404	10942
685.888	11025
686.372	10937
686.856	10966
687.341	11049
687.825	10924
688.309	10961
688.793	10994
689.278	10861
689.762	10923
690.246	10858
690.731	10881
691.215	10935
691.7	10698
692.184	10820
692.669	10714
693.153	10736
693.638	10548
694.122	10538
694.607	10653
695.092	10506
695.577	10564
696.061	10351
696.546	10369
697.031	10375
697.516	10463
698.001	10494
698.486	10383
698.971	10427
699.456	10189
699.941	10182
700.426	10202
700.911	10351
701.396	10316
701.881	10365
702.366	10287
702.852	10206
703.337	10259
703.822	10242
704.308	10258
704.793	10336
705.278	10360
705.764	10400
706.249	10342
706.735	10314
707.22	10392
707.706	10248
708.191	10394
708.677	10361
709.163	10194
709.648	10223
710.134	10385
710.62	10288
711.106	10330
711.592	10502
712.077	10454
712.563	10149
713.049	10115
713.535	10327
714.021	10285
714.507	10193
714.993	10052
715.479	10125
715.966	9992
716.452	10024
716.938	10097
717.424	9844
717.91	10053
718.397	9974
718.883	9904
719.369	9935
719.856	9809
720.342	9967
720.829	9851
721.315	9902
721.802	9794
722.288	9820
722.775	9423
723.262	9175
723.748	9520
724.235	9486
724.722	9592
725.208	9401
725.695	9396
726.182	9374
726.669	9279
727.156	9332
727.643	9198
728.13	9173
728.617	9043
729.104	9059
729.591	8984
730.078	9084
730.565	9115
731.052	9001
731.539	9026
732.027	8922
732.514	8776
733.001	8860
733.488	8787
733.976	8788
734.463	8766
734.951	8779
735.438	8842
735.926	8728
736.413	8742
736.901	8669
737.388	8726
737.876	8707
738.364	8670
738.851	8753
739.339	8763
739.827	8849
740.314	8554
740.802	8550
741.29	8545
741.778	8456
742.266	8483
742.754	8495
743.242	8548
743.73	8383
744.218	8364
744.706	8262
745.194	8340
745.682	8287
746.17	8318
746.659	8339
747.147	8132
747.635	8149
748.123	8084
748.612	7969
749.1	7938
749.589	8050
750.077	8023
750.566	8017
751.054	8085
751.543	8112
752.031	7914
752.52	7841
753.008	7663
753.497	7683
753.986	7680
754.474	7652
754.963	7720
755.452	7568
755.941	7519
756.43	7517
756.919	7451
757.408	7385
757.896	7427
758.385	7427
758.875	7326
759.364	7267
759.853	7182
760.342	7053
760.831	7227
761.32	7163
761.809	7064
762.299	7090
762.788	7065
763.277	7020
763.767	6915
764.256	6891
764.745	6830
765.235	6955
765.724	6753
766.214	6830
766.703	6703
767.193	6606
767.683	6603
768.172	6467
768.662	6514
769.152	6491
769.641	6497
770.131	6341
770.621	6429
771.111	6332
771.601	6315
772.09	6284
772.58	6232
773.07	6249
773.56	6277
774.05	6138
774.54	6098
775.031	6071
775.521	6064
776.011	6060
776.501	6070
776.991	5933
777.482	5986
777.972	5826
778.462	5788
778.953	5822
779.443	5787
779.933	5781
780.424	5723
780.914	5766
781.405	5766
781.895	5689
782.386	5662
782.877	5626
783.367	5505
783.858	5461
784.349	5469
784.839	5438
785.33	5470
785.821	5457
786.312	5405
786.803	5436
787.293	5426
787.784	5335
788.275	5261
788.766	5204
789.257	5280
789.748	5140
790.24	5084
790.731	5097
791.222	4988
791.713	4954
792.204	4962
792.696	4850
793.187	4923
793.678	4885
794.169	4735
794.661	4782
795.152	4717
795.644	4665
796.135	4656
796.627	4683
797.118	4595
797.61	4541
798.101	4474
798.593	4539
799.085	4466
799.576	4494
800.068	4412
800.56	4420
801.052	4320
801.544	4321
802.035	4325
802.527	4250
803.019	4188
803.511	4134
804.003	4110
804.495	4133
804.987	4101
805.479	4022
805.971	4045
806.464	4024
806.956	3905
807.448	3883
807.94	3870
808.433	3852
808.925	3832
809.417	3788
809.91	3766
810.402	3660
810.894	3677
811.387	3702
811.879	3653
812.372	3678
812.865	3658
813.357	3657
813.85	3635
814.342	3605
814.835	3599
815.328	3571
815.821	3503
816.313	3502
816.806	3495
817.299	3440
817.792	3452
818.285	3389
818.778	3434
819.271	3423
819.764	3391
820.257	3405
820.75	3405
821.243	3406
821.736	3356
822.229	3376
822.722	3358
823.216	3422
