Data from lamp4bck_noballon_Subt2__40__240.txt Node

Date: Wed Apr 09 11:11:12 CEST 2025
User: fys-lab-0081
Spectrometer: S04999
Trigger mode: 0
Resolution mode: 1024 pixels
Integration Time (sec): 1.000000E-1
Scans to average: 1
Nonlinearity correction enabled: false
Boxcar width: 0
Baseline correction enabled: true
XAxis mode: Wavelengths
Number of Pixels in Spectrum: 1024
>>>>>Begin Spectral Data<<<<<
336.42	1
336.877	8
337.334	4
337.792	5
338.249	7
338.706	9
339.164	4
339.621	8
340.079	5
340.536	11
340.994	12
341.452	13
341.909	13
342.367	8
342.825	3
343.283	7
343.741	7
344.198	12
344.656	9
345.114	7
345.572	12
346.03	9
346.488	6
346.947	7
347.405	14
347.863	6
348.321	10
348.779	14
349.238	11
349.696	15
350.154	9
350.613	12
351.071	13
351.53	21
351.988	17
352.447	14
352.905	12
353.364	16
353.823	14
354.282	15
354.74	13
355.199	23
355.658	19
356.117	18
356.576	20
357.035	18
357.494	19
357.953	21
358.412	23
358.871	19
359.33	23
359.789	17
360.249	24
360.708	26
361.167	32
361.626	28
362.086	24
362.545	27
363.005	29
363.464	31
363.924	29
364.383	29
364.843	30
365.303	32
365.762	39
366.222	36
366.682	33
367.142	36
367.601	39
368.061	38
368.521	35
368.981	34
369.441	42
369.901	40
370.361	41
370.821	41
371.282	41
371.742	44
372.202	46
372.662	52
373.123	45
373.583	48
374.043	55
374.504	50
374.964	55
375.425	52
375.885	50
376.346	58
376.806	61
377.267	63
377.728	65
378.188	66
378.649	59
379.11	65
379.571	62
380.032	69
380.493	70
380.954	75
381.414	70
381.876	75
382.337	78
382.798	82
383.259	86
383.72	87
384.181	86
384.642	90
385.104	95
385.565	102
386.026	107
386.488	109
386.949	112
387.411	112
387.872	116
388.334	122
388.795	120
389.257	125
389.719	125
390.181	130
390.642	129
391.104	136
391.566	137
392.028	146
392.49	150
392.952	153
393.414	157
393.876	159
394.338	158
394.8	162
395.262	161
395.724	174
396.186	171
396.648	174
397.111	179
397.573	182
398.035	184
398.498	188
398.96	193
399.423	192
399.885	199
400.348	201
400.81	210
401.273	209
401.736	212
402.198	230
402.661	231
403.124	227
403.587	241
404.049	245
404.512	249
404.975	257
405.438	250
405.901	259
406.364	262
406.827	264
407.29	264
407.754	262
408.217	266
408.68	261
409.143	273
409.607	282
410.07	278
410.533	283
410.997	287
411.46	291
411.924	305
412.387	301
412.851	306
413.314	316
413.778	317
414.242	324
414.705	339
415.169	337
415.633	334
416.097	335
416.561	342
417.024	347
417.488	337
417.952	349
418.416	344
418.88	341
419.344	347
419.809	356
420.273	363
420.737	357
421.201	368
421.665	383
422.13	383
422.594	396
423.059	402
423.523	413
423.987	414
424.452	427
424.916	434
425.381	447
425.846	444
426.31	459
426.775	461
427.24	473
427.704	460
428.169	477
428.634	475
429.099	471
429.564	475
430.029	480
430.494	475
430.959	488
431.424	480
431.889	499
432.354	507
432.819	497
433.284	532
433.75	528
434.215	553
434.68	554
435.146	563
435.611	582
436.077	598
436.542	600
437.008	623
437.473	626
437.939	634
438.404	653
438.87	664
439.336	654
439.801	646
440.267	666
440.733	682
441.199	678
441.665	686
442.131	714
442.596	697
443.062	716
443.529	745
443.995	761
444.461	770
444.927	808
445.393	811
445.859	851
446.325	865
446.792	919
447.258	917
447.724	941
448.191	978
448.657	976
449.124	1011
449.59	995
450.057	1057
450.523	1066
450.99	1081
451.457	1072
451.923	1099
452.39	1092
452.857	1126
453.324	1110
453.791	1131
454.257	1130
454.724	1150
455.191	1152
455.658	1157
456.125	1198
456.592	1168
457.059	1194
457.527	1211
457.994	1249
458.461	1262
458.928	1284
459.396	1281
459.863	1318
460.33	1301
460.798	1311
461.265	1336
461.732	1321
462.2	1368
462.668	1357
463.135	1379
463.603	1323
464.07	1370
464.538	1334
465.006	1379
465.474	1348
465.941	1361
466.409	1377
466.877	1343
467.345	1380
467.813	1364
468.281	1388
468.749	1406
469.217	1399
469.685	1423
470.153	1458
470.621	1463
471.09	1469
471.558	1540
472.026	1541
472.494	1585
472.963	1599
473.431	1645
473.9	1680
474.368	1717
474.837	1741
475.305	1759
475.774	1786
476.242	1828
476.711	1831
477.18	1892
477.648	1887
478.117	1891
478.586	1879
479.055	1892
479.524	1908
479.993	1906
480.462	1903
480.93	1914
481.399	1916
481.869	1927
482.338	1909
482.807	1950
483.276	1933
483.745	1928
484.214	1990
484.684	2017
485.153	2034
485.622	2060
486.092	2123
486.561	2079
487.031	2153
487.5	2199
487.97	2225
488.439	2283
488.909	2355
489.378	2447
489.848	2434
490.318	2476
490.787	2576
491.257	2598
491.727	2606
492.197	2641
492.667	2645
493.137	2684
493.607	2714
494.077	2733
494.547	2708
495.017	2693
495.487	2726
495.957	2796
496.427	2732
496.897	2733
497.368	2773
497.838	2748
498.308	2785
498.779	2836
499.249	2854
499.719	2890
500.19	2921
500.66	2930
501.131	2952
501.602	3007
502.072	2999
502.543	3051
503.014	3161
503.484	3152
503.955	3255
504.426	3370
504.897	3382
505.368	3450
505.838	3538
506.309	3628
506.78	3722
507.251	3780
507.722	3875
508.194	3968
508.665	4015
509.136	4008
509.607	4137
510.078	4150
510.549	4162
511.021	4275
511.492	4302
511.964	4353
512.435	4417
512.906	4384
513.378	4410
513.849	4485
514.321	4512
514.793	4558
515.264	4621
515.736	4664
516.208	4750
516.679	4814
517.151	4831
517.623	4871
518.095	4961
518.567	4990
519.038	5085
519.51	5066
519.982	5121
520.454	5187
520.927	5273
521.399	5381
521.871	5438
522.343	5447
522.815	5462
523.287	5460
523.76	5530
524.232	5604
524.704	5640
525.177	5548
525.649	5575
526.122	5633
526.594	5508
527.067	5642
527.539	5739
528.012	5689
528.484	5665
528.957	5692
529.43	5686
529.903	5655
530.375	5850
530.848	5736
531.321	5809
531.794	5804
532.267	5934
532.74	5842
533.213	5810
533.686	5905
534.159	5886
534.632	6040
535.105	6072
535.578	6218
536.051	6239
536.525	6241
536.998	6224
537.471	6380
537.945	6331
538.418	6428
538.891	6420
539.365	6500
539.838	6531
540.312	6513
540.786	6525
541.259	6504
541.733	6648
542.206	6665
542.68	6590
543.154	6595
543.628	6607
544.101	6723
544.575	6607
545.049	6436
545.523	6552
545.997	6550
546.471	6604
546.945	6554
547.419	6665
547.893	6450
548.367	6610
548.842	6516
549.316	6562
549.79	6582
550.264	6514
550.739	6614
551.213	6613
551.687	6611
552.162	6662
552.636	6589
553.111	6596
553.585	6816
554.06	6737
554.534	6848
555.009	6807
555.484	6918
555.958	7007
556.433	6997
556.908	7097
557.383	7028
557.858	7229
558.333	7245
558.807	7215
559.282	7267
559.757	7472
560.232	7433
560.708	7298
561.183	7251
561.658	7349
562.133	7318
562.608	7250
563.083	7423
563.559	7288
564.034	7341
564.509	7308
564.985	7331
565.46	7240
565.936	7389
566.411	7346
566.887	7285
567.362	7388
567.838	7425
568.313	7488
568.789	7331
569.265	7301
569.74	7364
570.216	7307
570.692	7393
571.168	7394
571.644	7432
572.12	7457
572.596	7520
573.071	7541
573.547	7776
574.024	7844
574.5	7870
574.976	7887
575.452	8016
575.928	8130
576.404	8210
576.881	8471
577.357	8281
577.833	8295
578.31	8542
578.786	8605
579.262	8689
579.739	8570
580.215	8799
580.692	8791
581.169	8723
581.645	8762
582.122	9032
582.598	9037
583.075	9045
583.552	9079
584.029	9002
584.506	8901
584.982	8850
585.459	9074
585.936	8958
586.413	9063
586.89	9238
587.367	9150
587.844	9283
588.321	9181
588.799	9203
589.276	9152
589.753	9304
590.23	9340
590.707	9299
591.185	9297
591.662	9338
592.139	9408
592.617	9504
593.094	9462
593.572	9533
594.049	9635
594.527	9714
595.004	9793
595.482	10030
595.96	9973
596.437	9988
596.915	10230
597.393	10069
597.871	10311
598.349	10212
598.826	10386
599.304	10355
599.782	10545
600.26	10477
600.738	10712
601.216	10659
601.694	10691
602.173	10729
602.651	10758
603.129	10569
603.607	10630
604.085	10681
604.564	10728
605.042	10799
605.52	10717
605.999	10965
606.477	10675
606.956	10685
607.434	10828.5
607.913	10972
608.391	10914
608.87	10864
609.348	10687
609.827	10701
610.306	10817
610.785	10849
611.263	10814
611.742	10715
612.221	10590
612.7	10734
613.179	10797
613.658	10665
614.137	10834
614.616	10927
615.095	10741
615.574	10885
616.053	10974
616.532	10865
617.011	10907
617.491	11003
617.97	10984
618.449	11109
618.928	11157
619.408	11056
619.887	11177
620.367	11199
620.846	11314
621.326	11245
621.805	11503
622.285	11485
622.764	11553
623.244	11550
623.724	11637
624.203	11680
624.683	11504
625.163	11721
625.643	11687
626.123	11574
626.602	11806
627.082	11563
627.562	11543
628.042	11767
628.522	11651
629.002	11547
629.482	11647
629.963	11694
630.443	11613
630.923	11622
631.403	11682
631.883	11619
632.364	11643
632.844	11553
633.324	11624
633.805	11693
634.285	11543
634.766	11453
635.246	11456
635.727	11443
636.207	11438
636.688	11420
637.168	11411
637.649	11352
638.13	11327
638.611	11414
639.091	11379
639.572	11336
640.053	11285
640.534	11364
641.015	11299
641.496	11143
641.977	11337
642.458	11244
642.939	11339
643.42	11356
643.901	11327
644.382	11423
644.863	11373
645.345	11297
645.826	11305
646.307	11296
646.788	11478
647.27	11299
647.751	11298
648.233	11363
648.714	11119
649.196	11419
649.677	11360
650.159	11357
650.64	11235
651.122	11428
651.603	11271
652.085	11378
652.567	11445
653.049	11365
653.53	11349
654.012	11508
654.494	11299
654.976	11465
655.458	11407
655.94	11370
656.422	11561
656.904	11378
657.386	11272
657.868	11277
658.35	11212
658.833	11307
659.315	11316
659.797	11142
660.279	11062
660.762	11095
661.244	11003
661.726	10863
662.209	10869
662.691	10880
663.174	10697
663.656	10778
664.139	10781
664.621	10652
665.104	10598
665.587	10739
666.069	10804
666.552	10779
667.035	10633
667.517	10669
668	10770
668.483	10756
668.966	10659
669.449	10615
669.932	10608
670.415	10734
670.898	10656
671.381	10701
671.864	10682
672.347	10509
672.83	10528
673.313	10557
673.797	10528
674.28	10748
674.763	10785
675.247	10786
675.73	10681
676.213	10782
676.697	10832
677.18	10834
677.664	10876
678.147	10829
678.631	10903
679.114	10950
679.598	10949
680.082	11071
680.565	11069
681.049	11014
681.533	11004
682.017	11022
682.5	10965
682.984	10996
683.468	11010
683.952	10826
684.436	11002
684.92	10875
685.404	10942
685.888	11032
686.372	10936
686.856	10961
687.341	11064
687.825	10927
688.309	10962
688.793	10985
689.278	10863
689.762	10929
690.246	10863
690.731	10878
691.215	10946
691.7	10702
692.184	10816
692.669	10709
693.153	10729
693.638	10561
694.122	10534
694.607	10652
695.092	10514
695.577	10573
696.061	10356
696.546	10374
697.031	10371
697.516	10460
698.001	10488
698.486	10381
698.971	10439
699.456	10198
699.941	10186
700.426	10195
700.911	10346
701.396	10319
701.881	10359
702.366	10285
702.852	10217
703.337	10252
703.822	10252
704.308	10266
704.793	10328
705.278	10352
705.764	10393
706.249	10335
706.735	10318
707.22	10394
707.706	10240
708.191	10400
708.677	10364
709.163	10202
709.648	10216
710.134	10371
710.62	10280
711.106	10325
711.592	10501
712.077	10437
712.563	10144
713.049	10106
713.535	10326
714.021	10274
714.507	10200
714.993	10064
715.479	10104
715.966	9992
716.452	10028
716.938	10093
717.424	9847
717.91	10050
718.397	9975
718.883	9892
719.369	9921
719.856	9803
720.342	9953
720.829	9851
721.315	9908
721.802	9786
722.288	9816
722.775	9416
723.262	9157
723.748	9521
724.235	9479
724.722	9590
725.208	9407
725.695	9395
726.182	9370
726.669	9279
727.156	9325
727.643	9195
728.13	9163
728.617	9050
729.104	9064
729.591	8996
730.078	9103
730.565	9115
731.052	8994
731.539	9014
732.027	8931
732.514	8767
733.001	8847
733.488	8794
733.976	8803
734.463	8772
734.951	8783
735.438	8850
735.926	8716
736.413	8745
736.901	8662
737.388	8721
737.876	8693
738.364	8673
738.851	8765
739.339	8757
739.827	8843
740.314	8564
740.802	8559
741.29	8559
741.778	8460
742.266	8481
742.754	8485
743.242	8556
743.73	8390
744.218	8357
744.706	8266
745.194	8334
745.682	8298
746.17	8317
746.659	8329
747.147	8128
747.635	8139
748.123	8085
748.612	7969
749.1	7950
749.589	8046
750.077	8027
750.566	8023
751.054	8084
751.543	8109
752.031	7926
752.52	7835
753.008	7678
753.497	7689
753.986	7677
754.474	7663
754.963	7717
755.452	7585
755.941	7529
756.43	7519
756.919	7464
757.408	7383
757.896	7411
758.385	7418
758.875	7332
759.364	7263
759.853	7178
760.342	7063
760.831	7215
761.32	7153
761.809	7064
762.299	7082
762.788	7067
763.277	7016
763.767	6903
764.256	6885
764.745	6840
765.235	6953
765.724	6745
766.214	6814
766.703	6701
767.193	6601
767.683	6598
768.172	6477
768.662	6512
769.152	6479
769.641	6497
770.131	6344
770.621	6438
771.111	6331
771.601	6318
772.09	6295
772.58	6229
773.07	6243
773.56	6280
774.05	6125
774.54	6101
775.031	6074
775.521	6061
776.011	6056
776.501	6077
776.991	5938
777.482	5986
777.972	5827
778.462	5805
778.953	5821
779.443	5784
779.933	5779
780.424	5728
780.914	5770
781.405	5776
781.895	5700
782.386	5670
782.877	5617
783.367	5512
783.858	5462
784.349	5466
784.839	5443
785.33	5473
785.821	5445
786.312	5416
786.803	5429
787.293	5430
787.784	5339
788.275	5262
788.766	5203
789.257	5281
789.748	5143
790.24	5082
790.731	5088
791.222	4986
791.713	4951
792.204	4962
792.696	4850
793.187	4929
793.678	4884
794.169	4725
794.661	4795
795.152	4717
795.644	4655
796.135	4660
796.627	4687
797.118	4591
797.61	4544
798.101	4481
798.593	4543
799.085	4471
799.576	4487
800.068	4421
800.56	4425
801.052	4328
801.544	4319
802.035	4318
802.527	4252
803.019	4188
803.511	4134
804.003	4111
804.495	4147
804.987	4095
805.479	4020
805.971	4050
806.464	4018
806.956	3898
807.448	3885
807.94	3876
808.433	3849
808.925	3839
809.417	3785
809.91	3761
810.402	3655
810.894	3680
811.387	3707
811.879	3652
812.372	3680
812.865	3650
813.357	3646
813.85	3622
814.342	3604
814.835	3593
815.328	3567
815.821	3501
816.313	3491
816.806	3497
817.299	3430
817.792	3453
818.285	3382
818.778	3430
819.271	3433
819.764	3390
820.257	3407
820.75	3398
821.243	3408
821.736	3355
822.229	3373
822.722	3357
823.216	3424
