Data from lamp4bck_noballon_Subt2__61__261.txt Node

Date: Wed Apr 09 11:11:15 CEST 2025
User: fys-lab-0081
Spectrometer: S04999
Trigger mode: 0
Resolution mode: 1024 pixels
Integration Time (sec): 1.000000E-1
Scans to average: 1
Nonlinearity correction enabled: false
Boxcar width: 0
Baseline correction enabled: true
XAxis mode: Wavelengths
Number of Pixels in Spectrum: 1024
>>>>>Begin Spectral Data<<<<<
336.42	5
336.877	12
337.334	9
337.792	6
338.249	8
338.706	6
339.164	7
339.621	4
340.079	4
340.536	7
340.994	9
341.452	13
341.909	11
342.367	7
342.825	4
343.283	11
343.741	9
344.198	6
344.656	8
345.114	8
345.572	11
346.03	9
346.488	7
346.947	12
347.405	15
347.863	12
348.321	7
348.779	17
349.238	10
349.696	14
350.154	7
350.613	10
351.071	15
351.53	20
351.988	18
352.447	14
352.905	8
353.364	14
353.823	21
354.282	15
354.74	12
355.199	21
355.658	24
356.117	17
356.576	19
357.035	11
357.494	20
357.953	23
358.412	20
358.871	21
359.33	22
359.789	23
360.249	21
360.708	25
361.167	28
361.626	22
362.086	26
362.545	24
363.005	28
363.464	29
363.924	30
364.383	29
364.843	33
365.303	34
365.762	38
366.222	37
366.682	37
367.142	35
367.601	36
368.061	36
368.521	40
368.981	39
369.441	44
369.901	40
370.361	44
370.821	42
371.282	41
371.742	44
372.202	45
372.662	47
373.123	47
373.583	49
374.043	52
374.504	53
374.964	51
375.425	54
375.885	54
376.346	58
376.806	61
377.267	60
377.728	62
378.188	65
378.649	61
379.11	67
379.571	61
380.032	71
380.493	71
380.954	73
381.414	76
381.876	78
382.337	75
382.798	84
383.259	86
383.72	89
384.181	89
384.642	92
385.104	96
385.565	98
386.026	105
386.488	103
386.949	111
387.411	108
387.872	120
388.334	118
388.795	125
389.257	126
389.719	119
390.181	128
390.642	130
391.104	137
391.566	143
392.028	149
392.49	153
392.952	150
393.414	154
393.876	159
394.338	161
394.8	161
395.262	164
395.724	172
396.186	176
396.648	177
397.111	177
397.573	184
398.035	182
398.498	187
398.96	194
399.423	193
399.885	197
400.348	200
400.81	208
401.273	208
401.736	211
402.198	225
402.661	234
403.124	230
403.587	243
404.049	245
404.512	247
404.975	254
405.438	252
405.901	263
406.364	264
406.827	263
407.29	258
407.754	262
408.217	267
408.68	265
409.143	277
409.607	286
410.07	283
410.533	279
410.997	289
411.46	293
411.924	301
412.387	305
412.851	311
413.314	319
413.778	318
414.242	327
414.705	339
415.169	335
415.633	337
416.097	332
416.561	342
417.024	351
417.488	340
417.952	350
418.416	341
418.88	349
419.344	349
419.809	354
420.273	362
420.737	360
421.201	372
421.665	378
422.13	383
422.594	397
423.059	402
423.523	409
423.987	412
424.452	425
424.916	437
425.381	449
425.846	448
426.31	458
426.775	459
427.24	473
427.704	464
428.169	476
428.634	480
429.099	473
429.564	476
430.029	478
430.494	481
430.959	486
431.424	479
431.889	499
432.354	507
432.819	498
433.284	528
433.75	529
434.215	550
434.68	551
435.146	560
435.611	579
436.077	599
436.542	599
437.008	625
437.473	628
437.939	632
438.404	651
438.87	667
439.336	654
439.801	646
440.267	665
440.733	676
441.199	680
441.665	684
442.131	708
442.596	695
443.062	711
443.529	747
443.995	758
444.461	771
444.927	811
445.393	816
445.859	852
446.325	863
446.792	916
447.258	915
447.724	944
448.191	979
448.657	983
449.124	1009
449.59	996
450.057	1059
450.523	1062
450.99	1086
451.457	1072
451.923	1106
452.39	1092
452.857	1124
453.324	1116
453.791	1135
454.257	1131
454.724	1154
455.191	1154
455.658	1159
456.125	1194
456.592	1181
457.059	1200
457.527	1221
457.994	1249
458.461	1260
458.928	1280
459.396	1276
459.863	1320
460.33	1308
460.798	1308
461.265	1337
461.732	1319
462.2	1368
462.668	1356
463.135	1374
463.603	1331
464.07	1371
464.538	1331
465.006	1378
465.474	1354
465.941	1358
466.409	1375
466.877	1339
467.345	1387
467.813	1369
468.281	1390
468.749	1410
469.217	1412
469.685	1425
470.153	1463
470.621	1461
471.09	1467
471.558	1535
472.026	1540
472.494	1581
472.963	1603
473.431	1643
473.9	1674
474.368	1719
474.837	1744
475.305	1758
475.774	1788
476.242	1834
476.711	1834
477.18	1898
477.648	1892
478.117	1894
478.586	1888
479.055	1901
479.524	1914
479.993	1906
480.462	1904
480.93	1919
481.399	1917
481.869	1931
482.338	1915
482.807	1953
483.276	1927
483.745	1928
484.214	1993
484.684	2021
485.153	2031
485.622	2059
486.092	2129
486.561	2083
487.031	2164
487.5	2206
487.97	2230
488.439	2285
488.909	2358
489.378	2443
489.848	2438
490.318	2483
490.787	2581
491.257	2603
491.727	2611
492.197	2647
492.667	2648
493.137	2685
493.607	2717
494.077	2740
494.547	2703
495.017	2694
495.487	2733
495.957	2793
496.427	2730
496.897	2724
497.368	2773
497.838	2750
498.308	2783
498.779	2838
499.249	2855
499.719	2890
500.19	2923
500.66	2937
501.131	2959
501.602	3016
502.072	3005
502.543	3053
503.014	3175
503.484	3159
503.955	3252
504.426	3372
504.897	3386
505.368	3446
505.838	3544
506.309	3629
506.78	3717
507.251	3779
507.722	3881
508.194	3967
508.665	4024
509.136	4009
509.607	4136
510.078	4147
510.549	4161
511.021	4268
511.492	4294
511.964	4348
512.435	4423
512.906	4386
513.378	4418
513.849	4485
514.321	4507
514.793	4574
515.264	4633
515.736	4669
516.208	4761
516.679	4814
517.151	4834
517.623	4867
518.095	4957
518.567	4995
519.038	5087
519.51	5062
519.982	5125
520.454	5187
520.927	5277
521.399	5378
521.871	5435
522.343	5452
522.815	5477
523.287	5465
523.76	5521
524.232	5620
524.704	5640
525.177	5554
525.649	5570
526.122	5635
526.594	5504
527.067	5650
527.539	5747
528.012	5694
528.484	5675
528.957	5702
529.43	5693
529.903	5655
530.375	5846
530.848	5739
531.321	5816
531.794	5806
532.267	5929
532.74	5834
533.213	5808
533.686	5911
534.159	5887
534.632	6035
535.105	6076
535.578	6227
536.051	6235
536.525	6247
536.998	6220
537.471	6381
537.945	6323
538.418	6427
538.891	6425
539.365	6509
539.838	6536
540.312	6516
540.786	6532
541.259	6521
541.733	6627
542.206	6673
542.68	6588
543.154	6606
543.628	6614
544.101	6728
544.575	6610
545.049	6430
545.523	6553
545.997	6547
546.471	6607
546.945	6549
547.419	6675
547.893	6458
548.367	6610
548.842	6534
549.316	6560
549.79	6585
550.264	6524
550.739	6611
551.213	6623
551.687	6610
552.162	6662
552.636	6585
553.111	6592
553.585	6819
554.06	6737
554.534	6854
555.009	6815
555.484	6923
555.958	7008
556.433	6978
556.908	7086
557.383	7034
557.858	7234
558.333	7246
558.807	7210
559.282	7269
559.757	7472
560.232	7442
560.708	7307
561.183	7239
561.658	7347
562.133	7331
562.608	7262
563.083	7437
563.559	7296
564.034	7337
564.509	7313
564.985	7335
565.46	7245
565.936	7376
566.411	7346
566.887	7290
567.362	7395
567.838	7417
568.313	7501
568.789	7332
569.265	7309
569.74	7373
570.216	7297
570.692	7409
571.168	7410
571.644	7428
572.12	7454
572.596	7519
573.071	7548
573.547	7792
574.024	7855
574.5	7896
574.976	7893
575.452	8018
575.928	8127
576.404	8221
576.881	8456
577.357	8283
577.833	8312
578.31	8548
578.786	8615
579.262	8694
579.739	8579
580.215	8805
580.692	8781
581.169	8719
581.645	8775
582.122	9050
582.598	9044
583.075	9045
583.552	9080
584.029	8997
584.506	8900
584.982	8844
585.459	9068
585.936	8956
586.413	9063
586.89	9233
587.367	9148
587.844	9287
588.321	9170
588.799	9200
589.276	9157
589.753	9306
590.23	9342
590.707	9297
591.185	9312
591.662	9334
592.139	9407
592.617	9507
593.094	9468
593.572	9544
594.049	9626
594.527	9745
595.004	9780
595.482	10035
595.96	9979
596.437	9985
596.915	10223
597.393	10076
597.871	10312
598.349	10218
598.826	10392
599.304	10354
599.782	10541
600.26	10474
600.738	10725
601.216	10666
601.694	10699
602.173	10742
602.651	10763
603.129	10572
603.607	10641
604.085	10699
604.564	10737
605.042	10808
605.52	10714
605.999	10967
606.477	10667
606.956	10690
607.434	10830.5
607.913	10971
608.391	10918
608.87	10867
609.348	10697
609.827	10714
610.306	10813
610.785	10836
611.263	10814
611.742	10731
612.221	10594
612.7	10740
613.179	10814
613.658	10691
614.137	10854
614.616	10924
615.095	10769
615.574	10893
616.053	10972
616.532	10883
617.011	10912
617.491	11008
617.97	10988
618.449	11104
618.928	11177
619.408	11060
619.887	11186
620.367	11211
620.846	11321
621.326	11262
621.805	11499
622.285	11498
622.764	11553
623.244	11552
623.724	11638
624.203	11700
624.683	11506
625.163	11725
625.643	11681
626.123	11572
626.602	11802
627.082	11574
627.562	11547
628.042	11772
628.522	11644
629.002	11555
629.482	11650
629.963	11696
630.443	11620
630.923	11617
631.403	11681
631.883	11633
632.364	11646
632.844	11545
633.324	11642
633.805	11705
634.285	11552
634.766	11458
635.246	11478
635.727	11463
636.207	11454
636.688	11434
637.168	11413
637.649	11362
638.13	11329
638.611	11422
639.091	11381
639.572	11326
640.053	11282
640.534	11365
641.015	11296
641.496	11155
641.977	11345
642.458	11255
642.939	11327
643.42	11380
643.901	11330
644.382	11420
644.863	11355
645.345	11301
645.826	11289
646.307	11301
646.788	11471
647.27	11285
647.751	11292
648.233	11367
648.714	11123
649.196	11431
649.677	11357
650.159	11352
650.64	11257
651.122	11430
651.603	11270
652.085	11383
652.567	11458
653.049	11380
653.53	11349
654.012	11505
654.494	11308
654.976	11465
655.458	11420
655.94	11375
656.422	11553
656.904	11364
657.386	11271
657.868	11281
658.35	11207
658.833	11301
659.315	11318
659.797	11126
660.279	11062
660.762	11102
661.244	10994
661.726	10872
662.209	10879
662.691	10885
663.174	10698
663.656	10782
664.139	10795
664.621	10648
665.104	10597
665.587	10758
666.069	10808
666.552	10787
667.035	10647
667.517	10675
668	10781
668.483	10758
668.966	10659
669.449	10615
669.932	10616
670.415	10731
670.898	10666
671.381	10695
671.864	10691
672.347	10526
672.83	10527
673.313	10561
673.797	10535
674.28	10766
674.763	10793
675.247	10791
675.73	10692
676.213	10782
676.697	10850
677.18	10847
677.664	10869
678.147	10835
678.631	10902
679.114	10961
679.598	10973
680.082	11082
680.565	11070
681.049	11019
681.533	10995
682.017	11022
682.5	10961
682.984	11008
683.468	11021
683.952	10827
684.436	11009
684.92	10885
685.404	10943
685.888	11046
686.372	10936
686.856	10968
687.341	11088
687.825	10931
688.309	10959
688.793	10996
689.278	10857
689.762	10925
690.246	10858
690.731	10878
691.215	10959
691.7	10704
692.184	10819
692.669	10719
693.153	10743
693.638	10572
694.122	10535
694.607	10660
695.092	10508
695.577	10587
696.061	10358
696.546	10386
697.031	10370
697.516	10462
698.001	10482
698.486	10382
698.971	10450
699.456	10194
699.941	10188
700.426	10205
700.911	10356
701.396	10312
701.881	10359
702.366	10284
702.852	10203
703.337	10266
703.822	10249
704.308	10268
704.793	10341
705.278	10358
705.764	10401
706.249	10346
706.735	10320
707.22	10405
707.706	10240
708.191	10394
708.677	10371
709.163	10199
709.648	10213
710.134	10367
710.62	10288
711.106	10328
711.592	10499
712.077	10452
712.563	10154
713.049	10117
713.535	10329
714.021	10279
714.507	10196
714.993	10049
715.479	10123
715.966	9997
716.452	10031
716.938	10106
717.424	9853
717.91	10045
718.397	9968
718.883	9901
719.369	9922
719.856	9821
720.342	9975
720.829	9853
721.315	9902
721.802	9781
722.288	9816
722.775	9420
723.262	9175
723.748	9541
724.235	9484
724.722	9600
725.208	9406
725.695	9389
726.182	9385
726.669	9288
727.156	9317
727.643	9207
728.13	9161
728.617	9049
729.104	9077
729.591	8974
730.078	9097
730.565	9126
731.052	9014
731.539	9013
732.027	8923
732.514	8774
733.001	8861
733.488	8802
733.976	8815
734.463	8780
734.951	8782
735.438	8843
735.926	8718
736.413	8750
736.901	8656
737.388	8723
737.876	8707
738.364	8671
738.851	8762
739.339	8767
739.827	8842
740.314	8548
740.802	8578
741.29	8555
741.778	8458
742.266	8481
742.754	8486
743.242	8545
743.73	8384
744.218	8359
744.706	8270
745.194	8340
745.682	8294
746.17	8322
746.659	8344
747.147	8137
747.635	8135
748.123	8089
748.612	7965
749.1	7958
749.589	8047
750.077	8035
750.566	8027
751.054	8082
751.543	8114
752.031	7917
752.52	7846
753.008	7667
753.497	7680
753.986	7677
754.474	7643
754.963	7721
755.452	7578
755.941	7521
756.43	7515
756.919	7464
757.408	7384
757.896	7412
758.385	7422
758.875	7330
759.364	7265
759.853	7177
760.342	7065
760.831	7220
761.32	7147
761.809	7063
762.299	7080
762.788	7052
763.277	7024
763.767	6901
764.256	6912
764.745	6827
765.235	6951
765.724	6757
766.214	6818
766.703	6705
767.193	6610
767.683	6606
768.172	6479
768.662	6520
769.152	6481
769.641	6499
770.131	6348
770.621	6434
771.111	6328
771.601	6317
772.09	6284
772.58	6229
773.07	6249
773.56	6272
774.05	6137
774.54	6099
775.031	6080
775.521	6068
776.011	6063
776.501	6081
776.991	5938
777.482	5987
777.972	5830
778.462	5797
778.953	5823
779.443	5779
779.933	5787
780.424	5717
780.914	5769
781.405	5771
781.895	5699
782.386	5672
782.877	5630
783.367	5505
783.858	5467
784.349	5475
784.839	5445
785.33	5475
785.821	5452
786.312	5410
786.803	5430
787.293	5420
787.784	5339
788.275	5263
788.766	5204
789.257	5285
789.748	5151
790.24	5085
790.731	5093
791.222	4990
791.713	4950
792.204	4969
792.696	4855
793.187	4925
793.678	4893
794.169	4740
794.661	4796
795.152	4704
795.644	4657
796.135	4650
796.627	4682
797.118	4596
797.61	4544
798.101	4478
798.593	4544
799.085	4476
799.576	4484
800.068	4413
800.56	4422
801.052	4323
801.544	4319
802.035	4322
802.527	4246
803.019	4184
803.511	4131
804.003	4101
804.495	4139
804.987	4104
805.479	4023
805.971	4048
806.464	4030
806.956	3906
807.448	3887
807.94	3885
808.433	3845
808.925	3834
809.417	3794
809.91	3771
810.402	3659
810.894	3685
811.387	3699
811.879	3640
812.372	3674
812.865	3655
813.357	3645
813.85	3619
814.342	3600
814.835	3595
815.328	3568
815.821	3507
816.313	3495
816.806	3493
817.299	3435
817.792	3451
818.285	3394
818.778	3437
819.271	3431
819.764	3397
820.257	3412
820.75	3409
821.243	3401
821.736	3352
822.229	3370
822.722	3357
823.216	3416
