Data from lamp4bck_noballon_Subt2__32__232.txt Node

Date: Wed Apr 09 11:11:11 CEST 2025
User: fys-lab-0081
Spectrometer: S04999
Trigger mode: 0
Resolution mode: 1024 pixels
Integration Time (sec): 1.000000E-1
Scans to average: 1
Nonlinearity correction enabled: false
Boxcar width: 0
Baseline correction enabled: true
XAxis mode: Wavelengths
Number of Pixels in Spectrum: 1024
>>>>>Begin Spectral Data<<<<<
336.42	5
336.877	6
337.334	4
337.792	6
338.249	4
338.706	8
339.164	5
339.621	10
340.079	7
340.536	8
340.994	8
341.452	9
341.909	11
342.367	10
342.825	4
343.283	9
343.741	7
344.198	8
344.656	8
345.114	6
345.572	11
346.03	10
346.488	9
346.947	12
347.405	14
347.863	11
348.321	9
348.779	14
349.238	8
349.696	13
350.154	11
350.613	11
351.071	15
351.53	17
351.988	18
352.447	15
352.905	8
353.364	12
353.823	18
354.282	16
354.74	13
355.199	19
355.658	22
356.117	18
356.576	21
357.035	17
357.494	22
357.953	22
358.412	22
358.871	23
359.33	24
359.789	18
360.249	25
360.708	25
361.167	27
361.626	24
362.086	25
362.545	26
363.005	30
363.464	32
363.924	29
364.383	31
364.843	35
365.303	41
365.762	36
366.222	40
366.682	35
367.142	39
367.601	36
368.061	33
368.521	38
368.981	38
369.441	41
369.901	44
370.361	41
370.821	47
371.282	45
371.742	44
372.202	43
372.662	47
373.123	48
373.583	51
374.043	53
374.504	49
374.964	50
375.425	57
375.885	51
376.346	58
376.806	63
377.267	60
377.728	65
378.188	62
378.649	64
379.11	69
379.571	61
380.032	72
380.493	72
380.954	74
381.414	75
381.876	75
382.337	81
382.798	83
383.259	90
383.72	91
384.181	92
384.642	93
385.104	97
385.565	104
386.026	107
386.488	109
386.949	109
387.411	110
387.872	119
388.334	122
388.795	124
389.257	125
389.719	127
390.181	131
390.642	131
391.104	132
391.566	142
392.028	147
392.49	152
392.952	153
393.414	155
393.876	160
394.338	160
394.8	162
395.262	160
395.724	174
396.186	173
396.648	173
397.111	175
397.573	183
398.035	182
398.498	188
398.96	194
399.423	193
399.885	198
400.348	202
400.81	206
401.273	209
401.736	209
402.198	232
402.661	240
403.124	229
403.587	241
404.049	245
404.512	249
404.975	253
405.438	248
405.901	262
406.364	263
406.827	265
407.29	262
407.754	257
408.217	268
408.68	267
409.143	280
409.607	280
410.07	285
410.533	279
410.997	291
411.46	293
411.924	301
412.387	304
412.851	305
413.314	318
413.778	314
414.242	321
414.705	341
415.169	334
415.633	336
416.097	330
416.561	340
417.024	347
417.488	337
417.952	352
418.416	341
418.88	350
419.344	349
419.809	355
420.273	358
420.737	357
421.201	371
421.665	386
422.13	381
422.594	395
423.059	403
423.523	408
423.987	410
424.452	424
424.916	427
425.381	453
425.846	447
426.31	457
426.775	461
427.24	473
427.704	462
428.169	471
428.634	473
429.099	477
429.564	474
430.029	475
430.494	476
430.959	484
431.424	478
431.889	502
432.354	506
432.819	499
433.284	525
433.75	527
434.215	554
434.68	554
435.146	557
435.611	584
436.077	597
436.542	600
437.008	624
437.473	626
437.939	632
438.404	650
438.87	662
439.336	651
439.801	647
440.267	661
440.733	676
441.199	677
441.665	684
442.131	707
442.596	692
443.062	717
443.529	744
443.995	757
444.461	773
444.927	811
445.393	816
445.859	843
446.325	861
446.792	917
447.258	914
447.724	944
448.191	979
448.657	982
449.124	1011
449.59	994
450.057	1057
450.523	1062
450.99	1087
451.457	1075
451.923	1103
452.39	1093
452.857	1124
453.324	1114
453.791	1133
454.257	1129
454.724	1147
455.191	1157
455.658	1158
456.125	1198
456.592	1173
457.059	1197
457.527	1213
457.994	1255
458.461	1257
458.928	1273
459.396	1271
459.863	1315
460.33	1308
460.798	1305
461.265	1336
461.732	1322
462.2	1367
462.668	1354
463.135	1375
463.603	1330
464.07	1372
464.538	1332
465.006	1373
465.474	1352
465.941	1360
466.409	1373
466.877	1341
467.345	1381
467.813	1367
468.281	1388
468.749	1409
469.217	1405
469.685	1424
470.153	1460
470.621	1456
471.09	1463
471.558	1537
472.026	1534
472.494	1577
472.963	1597
473.431	1643
473.9	1677
474.368	1713
474.837	1745
475.305	1759
475.774	1786
476.242	1834
476.711	1833
477.18	1891
477.648	1882
478.117	1885
478.586	1881
479.055	1897
479.524	1910
479.993	1906
480.462	1903
480.93	1915
481.399	1922
481.869	1932
482.338	1915
482.807	1947
483.276	1927
483.745	1929
484.214	1989
484.684	2018
485.153	2032
485.622	2053
486.092	2117
486.561	2085
487.031	2163
487.5	2199
487.97	2220
488.439	2287
488.909	2353
489.378	2442
489.848	2434
490.318	2479
490.787	2576
491.257	2602
491.727	2605
492.197	2642
492.667	2648
493.137	2677
493.607	2710
494.077	2733
494.547	2700
495.017	2686
495.487	2729
495.957	2789
496.427	2729
496.897	2727
497.368	2770
497.838	2750
498.308	2786
498.779	2829
499.249	2853
499.719	2889
500.19	2913
500.66	2930
501.131	2951
501.602	3003
502.072	3004
502.543	3054
503.014	3168
503.484	3148
503.955	3250
504.426	3363
504.897	3384
505.368	3438
505.838	3534
506.309	3625
506.78	3723
507.251	3778
507.722	3870
508.194	3963
508.665	4012
509.136	4002
509.607	4125
510.078	4147
510.549	4157
511.021	4264
511.492	4295
511.964	4359
512.435	4412
512.906	4383
513.378	4409
513.849	4483
514.321	4501
514.793	4549
515.264	4619
515.736	4659
516.208	4755
516.679	4797
517.151	4825
517.623	4863
518.095	4955
518.567	4984
519.038	5078
519.51	5051
519.982	5120
520.454	5191
520.927	5273
521.399	5368
521.871	5431
522.343	5445
522.815	5471
523.287	5467
523.76	5515
524.232	5605
524.704	5637
525.177	5549
525.649	5573
526.122	5628
526.594	5498
527.067	5641
527.539	5736
528.012	5695
528.484	5668
528.957	5694
529.43	5684
529.903	5645
530.375	5841
530.848	5719
531.321	5803
531.794	5799
532.267	5928
532.74	5837
533.213	5813
533.686	5893
534.159	5876
534.632	6022
535.105	6060
535.578	6202
536.051	6231
536.525	6229
536.998	6212
537.471	6361
537.945	6314
538.418	6423
538.891	6429
539.365	6500
539.838	6529
540.312	6508
540.786	6529
541.259	6506
541.733	6632
542.206	6647
542.68	6572
543.154	6588
543.628	6609
544.101	6715
544.575	6596
545.049	6417
545.523	6543
545.997	6541
546.471	6608
546.945	6541
547.419	6674
547.893	6451
548.367	6599
548.842	6519
549.316	6558
549.79	6577
550.264	6524
550.739	6612
551.213	6602
551.687	6599
552.162	6655
552.636	6579
553.111	6590
553.585	6806
554.06	6721
554.534	6842
555.009	6800
555.484	6902
555.958	6995
556.433	6987
556.908	7099
557.383	7015
557.858	7214
558.333	7230
558.807	7211
559.282	7253
559.757	7464
560.232	7436
560.708	7288
561.183	7239
561.658	7335
562.133	7331
562.608	7242
563.083	7426
563.559	7292
564.034	7328
564.509	7310
564.985	7323
565.46	7233
565.936	7370
566.411	7352
566.887	7267
567.362	7378
567.838	7406
568.313	7490
568.789	7320
569.265	7296
569.74	7367
570.216	7283
570.692	7398
571.168	7391
571.644	7432
572.12	7451
572.596	7510
573.071	7541
573.547	7777
574.024	7841
574.5	7865
574.976	7875
575.452	8008
575.928	8130
576.404	8210
576.881	8452
577.357	8279
577.833	8303
578.31	8535
578.786	8593
579.262	8678
579.739	8558
580.215	8806
580.692	8783
581.169	8724
581.645	8759
582.122	9019
582.598	9045
583.075	9032
583.552	9076
584.029	8991
584.506	8896
584.982	8838
585.459	9061
585.936	8950
586.413	9055
586.89	9228
587.367	9156
587.844	9268
588.321	9154
588.799	9186
589.276	9142
589.753	9311
590.23	9329
590.707	9292
591.185	9294
591.662	9325
592.139	9406
592.617	9500
593.094	9458
593.572	9531
594.049	9627
594.527	9721
595.004	9772
595.482	10032
595.96	9955
596.437	9976
596.915	10212
597.393	10064
597.871	10307
598.349	10207
598.826	10393
599.304	10349
599.782	10542
600.26	10473
600.738	10709
601.216	10643
601.694	10692
602.173	10724
602.651	10750
603.129	10556
603.607	10622
604.085	10682
604.564	10714
605.042	10793
605.52	10703
605.999	10945
606.477	10667
606.956	10689
607.434	10829
607.913	10969
608.391	10912
608.87	10863
609.348	10687
609.827	10704
610.306	10810
610.785	10838
611.263	10806
611.742	10701
612.221	10577
612.7	10734
613.179	10796
613.658	10665
614.137	10845
614.616	10924
615.095	10740
615.574	10882
616.053	10963
616.532	10862
617.011	10901
617.491	10997
617.97	10978
618.449	11097
618.928	11155
619.408	11054
619.887	11182
620.367	11197
620.846	11312
621.326	11231
621.805	11498
622.285	11486
622.764	11536
623.244	11537
623.724	11632
624.203	11677
624.683	11486
625.163	11698
625.643	11673
626.123	11565
626.602	11805
627.082	11562
627.562	11533
628.042	11761
628.522	11643
629.002	11546
629.482	11637
629.963	11673
630.443	11594
630.923	11609
631.403	11661
631.883	11618
632.364	11629
632.844	11548
633.324	11613
633.805	11683
634.285	11542
634.766	11442
635.246	11448
635.727	11457
636.207	11417
636.688	11428
637.168	11414
637.649	11340
638.13	11317
638.611	11408
639.091	11377
639.572	11317
640.053	11276
640.534	11341
641.015	11297
641.496	11131
641.977	11330
642.458	11236
642.939	11316
643.42	11357
643.901	11330
644.382	11421
644.863	11340
645.345	11284
645.826	11287
646.307	11286
646.788	11462
647.27	11267
647.751	11286
648.233	11351
648.714	11108
649.196	11408
649.677	11357
650.159	11341
650.64	11232
651.122	11417
651.603	11254
652.085	11374
652.567	11453
653.049	11362
653.53	11351
654.012	11498
654.494	11292
654.976	11462
655.458	11407
655.94	11377
656.422	11534
656.904	11360
657.386	11262
657.868	11260
658.35	11203
658.833	11301
659.315	11316
659.797	11112
660.279	11051
660.762	11082
661.244	11004
661.726	10851
662.209	10875
662.691	10869
663.174	10697
663.656	10780
664.139	10781
664.621	10652
665.104	10583
665.587	10741
666.069	10799
666.552	10784
667.035	10629
667.517	10653
668	10761
668.483	10749
668.966	10670
669.449	10606
669.932	10609
670.415	10732
670.898	10647
671.381	10695
671.864	10683
672.347	10522
672.83	10520
673.313	10546
673.797	10527
674.28	10747
674.763	10784
675.247	10782
675.73	10679
676.213	10778
676.697	10832
677.18	10826
677.664	10857
678.147	10826
678.631	10882
679.114	10950
679.598	10945
680.082	11074
680.565	11065
681.049	11013
681.533	10991
682.017	11031
682.5	10950
682.984	10993
683.468	11022
683.952	10825
684.436	11008
684.92	10874
685.404	10936
685.888	11032
686.372	10940
686.856	10949
687.341	11053
687.825	10924
688.309	10975
688.793	10991
689.278	10851
689.762	10925
690.246	10855
690.731	10868
691.215	10940
691.7	10703
692.184	10816
692.669	10714
693.153	10727
693.638	10543
694.122	10543
694.607	10637
695.092	10510
695.577	10570
696.061	10347
696.546	10374
697.031	10356
697.516	10460
698.001	10482
698.486	10391
698.971	10426
699.456	10195
699.941	10178
700.426	10188
700.911	10336
701.396	10313
701.881	10368
702.366	10274
702.852	10203
703.337	10243
703.822	10239
704.308	10259
704.793	10341
705.278	10349
705.764	10380
706.249	10327
706.735	10317
707.22	10394
707.706	10235
708.191	10399
708.677	10361
709.163	10197
709.648	10196
710.134	10376
710.62	10279
711.106	10319
711.592	10486
712.077	10434
712.563	10136
713.049	10106
713.535	10315
714.021	10273
714.507	10194
714.993	10056
715.479	10103
715.966	9984
716.452	10021
716.938	10106
717.424	9836
717.91	10041
718.397	9949
718.883	9904
719.369	9923
719.856	9801
720.342	9948
720.829	9853
721.315	9902
721.802	9785
722.288	9815
722.775	9409
723.262	9151
723.748	9517
724.235	9465
724.722	9588
725.208	9413
725.695	9384
726.182	9370
726.669	9277
727.156	9314
727.643	9196
728.13	9157
728.617	9038
729.104	9060
729.591	8997
730.078	9075
730.565	9101
731.052	8981
731.539	9017
732.027	8924
732.514	8776
733.001	8855
733.488	8797
733.976	8795
734.463	8773
734.951	8775
735.438	8834
735.926	8712
736.413	8746
736.901	8665
737.388	8720
737.876	8703
738.364	8659
738.851	8757
739.339	8767
739.827	8843
740.314	8551
740.802	8557
741.29	8557
741.778	8458
742.266	8479
742.754	8484
743.242	8551
743.73	8383
744.218	8352
744.706	8266
745.194	8337
745.682	8294
746.17	8310
746.659	8331
747.147	8132
747.635	8139
748.123	8086
748.612	7958
749.1	7936
749.589	8053
750.077	8023
750.566	8028
751.054	8086
751.543	8105
752.031	7913
752.52	7839
753.008	7651
753.497	7681
753.986	7674
754.474	7654
754.963	7702
755.452	7561
755.941	7523
756.43	7520
756.919	7459
757.408	7376
757.896	7396
758.385	7418
758.875	7326
759.364	7246
759.853	7173
760.342	7058
760.831	7215
761.32	7155
761.809	7058
762.299	7083
762.788	7063
763.277	7020
763.767	6903
764.256	6889
764.745	6825
765.235	6951
765.724	6748
766.214	6822
766.703	6698
767.193	6590
767.683	6602
768.172	6482
768.662	6507
769.152	6474
769.641	6500
770.131	6352
770.621	6424
771.111	6329
771.601	6310
772.09	6288
772.58	6236
773.07	6248
773.56	6280
774.05	6142
774.54	6085
775.031	6071
775.521	6063
776.011	6051
776.501	6067
776.991	5929
777.482	5978
777.972	5813
778.462	5803
778.953	5822
779.443	5790
779.933	5781
780.424	5712
780.914	5771
781.405	5762
781.895	5686
782.386	5673
782.877	5619
783.367	5506
783.858	5469
784.349	5468
784.839	5437
785.33	5462
785.821	5442
786.312	5409
786.803	5427
787.293	5428
787.784	5328
788.275	5261
788.766	5208
789.257	5273
789.748	5147
790.24	5082
790.731	5091
791.222	4981
791.713	4953
792.204	4975
792.696	4838
793.187	4921
793.678	4885
794.169	4736
794.661	4792
795.152	4710
795.644	4661
796.135	4659
796.627	4691
797.118	4594
797.61	4546
798.101	4482
798.593	4543
799.085	4466
799.576	4482
800.068	4407
800.56	4418
801.052	4334
801.544	4324
802.035	4328
802.527	4246
803.019	4184
803.511	4139
804.003	4108
804.495	4144
804.987	4098
805.479	4022
805.971	4043
806.464	4018
806.956	3904
807.448	3882
807.94	3877
808.433	3849
808.925	3831
809.417	3794
809.91	3766
810.402	3658
810.894	3675
811.387	3703
811.879	3636
812.372	3680
812.865	3649
813.357	3649
813.85	3619
814.342	3591
814.835	3590
815.328	3566
815.821	3501
816.313	3499
816.806	3498
817.299	3425
817.792	3446
818.285	3386
818.778	3433
819.271	3425
819.764	3385
820.257	3408
820.75	3405
821.243	3404
821.736	3354
822.229	3373
822.722	3360
823.216	3427
