Data from lamp4bck_noballon_Subt2__67__267.txt Node

Date: Wed Apr 09 11:11:16 CEST 2025
User: fys-lab-0081
Spectrometer: S04999
Trigger mode: 0
Resolution mode: 1024 pixels
Integration Time (sec): 1.000000E-1
Scans to average: 1
Nonlinearity correction enabled: false
Boxcar width: 0
Baseline correction enabled: true
XAxis mode: Wavelengths
Number of Pixels in Spectrum: 1024
>>>>>Begin Spectral Data<<<<<
336.42	1
336.877	5
337.334	6
337.792	8
338.249	6
338.706	4
339.164	9
339.621	8
340.079	7
340.536	3
340.994	5
341.452	10
341.909	17
342.367	8
342.825	2
343.283	5
343.741	11
344.198	9
344.656	6
345.114	2
345.572	14
346.03	7
346.488	11
346.947	9
347.405	11
347.863	8
348.321	8
348.779	11
349.238	9
349.696	13
350.154	13
350.613	13
351.071	12
351.53	18
351.988	16
352.447	13
352.905	14
353.364	15
353.823	19
354.282	19
354.74	12
355.199	18
355.658	19
356.117	19
356.576	20
357.035	16
357.494	19
357.953	16
358.412	23
358.871	23
359.33	22
359.789	22
360.249	24
360.708	27
361.167	25
361.626	25
362.086	25
362.545	23
363.005	28
363.464	31
363.924	26
364.383	31
364.843	33
365.303	31
365.762	36
366.222	38
366.682	33
367.142	38
367.601	35
368.061	36
368.521	35
368.981	35
369.441	44
369.901	43
370.361	38
370.821	39
371.282	46
371.742	46
372.202	46
372.662	48
373.123	46
373.583	47
374.043	48
374.504	51
374.964	49
375.425	53
375.885	53
376.346	59
376.806	61
377.267	54
377.728	66
378.188	66
378.649	64
379.11	69
379.571	64
380.032	68
380.493	70
380.954	74
381.414	72
381.876	76
382.337	78
382.798	78
383.259	85
383.72	90
384.181	88
384.642	96
385.104	98
385.565	100
386.026	108
386.488	110
386.949	107
387.411	112
387.872	115
388.334	121
388.795	128
389.257	125
389.719	125
390.181	131
390.642	130
391.104	133
391.566	142
392.028	145
392.49	151
392.952	149
393.414	152
393.876	159
394.338	158
394.8	159
395.262	164
395.724	173
396.186	171
396.648	178
397.111	176
397.573	183
398.035	183
398.498	186
398.96	197
399.423	194
399.885	200
400.348	201
400.81	213
401.273	216
401.736	211
402.198	223
402.661	230
403.124	229
403.587	245
404.049	246
404.512	247
404.975	253
405.438	249
405.901	263
406.364	261
406.827	261
407.29	262
407.754	265
408.217	265
408.68	264
409.143	271
409.607	287
410.07	282
410.533	282
410.997	290
411.46	291
411.924	299
412.387	304
412.851	306
413.314	314
413.778	317
414.242	325
414.705	340
415.169	335
415.633	335
416.097	336
416.561	340
417.024	350
417.488	338
417.952	349
418.416	343
418.88	342
419.344	351
419.809	352
420.273	366
420.737	357
421.201	373
421.665	382
422.13	381
422.594	400
423.059	398
423.523	411
423.987	411
424.452	427
424.916	430
425.381	448
425.846	448
426.31	463
426.775	463
427.24	475
427.704	469
428.169	476
428.634	480
429.099	475
429.564	470
430.029	481
430.494	480
430.959	487
431.424	478
431.889	500
432.354	511
432.819	501
433.284	528
433.75	527
434.215	554
434.68	550
435.146	560
435.611	582
436.077	603
436.542	602
437.008	628
437.473	627
437.939	627
438.404	652
438.87	666
439.336	648
439.801	642
440.267	667
440.733	677
441.199	686
441.665	686
442.131	710
442.596	699
443.062	720
443.529	747
443.995	760
444.461	772
444.927	812
445.393	819
445.859	854
446.325	862
446.792	915
447.258	913
447.724	941
448.191	973
448.657	978
449.124	1009
449.59	998
450.057	1060
450.523	1068
450.99	1090
451.457	1071
451.923	1105
452.39	1093
452.857	1127
453.324	1119
453.791	1136
454.257	1125
454.724	1155
455.191	1154
455.658	1164
456.125	1196
456.592	1179
457.059	1197
457.527	1222
457.994	1250
458.461	1260
458.928	1283
459.396	1279
459.863	1319
460.33	1304
460.798	1313
461.265	1336
461.732	1326
462.2	1367
462.668	1356
463.135	1378
463.603	1330
464.07	1369
464.538	1336
465.006	1375
465.474	1354
465.941	1363
466.409	1382
466.877	1345
467.345	1384
467.813	1366
468.281	1387
468.749	1408
469.217	1410
469.685	1422
470.153	1470
470.621	1457
471.09	1470
471.558	1538
472.026	1542
472.494	1582
472.963	1605
473.431	1648
473.9	1682
474.368	1718
474.837	1747
475.305	1754
475.774	1788
476.242	1838
476.711	1838
477.18	1904
477.648	1883
478.117	1897
478.586	1880
479.055	1902
479.524	1913
479.993	1911
480.462	1908
480.93	1925
481.399	1914
481.869	1932
482.338	1918
482.807	1955
483.276	1932
483.745	1931
484.214	1994
484.684	2024
485.153	2037
485.622	2063
486.092	2123
486.561	2086
487.031	2160
487.5	2212
487.97	2222
488.439	2284
488.909	2368
489.378	2441
489.848	2440
490.318	2486
490.787	2587
491.257	2605
491.727	2611
492.197	2641
492.667	2650
493.137	2682
493.607	2716
494.077	2741
494.547	2695
495.017	2699
495.487	2734
495.957	2792
496.427	2732
496.897	2733
497.368	2776
497.838	2755
498.308	2786
498.779	2832
499.249	2856
499.719	2887
500.19	2917
500.66	2936
501.131	2963
501.602	3007
502.072	2999
502.543	3057
503.014	3169
503.484	3160
503.955	3259
504.426	3372
504.897	3381
505.368	3459
505.838	3547
506.309	3636
506.78	3730
507.251	3784
507.722	3879
508.194	3967
508.665	4017
509.136	4010
509.607	4137
510.078	4153
510.549	4170
511.021	4278
511.492	4305
511.964	4355
512.435	4427
512.906	4391
513.378	4417
513.849	4490
514.321	4520
514.793	4568
515.264	4642
515.736	4675
516.208	4764
516.679	4809
517.151	4839
517.623	4873
518.095	4956
518.567	4989
519.038	5081
519.51	5064
519.982	5130
520.454	5194
520.927	5280
521.399	5369
521.871	5437
522.343	5452
522.815	5484
523.287	5474
523.76	5521
524.232	5620
524.704	5644
525.177	5553
525.649	5587
526.122	5637
526.594	5511
527.067	5655
527.539	5753
528.012	5700
528.484	5674
528.957	5700
529.43	5701
529.903	5664
530.375	5852
530.848	5736
531.321	5829
531.794	5820
532.267	5934
532.74	5850
533.213	5816
533.686	5911
534.159	5892
534.632	6048
535.105	6083
535.578	6215
536.051	6240
536.525	6258
536.998	6233
537.471	6400
537.945	6325
538.418	6428
538.891	6433
539.365	6513
539.838	6536
540.312	6512
540.786	6536
541.259	6513
541.733	6639
542.206	6674
542.68	6585
543.154	6605
543.628	6616
544.101	6730
544.575	6611
545.049	6438
545.523	6550
545.997	6552
546.471	6619
546.945	6556
547.419	6682
547.893	6454
548.367	6613
548.842	6536
549.316	6565
549.79	6588
550.264	6528
550.739	6613
551.213	6616
551.687	6626
552.162	6671
552.636	6589
553.111	6604
553.585	6821
554.06	6739
554.534	6854
555.009	6806
555.484	6926
555.958	7008
556.433	6999
556.908	7107
557.383	7037
557.858	7230
558.333	7246
558.807	7212
559.282	7273
559.757	7478
560.232	7457
560.708	7311
561.183	7258
561.658	7348
562.133	7336
562.608	7264
563.083	7442
563.559	7300
564.034	7331
564.509	7322
564.985	7330
565.46	7251
565.936	7387
566.411	7358
566.887	7284
567.362	7394
567.838	7424
568.313	7505
568.789	7327
569.265	7311
569.74	7378
570.216	7303
570.692	7398
571.168	7410
571.644	7431
572.12	7471
572.596	7515
573.071	7558
573.547	7796
574.024	7856
574.5	7881
574.976	7896
575.452	8020
575.928	8139
576.404	8229
576.881	8463
577.357	8281
577.833	8311
578.31	8549
578.786	8612
579.262	8689
579.739	8572
580.215	8799
580.692	8806
581.169	8744
581.645	8776
582.122	9049
582.598	9047
583.075	9049
583.552	9088
584.029	9005
584.506	8909
584.982	8852
585.459	9073
585.936	8959
586.413	9057
586.89	9248
587.367	9172
587.844	9287
588.321	9181
588.799	9201
589.276	9154
589.753	9315
590.23	9356
590.707	9298
591.185	9303
591.662	9345
592.139	9407
592.617	9516
593.094	9475
593.572	9539
594.049	9639
594.527	9730
595.004	9793
595.482	10038
595.96	9988
596.437	9999
596.915	10228
597.393	10077
597.871	10323
598.349	10223
598.826	10408
599.304	10367
599.782	10552
600.26	10489
600.738	10728
601.216	10667
601.694	10702
602.173	10742
602.651	10771
603.129	10570
603.607	10644
604.085	10698
604.564	10746
605.042	10813
605.52	10724
605.999	10980
606.477	10683
606.956	10699
607.434	10837.5
607.913	10976
608.391	10922
608.87	10875
609.348	10698
609.827	10729
610.306	10818
610.785	10847
611.263	10826
611.742	10726
612.221	10592
612.7	10740
613.179	10818
613.658	10695
614.137	10859
614.616	10924
615.095	10756
615.574	10901
616.053	10986
616.532	10888
617.011	10906
617.491	11009
617.97	10988
618.449	11123
618.928	11165
619.408	11073
619.887	11198
620.367	11225
620.846	11334
621.326	11261
621.805	11518
622.285	11500
622.764	11560
623.244	11566
623.724	11644
624.203	11704
624.683	11517
625.163	11725
625.643	11694
626.123	11572
626.602	11821
627.082	11583
627.562	11557
628.042	11775
628.522	11642
629.002	11559
629.482	11662
629.963	11692
630.443	11610
630.923	11628
631.403	11685
631.883	11636
632.364	11646
632.844	11566
633.324	11633
633.805	11707
634.285	11546
634.766	11451
635.246	11468
635.727	11471
636.207	11452
636.688	11436
637.168	11423
637.649	11362
638.13	11345
638.611	11426
639.091	11383
639.572	11334
640.053	11301
640.534	11358
641.015	11306
641.496	11155
641.977	11352
642.458	11260
642.939	11331
643.42	11379
643.901	11345
644.382	11428
644.863	11369
645.345	11312
645.826	11308
646.307	11309
646.788	11480
647.27	11298
647.751	11311
648.233	11375
648.714	11123
649.196	11427
649.677	11372
650.159	11362
650.64	11261
651.122	11443
651.603	11280
652.085	11399
652.567	11466
653.049	11370
653.53	11363
654.012	11504
654.494	11315
654.976	11464
655.458	11429
655.94	11392
656.422	11553
656.904	11374
657.386	11276
657.868	11283
658.35	11223
658.833	11318
659.315	11336
659.797	11146
660.279	11069
660.762	11113
661.244	11014
661.726	10868
662.209	10887
662.691	10878
663.174	10703
663.656	10789
664.139	10797
664.621	10654
665.104	10595
665.587	10742
666.069	10813
666.552	10779
667.035	10645
667.517	10666
668	10786
668.483	10767
668.966	10658
669.449	10626
669.932	10617
670.415	10744
670.898	10662
671.381	10695
671.864	10690
672.347	10518
672.83	10546
673.313	10570
673.797	10545
674.28	10754
674.763	10799
675.247	10797
675.73	10689
676.213	10784
676.697	10842
677.18	10854
677.664	10874
678.147	10838
678.631	10909
679.114	10960
679.598	10967
680.082	11084
680.565	11074
681.049	11027
681.533	11008
682.017	11052
682.5	10948
682.984	11013
683.468	11030
683.952	10840
684.436	11020
684.92	10884
685.404	10951
685.888	11040
686.372	10943
686.856	10974
687.341	11076
687.825	10937
688.309	10983
688.793	11003
689.278	10854
689.762	10924
690.246	10866
690.731	10888
691.215	10956
691.7	10709
692.184	10820
692.669	10725
693.153	10739
693.638	10555
694.122	10549
694.607	10662
695.092	10514
695.577	10573
696.061	10365
696.546	10390
697.031	10367
697.516	10473
698.001	10492
698.486	10390
698.971	10442
699.456	10200
699.941	10189
700.426	10211
700.911	10344
701.396	10317
701.881	10380
702.366	10285
702.852	10225
703.337	10259
703.822	10253
704.308	10279
704.793	10345
705.278	10353
705.764	10398
706.249	10345
706.735	10323
707.22	10405
707.706	10244
708.191	10392
708.677	10378
709.163	10204
709.648	10215
710.134	10385
710.62	10292
711.106	10329
711.592	10486
712.077	10444
712.563	10153
713.049	10136
713.535	10324
714.021	10278
714.507	10206
714.993	10064
715.479	10124
715.966	9996
716.452	10039
716.938	10117
717.424	9845
717.91	10053
718.397	9979
718.883	9904
719.369	9932
719.856	9824
720.342	9967
720.829	9845
721.315	9895
721.802	9801
722.288	9818
722.775	9415
723.262	9175
723.748	9544
724.235	9479
724.722	9600
725.208	9407
725.695	9389
726.182	9398
726.669	9281
727.156	9329
727.643	9208
728.13	9160
728.617	9040
729.104	9069
729.591	9002
730.078	9096
730.565	9131
731.052	9006
731.539	9022
732.027	8943
732.514	8775
733.001	8859
733.488	8795
733.976	8799
734.463	8783
734.951	8775
735.438	8857
735.926	8722
736.413	8751
736.901	8670
737.388	8727
737.876	8703
738.364	8684
738.851	8754
739.339	8773
739.827	8854
740.314	8561
740.802	8568
741.29	8556
741.778	8455
742.266	8468
742.754	8488
743.242	8554
743.73	8400
744.218	8370
744.706	8266
745.194	8339
745.682	8296
746.17	8314
746.659	8333
747.147	8128
747.635	8143
748.123	8081
748.612	7973
749.1	7947
749.589	8047
750.077	8025
750.566	8021
751.054	8086
751.543	8119
752.031	7918
752.52	7843
753.008	7672
753.497	7685
753.986	7669
754.474	7655
754.963	7714
755.452	7574
755.941	7535
756.43	7517
756.919	7455
757.408	7395
757.896	7411
758.385	7423
758.875	7340
759.364	7263
759.853	7178
760.342	7068
760.831	7215
761.32	7151
761.809	7066
762.299	7088
762.788	7071
763.277	7019
763.767	6902
764.256	6908
764.745	6837
765.235	6951
765.724	6756
766.214	6816
766.703	6705
767.193	6600
767.683	6610
768.172	6484
768.662	6512
769.152	6475
769.641	6509
770.131	6344
770.621	6425
771.111	6330
771.601	6318
772.09	6298
772.58	6231
773.07	6255
773.56	6285
774.05	6136
774.54	6104
775.031	6065
775.521	6059
776.011	6055
776.501	6082
776.991	5940
777.482	5988
777.972	5831
778.462	5798
778.953	5822
779.443	5786
779.933	5783
780.424	5728
780.914	5770
781.405	5767
781.895	5701
782.386	5671
782.877	5627
783.367	5503
783.858	5472
784.349	5470
784.839	5440
785.33	5482
785.821	5451
786.312	5416
786.803	5440
787.293	5431
787.784	5341
788.275	5265
788.766	5205
789.257	5283
789.748	5147
790.24	5079
790.731	5094
791.222	4989
791.713	4950
792.204	4965
792.696	4853
793.187	4917
793.678	4889
794.169	4743
794.661	4792
795.152	4718
795.644	4656
796.135	4660
796.627	4682
797.118	4594
797.61	4543
798.101	4479
798.593	4552
799.085	4468
799.576	4488
800.068	4423
800.56	4425
801.052	4324
801.544	4325
802.035	4321
802.527	4248
803.019	4189
803.511	4143
804.003	4109
804.495	4143
804.987	4096
805.479	4031
805.971	4049
806.464	4026
806.956	3909
807.448	3879
807.94	3880
808.433	3847
808.925	3835
809.417	3791
809.91	3762
810.402	3659
810.894	3673
811.387	3701
811.879	3648
812.372	3690
812.865	3646
813.357	3649
813.85	3632
814.342	3610
814.835	3596
815.328	3559
815.821	3507
816.313	3506
816.806	3495
817.299	3431
817.792	3444
818.285	3391
818.778	3438
819.271	3431
819.764	3394
820.257	3404
820.75	3403
821.243	3405
821.736	3357
822.229	3371
822.722	3354
823.216	3424
