Data from lamp4bck_noballon_Subt2__72__272.txt Node

Date: Wed Apr 09 11:11:16 CEST 2025
User: fys-lab-0081
Spectrometer: S04999
Trigger mode: 0
Resolution mode: 1024 pixels
Integration Time (sec): 1.000000E-1
Scans to average: 1
Nonlinearity correction enabled: false
Boxcar width: 0
Baseline correction enabled: true
XAxis mode: Wavelengths
Number of Pixels in Spectrum: 1024
>>>>>Begin Spectral Data<<<<<
336.42	6
336.877	5
337.334	6
337.792	9
338.249	7
338.706	8
339.164	8
339.621	9
340.079	10
340.536	7
340.994	7
341.452	9
341.909	12
342.367	4
342.825	3
343.283	14
343.741	8
344.198	6
344.656	5
345.114	6
345.572	13
346.03	9
346.488	7
346.947	2
347.405	13
347.863	11
348.321	14
348.779	14
349.238	12
349.696	15
350.154	11
350.613	13
351.071	16
351.53	21
351.988	19
352.447	15
352.905	10
353.364	18
353.823	20
354.282	16
354.74	15
355.199	22
355.658	19
356.117	18
356.576	20
357.035	16
357.494	20
357.953	22
358.412	28
358.871	23
359.33	20
359.789	19
360.249	25
360.708	24
361.167	26
361.626	27
362.086	24
362.545	29
363.005	31
363.464	28
363.924	30
364.383	29
364.843	35
365.303	33
365.762	37
366.222	35
366.682	35
367.142	39
367.601	37
368.061	38
368.521	39
368.981	40
369.441	42
369.901	42
370.361	37
370.821	37
371.282	41
371.742	48
372.202	43
372.662	51
373.123	47
373.583	52
374.043	54
374.504	47
374.964	48
375.425	51
375.885	56
376.346	60
376.806	59
377.267	53
377.728	64
378.188	66
378.649	62
379.11	63
379.571	59
380.032	71
380.493	74
380.954	76
381.414	70
381.876	79
382.337	77
382.798	81
383.259	84
383.72	88
384.181	86
384.642	91
385.104	97
385.565	103
386.026	110
386.488	108
386.949	109
387.411	111
387.872	114
388.334	120
388.795	124
389.257	123
389.719	125
390.181	128
390.642	132
391.104	135
391.566	139
392.028	145
392.49	152
392.952	152
393.414	150
393.876	161
394.338	162
394.8	160
395.262	161
395.724	171
396.186	173
396.648	176
397.111	178
397.573	185
398.035	182
398.498	186
398.96	191
399.423	192
399.885	196
400.348	202
400.81	209
401.273	215
401.736	209
402.198	228
402.661	233
403.124	231
403.587	241
404.049	244
404.512	247
404.975	249
405.438	247
405.901	257
406.364	262
406.827	263
407.29	266
407.754	262
408.217	266
408.68	266
409.143	273
409.607	284
410.07	277
410.533	279
410.997	290
411.46	291
411.924	302
412.387	306
412.851	308
413.314	318
413.778	315
414.242	324
414.705	334
415.169	333
415.633	337
416.097	334
416.561	342
417.024	347
417.488	336
417.952	355
418.416	345
418.88	347
419.344	350
419.809	360
420.273	362
420.737	358
421.201	374
421.665	381
422.13	383
422.594	400
423.059	406
423.523	407
423.987	413
424.452	422
424.916	434
425.381	448
425.846	445
426.31	456
426.775	467
427.24	477
427.704	465
428.169	474
428.634	474
429.099	476
429.564	472
430.029	478
430.494	478
430.959	482
431.424	481
431.889	498
432.354	512
432.819	495
433.284	527
433.75	525
434.215	557
434.68	551
435.146	557
435.611	578
436.077	600
436.542	598
437.008	625
437.473	627
437.939	635
438.404	650
438.87	667
439.336	652
439.801	640
440.267	662
440.733	680
441.199	681
441.665	687
442.131	710
442.596	691
443.062	710
443.529	746
443.995	762
444.461	769
444.927	812
445.393	816
445.859	855
446.325	859
446.792	922
447.258	921
447.724	946
448.191	981
448.657	982
449.124	1009
449.59	996
450.057	1057
450.523	1064
450.99	1087
451.457	1070
451.923	1103
452.39	1088
452.857	1121
453.324	1118
453.791	1133
454.257	1128
454.724	1146
455.191	1160
455.658	1158
456.125	1201
456.592	1170
457.059	1200
457.527	1221
457.994	1257
458.461	1258
458.928	1284
459.396	1276
459.863	1313
460.33	1306
460.798	1311
461.265	1335
461.732	1321
462.2	1366
462.668	1350
463.135	1374
463.603	1330
464.07	1375
464.538	1334
465.006	1380
465.474	1349
465.941	1359
466.409	1371
466.877	1339
467.345	1381
467.813	1368
468.281	1392
468.749	1410
469.217	1404
469.685	1422
470.153	1459
470.621	1458
471.09	1466
471.558	1529
472.026	1539
472.494	1579
472.963	1597
473.431	1641
473.9	1676
474.368	1714
474.837	1743
475.305	1756
475.774	1778
476.242	1833
476.711	1837
477.18	1898
477.648	1879
478.117	1890
478.586	1878
479.055	1894
479.524	1908
479.993	1905
480.462	1904
480.93	1918
481.399	1914
481.869	1934
482.338	1914
482.807	1954
483.276	1929
483.745	1930
484.214	1990
484.684	2012
485.153	2042
485.622	2058
486.092	2124
486.561	2085
487.031	2166
487.5	2202
487.97	2217
488.439	2284
488.909	2362
489.378	2445
489.848	2431
490.318	2485
490.787	2576
491.257	2604
491.727	2609
492.197	2638
492.667	2641
493.137	2683
493.607	2718
494.077	2735
494.547	2702
495.017	2690
495.487	2736
495.957	2786
496.427	2733
496.897	2726
497.368	2777
497.838	2750
498.308	2787
498.779	2829
499.249	2843
499.719	2895
500.19	2914
500.66	2930
501.131	2952
501.602	3005
502.072	2994
502.543	3044
503.014	3169
503.484	3157
503.955	3253
504.426	3373
504.897	3388
505.368	3451
505.838	3536
506.309	3628
506.78	3722
507.251	3776
507.722	3882
508.194	3958
508.665	4016
509.136	4001
509.607	4136
510.078	4153
510.549	4159
511.021	4265
511.492	4300
511.964	4356
512.435	4420
512.906	4380
513.378	4412
513.849	4484
514.321	4506
514.793	4556
515.264	4630
515.736	4658
516.208	4755
516.679	4815
517.151	4836
517.623	4865
518.095	4948
518.567	4993
519.038	5076
519.51	5041
519.982	5117
520.454	5189
520.927	5274
521.399	5364
521.871	5426
522.343	5445
522.815	5476
523.287	5460
523.76	5513
524.232	5606
524.704	5646
525.177	5544
525.649	5569
526.122	5625
526.594	5500
527.067	5647
527.539	5751
528.012	5700
528.484	5663
528.957	5693
529.43	5689
529.903	5650
530.375	5848
530.848	5733
531.321	5813
531.794	5812
532.267	5929
532.74	5834
533.213	5823
533.686	5903
534.159	5891
534.632	6034
535.105	6068
535.578	6213
536.051	6223
536.525	6230
536.998	6217
537.471	6372
537.945	6313
538.418	6422
538.891	6423
539.365	6507
539.838	6524
540.312	6512
540.786	6527
541.259	6505
541.733	6628
542.206	6662
542.68	6576
543.154	6595
543.628	6606
544.101	6721
544.575	6607
545.049	6427
545.523	6539
545.997	6539
546.471	6616
546.945	6551
547.419	6671
547.893	6455
548.367	6598
548.842	6521
549.316	6567
549.79	6582
550.264	6531
550.739	6602
551.213	6603
551.687	6602
552.162	6655
552.636	6594
553.111	6596
553.585	6807
554.06	6739
554.534	6842
555.009	6809
555.484	6918
555.958	7003
556.433	6995
556.908	7092
557.383	7027
557.858	7222
558.333	7235
558.807	7200
559.282	7265
559.757	7470
560.232	7426
560.708	7289
561.183	7246
561.658	7335
562.133	7328
562.608	7247
563.083	7431
563.559	7286
564.034	7328
564.509	7309
564.985	7326
565.46	7238
565.936	7393
566.411	7342
566.887	7275
567.362	7385
567.838	7424
568.313	7505
568.789	7323
569.265	7294
569.74	7365
570.216	7301
570.692	7388
571.168	7407
571.644	7424
572.12	7442
572.596	7516
573.071	7544
573.547	7778
574.024	7852
574.5	7868
574.976	7877
575.452	8016
575.928	8118
576.404	8217
576.881	8462
577.357	8279
577.833	8310
578.31	8531
578.786	8592
579.262	8686
579.739	8575
580.215	8799
580.692	8790
581.169	8724
581.645	8762
582.122	9038
582.598	9033
583.075	9045
583.552	9068
584.029	8997
584.506	8886
584.982	8841
585.459	9065
585.936	8960
586.413	9053
586.89	9234
587.367	9155
587.844	9272
588.321	9160
588.799	9202
589.276	9150
589.753	9300
590.23	9339
590.707	9290
591.185	9302
591.662	9329
592.139	9402
592.617	9513
593.094	9454
593.572	9533
594.049	9639
594.527	9721
595.004	9770
595.482	10032
595.96	9972
596.437	9982
596.915	10215
597.393	10060
597.871	10311
598.349	10208
598.826	10394
599.304	10344
599.782	10540
600.26	10466
600.738	10715
601.216	10653
601.694	10691
602.173	10724
602.651	10750
603.129	10563
603.607	10620
604.085	10679
604.564	10720
605.042	10792
605.52	10709
605.999	10971
606.477	10673
606.956	10683
607.434	10819.5
607.913	10956
608.391	10912
608.87	10873
609.348	10689
609.827	10705
610.306	10805
610.785	10832
611.263	10812
611.742	10711
612.221	10587
612.7	10722
613.179	10798
613.658	10687
614.137	10847
614.616	10914
615.095	10751
615.574	10882
616.053	10960
616.532	10859
617.011	10885
617.491	11002
617.97	10976
618.449	11106
618.928	11159
619.408	11062
619.887	11171
620.367	11208
620.846	11313
621.326	11245
621.805	11494
622.285	11481
622.764	11534
623.244	11550
623.724	11630
624.203	11685
624.683	11509
625.163	11707
625.643	11690
626.123	11575
626.602	11797
627.082	11563
627.562	11539
628.042	11764
628.522	11650
629.002	11549
629.482	11647
629.963	11663
630.443	11611
630.923	11623
631.403	11685
631.883	11620
632.364	11642
632.844	11547
633.324	11622
633.805	11689
634.285	11541
634.766	11431
635.246	11453
635.727	11457
636.207	11433
636.688	11424
637.168	11416
637.649	11356
638.13	11324
638.611	11405
639.091	11385
639.572	11324
640.053	11275
640.534	11351
641.015	11294
641.496	11133
641.977	11324
642.458	11258
642.939	11320
643.42	11358
643.901	11315
644.382	11420
644.863	11349
645.345	11299
645.826	11292
646.307	11286
646.788	11465
647.27	11286
647.751	11285
648.233	11360
648.714	11108
649.196	11408
649.677	11347
650.159	11362
650.64	11232
651.122	11420
651.603	11261
652.085	11381
652.567	11441
653.049	11371
653.53	11353
654.012	11490
654.494	11309
654.976	11458
655.458	11402
655.94	11372
656.422	11553
656.904	11370
657.386	11268
657.868	11272
658.35	11203
658.833	11288
659.315	11316
659.797	11131
660.279	11055
660.762	11082
661.244	10987
661.726	10865
662.209	10873
662.691	10860
663.174	10678
663.656	10775
664.139	10773
664.621	10654
665.104	10598
665.587	10735
666.069	10812
666.552	10772
667.035	10636
667.517	10645
668	10753
668.483	10746
668.966	10658
669.449	10599
669.932	10607
670.415	10729
670.898	10650
671.381	10683
671.864	10681
672.347	10527
672.83	10517
673.313	10559
673.797	10521
674.28	10753
674.763	10783
675.247	10779
675.73	10691
676.213	10770
676.697	10832
677.18	10837
677.664	10865
678.147	10820
678.631	10885
679.114	10953
679.598	10962
680.082	11078
680.565	11059
681.049	11025
681.533	10997
682.017	11040
682.5	10957
682.984	10992
683.468	11022
683.952	10831
684.436	11011
684.92	10870
685.404	10933
685.888	11022
686.372	10952
686.856	10958
687.341	11064
687.825	10917
688.309	10970
688.793	10991
689.278	10851
689.762	10922
690.246	10854
690.731	10880
691.215	10957
691.7	10697
692.184	10826
692.669	10713
693.153	10731
693.638	10554
694.122	10534
694.607	10648
695.092	10507
695.577	10572
696.061	10343
696.546	10373
697.031	10364
697.516	10460
698.001	10496
698.486	10388
698.971	10433
699.456	10189
699.941	10172
700.426	10206
700.911	10354
701.396	10310
701.881	10362
702.366	10268
702.852	10210
703.337	10245
703.822	10237
704.308	10264
704.793	10333
705.278	10363
705.764	10393
706.249	10339
706.735	10308
707.22	10385
707.706	10240
708.191	10397
708.677	10360
709.163	10194
709.648	10202
710.134	10369
710.62	10273
711.106	10332
711.592	10480
712.077	10435
712.563	10143
713.049	10117
713.535	10324
714.021	10271
714.507	10195
714.993	10063
715.479	10105
715.966	9974
716.452	10017
716.938	10104
717.424	9850
717.91	10037
718.397	9952
718.883	9900
719.369	9919
719.856	9808
720.342	9948
720.829	9850
721.315	9877
721.802	9783
722.288	9805
722.775	9406
723.262	9159
723.748	9529
724.235	9470
724.722	9589
725.208	9397
725.695	9380
726.182	9367
726.669	9278
727.156	9316
727.643	9204
728.13	9159
728.617	9040
729.104	9066
729.591	8991
730.078	9088
730.565	9119
731.052	8990
731.539	9024
732.027	8921
732.514	8768
733.001	8849
733.488	8790
733.976	8801
734.463	8766
734.951	8774
735.438	8842
735.926	8712
736.413	8736
736.901	8666
737.388	8714
737.876	8689
738.364	8671
738.851	8753
739.339	8757
739.827	8851
740.314	8544
740.802	8549
741.29	8542
741.778	8459
742.266	8457
742.754	8480
743.242	8553
743.73	8378
744.218	8356
744.706	8261
745.194	8331
745.682	8286
746.17	8317
746.659	8317
747.147	8121
747.635	8148
748.123	8078
748.612	7962
749.1	7940
749.589	8049
750.077	8030
750.566	8028
751.054	8083
751.543	8105
752.031	7911
752.52	7845
753.008	7660
753.497	7676
753.986	7678
754.474	7655
754.963	7708
755.452	7571
755.941	7528
756.43	7507
756.919	7448
757.408	7385
757.896	7405
758.385	7418
758.875	7332
759.364	7263
759.853	7175
760.342	7059
760.831	7223
761.32	7145
761.809	7062
762.299	7075
762.788	7069
763.277	7025
763.767	6906
764.256	6899
764.745	6825
765.235	6955
765.724	6743
766.214	6817
766.703	6702
767.193	6602
767.683	6599
768.172	6479
768.662	6508
769.152	6483
769.641	6490
770.131	6334
770.621	6421
771.111	6323
771.601	6307
772.09	6282
772.58	6223
773.07	6241
773.56	6276
774.05	6135
774.54	6090
775.031	6066
775.521	6066
776.011	6056
776.501	6083
776.991	5935
777.482	5977
777.972	5824
778.462	5801
778.953	5827
779.443	5783
779.933	5777
780.424	5720
780.914	5769
781.405	5763
781.895	5693
782.386	5672
782.877	5618
783.367	5508
783.858	5461
784.349	5459
784.839	5430
785.33	5467
785.821	5443
786.312	5405
786.803	5434
787.293	5423
787.784	5348
788.275	5254
788.766	5196
789.257	5279
789.748	5138
790.24	5085
790.731	5091
791.222	4986
791.713	4949
792.204	4964
792.696	4839
793.187	4915
793.678	4886
794.169	4728
794.661	4789
795.152	4721
795.644	4657
796.135	4649
796.627	4683
797.118	4584
797.61	4540
798.101	4475
798.593	4535
799.085	4463
799.576	4493
800.068	4407
800.56	4415
801.052	4325
801.544	4320
802.035	4327
802.527	4250
803.019	4177
803.511	4135
804.003	4107
804.495	4131
804.987	4102
805.479	4024
805.971	4043
806.464	4010
806.956	3914
807.448	3882
807.94	3866
808.433	3847
808.925	3827
809.417	3785
809.91	3770
810.402	3655
810.894	3674
811.387	3701
811.879	3641
812.372	3677
812.865	3647
813.357	3646
813.85	3625
814.342	3601
814.835	3600
815.328	3560
815.821	3499
816.313	3492
816.806	3488
817.299	3428
817.792	3451
818.285	3384
818.778	3439
819.271	3429
819.764	3390
820.257	3404
820.75	3401
821.243	3400
821.736	3352
822.229	3375
822.722	3359
823.216	3423
