Data from lamp4bck_noballon_Subt2__73__273.txt Node

Date: Wed Apr 09 11:11:16 CEST 2025
User: fys-lab-0081
Spectrometer: S04999
Trigger mode: 0
Resolution mode: 1024 pixels
Integration Time (sec): 1.000000E-1
Scans to average: 1
Nonlinearity correction enabled: false
Boxcar width: 0
Baseline correction enabled: true
XAxis mode: Wavelengths
Number of Pixels in Spectrum: 1024
>>>>>Begin Spectral Data<<<<<
336.42	5
336.877	7
337.334	6
337.792	5
338.249	8
338.706	2
339.164	3
339.621	7
340.079	11
340.536	8
340.994	7
341.452	10
341.909	12
342.367	6
342.825	1
343.283	13
343.741	7
344.198	12
344.656	5
345.114	4
345.572	9
346.03	6
346.488	10
346.947	11
347.405	9
347.863	9
348.321	8
348.779	13
349.238	9
349.696	14
350.154	7
350.613	9
351.071	12
351.53	20
351.988	19
352.447	12
352.905	13
353.364	15
353.823	17
354.282	13
354.74	12
355.199	20
355.658	20
356.117	15
356.576	14
357.035	16
357.494	16
357.953	17
358.412	21
358.871	21
359.33	22
359.789	22
360.249	23
360.708	27
361.167	26
361.626	27
362.086	24
362.545	25
363.005	30
363.464	29
363.924	30
364.383	26
364.843	32
365.303	31
365.762	39
366.222	35
366.682	35
367.142	34
367.601	36
368.061	33
368.521	35
368.981	34
369.441	45
369.901	42
370.361	38
370.821	41
371.282	44
371.742	41
372.202	47
372.662	51
373.123	44
373.583	50
374.043	52
374.504	51
374.964	48
375.425	55
375.885	53
376.346	57
376.806	59
377.267	57
377.728	63
378.188	64
378.649	62
379.11	63
379.571	59
380.032	71
380.493	67
380.954	73
381.414	71
381.876	75
382.337	78
382.798	83
383.259	83
383.72	88
384.181	87
384.642	89
385.104	95
385.565	99
386.026	108
386.488	104
386.949	109
387.411	109
387.872	115
388.334	118
388.795	122
389.257	129
389.719	124
390.181	127
390.642	128
391.104	134
391.566	141
392.028	141
392.49	152
392.952	150
393.414	154
393.876	160
394.338	161
394.8	157
395.262	158
395.724	173
396.186	171
396.648	175
397.111	175
397.573	179
398.035	186
398.498	186
398.96	187
399.423	190
399.885	196
400.348	204
400.81	205
401.273	209
401.736	211
402.198	226
402.661	233
403.124	228
403.587	239
404.049	243.5
404.512	248
404.975	252
405.438	251
405.901	261
406.364	261
406.827	259
407.29	262
407.754	262
408.217	263
408.68	267
409.143	278
409.607	286
410.07	278
410.533	280
410.997	290
411.46	293
411.924	300
412.387	304
412.851	306
413.314	319
413.778	310
414.242	318
414.705	335
415.169	332
415.633	337
416.097	330
416.561	339
417.024	345
417.488	342
417.952	347
418.416	341
418.88	341
419.344	350
419.809	356
420.273	361
420.737	356
421.201	371
421.665	380
422.13	378
422.594	396
423.059	399
423.523	412
423.987	415
424.452	421
424.916	428
425.381	442
425.846	443
426.31	455
426.775	462
427.24	469
427.704	462
428.169	472
428.634	477
429.099	476
429.564	473
430.029	482
430.494	478
430.959	480
431.424	484
431.889	502
432.354	505
432.819	500
433.284	526
433.75	524
434.215	548
434.68	550
435.146	560
435.611	583
436.077	592
436.542	595
437.008	627
437.473	629
437.939	628
438.404	644
438.87	664
439.336	651
439.801	644
440.267	664
440.733	671
441.199	681
441.665	684
442.131	708
442.596	689
443.062	715
443.529	741
443.995	759
444.461	772
444.927	805
445.393	816
445.859	855
446.325	858
446.792	917
447.258	913
447.724	941
448.191	973
448.657	978
449.124	1005
449.59	996
450.057	1052
450.523	1061
450.99	1083
451.457	1069
451.923	1104
452.39	1094
452.857	1120
453.324	1112
453.791	1132
454.257	1129
454.724	1149
455.191	1152
455.658	1155
456.125	1190
456.592	1173
457.059	1188
457.527	1212
457.994	1251
458.461	1254
458.928	1282
459.396	1269
459.863	1320
460.33	1302
460.798	1308
461.265	1328
461.732	1319
462.2	1368
462.668	1350
463.135	1367
463.603	1322
464.07	1366
464.538	1333
465.006	1377
465.474	1349
465.941	1357
466.409	1375
466.877	1343
467.345	1387
467.813	1369
468.281	1380
468.749	1405
469.217	1394
469.685	1426
470.153	1457
470.621	1454
471.09	1461
471.558	1532
472.026	1536
472.494	1580
472.963	1599
473.431	1652
473.9	1677
474.368	1707
474.837	1737
475.305	1752
475.774	1786
476.242	1834
476.711	1827
477.18	1892
477.648	1875
478.117	1893
478.586	1874
479.055	1890
479.524	1900
479.993	1906
480.462	1900
480.93	1905
481.399	1905
481.869	1926
482.338	1916
482.807	1948
483.276	1927
483.745	1917
484.214	1985
484.684	2023
485.153	2035
485.622	2050
486.092	2116
486.561	2080
487.031	2157
487.5	2192
487.97	2214
488.439	2275
488.909	2360
489.378	2436
489.848	2426
490.318	2476
490.787	2577
491.257	2603
491.727	2605
492.197	2643
492.667	2638
493.137	2676
493.607	2710
494.077	2732
494.547	2693
495.017	2690
495.487	2727
495.957	2788
496.427	2722
496.897	2722
497.368	2773
497.838	2757
498.308	2784
498.779	2834
499.249	2842
499.719	2882
500.19	2914
500.66	2926
501.131	2950
501.602	2998
502.072	2997
502.543	3049
503.014	3158
503.484	3147
503.955	3245
504.426	3368
504.897	3384
505.368	3442
505.838	3539
506.309	3628
506.78	3719
507.251	3770
507.722	3875
508.194	3967
508.665	4013
509.136	3997
509.607	4129
510.078	4145
510.549	4157
511.021	4269
511.492	4287
511.964	4341
512.435	4405
512.906	4380
513.378	4406
513.849	4479
514.321	4500
514.793	4549
515.264	4619
515.736	4658
516.208	4756
516.679	4802
517.151	4822
517.623	4852
518.095	4947
518.567	4981
519.038	5080
519.51	5052
519.982	5111
520.454	5191
520.927	5263
521.399	5364
521.871	5430
522.343	5437
522.815	5465
523.287	5459
523.76	5510
524.232	5597
524.704	5635
525.177	5535
525.649	5577
526.122	5623
526.594	5487
527.067	5635
527.539	5736
528.012	5683
528.484	5664
528.957	5694
529.43	5685
529.903	5653
530.375	5845
530.848	5729
531.321	5812
531.794	5802
532.267	5915
532.74	5824
533.213	5804
533.686	5889
534.159	5871
534.632	6021
535.105	6062
535.578	6205
536.051	6226
536.525	6234
536.998	6206
537.471	6371
537.945	6315
538.418	6421
538.891	6417
539.365	6499
539.838	6523
540.312	6496
540.786	6520
541.259	6507
541.733	6629
542.206	6654
542.68	6573
543.154	6588
543.628	6595
544.101	6718
544.575	6603
545.049	6416
545.523	6537
545.997	6535
546.471	6593
546.945	6547
547.419	6663
547.893	6449
548.367	6605
548.842	6524
549.316	6553
549.79	6577
550.264	6517
550.739	6604
551.213	6598
551.687	6597
552.162	6657
552.636	6584
553.111	6591
553.585	6806
554.06	6719
554.534	6841
555.009	6798
555.484	6906
555.958	7001
556.433	6986
556.908	7082
557.383	7015
557.858	7218
558.333	7235
558.807	7204
559.282	7255
559.757	7457
560.232	7433
560.708	7296
561.183	7248
561.658	7329
562.133	7322
562.608	7243
563.083	7424
563.559	7278
564.034	7321
564.509	7311
564.985	7326
565.46	7227
565.936	7370
566.411	7352
566.887	7267
567.362	7380
567.838	7404
568.313	7487
568.789	7329
569.265	7298
569.74	7364
570.216	7286
570.692	7385
571.168	7396
571.644	7421
572.12	7440
572.596	7509
573.071	7533
573.547	7776
574.024	7840
574.5	7872
574.976	7874
575.452	8006
575.928	8132
576.404	8193
576.881	8450
577.357	8259
577.833	8306
578.31	8527
578.786	8579
579.262	8672
579.739	8574
580.215	8781
580.692	8774
581.169	8718
581.645	8758
582.122	9028
582.598	9038
583.075	9037
583.552	9071
584.029	8991
584.506	8887
584.982	8837
585.459	9050
585.936	8946
586.413	9043
586.89	9233
587.367	9136
587.844	9280
588.321	9149
588.799	9181
589.276	9136
589.753	9302
590.23	9322
590.707	9292
591.185	9293
591.662	9317
592.139	9397
592.617	9501
593.094	9449
593.572	9522
594.049	9617
594.527	9715
595.004	9771
595.482	10017
595.96	9966
596.437	9975
596.915	10197
597.393	10048
597.871	10308
598.349	10204
598.826	10391
599.304	10336
599.782	10540
600.26	10455
600.738	10703
601.216	10644
601.694	10676
602.173	10714
602.651	10751
603.129	10555
603.607	10622
604.085	10678
604.564	10727
605.042	10793
605.52	10700
605.999	10947
606.477	10668
606.956	10678
607.434	10817
607.913	10956
608.391	10909
608.87	10846
609.348	10679
609.827	10692
610.306	10797
610.785	10839
611.263	10796
611.742	10705
612.221	10565
612.7	10727
613.179	10794
613.658	10665
614.137	10837
614.616	10904
615.095	10737
615.574	10885
616.053	10964
616.532	10877
617.011	10882
617.491	11001
617.97	10955
618.449	11094
618.928	11151
619.408	11050
619.887	11165
620.367	11200
620.846	11310
621.326	11228
621.805	11486
622.285	11478
622.764	11525
623.244	11541
623.724	11625
624.203	11671
624.683	11481
625.163	11705
625.643	11669
626.123	11555
626.602	11790
627.082	11541
627.562	11524
628.042	11751
628.522	11637
629.002	11540
629.482	11644
629.963	11669
630.443	11590
630.923	11608
631.403	11645
631.883	11613
632.364	11636
632.844	11537
633.324	11617
633.805	11677
634.285	11526
634.766	11434
635.246	11454
635.727	11438
636.207	11421
636.688	11417
637.168	11399
637.649	11338
638.13	11319
638.611	11390
639.091	11367
639.572	11308
640.053	11269
640.534	11342
641.015	11284
641.496	11121
641.977	11322
642.458	11221
642.939	11319
643.42	11349
643.901	11319
644.382	11421
644.863	11351
645.345	11284
645.826	11285
646.307	11284
646.788	11461
647.27	11277
647.751	11292
648.233	11354
648.714	11102
649.196	11413
649.677	11344
650.159	11340
650.64	11225
651.122	11416
651.603	11263
652.085	11368
652.567	11441
653.049	11343
653.53	11344
654.012	11487
654.494	11297
654.976	11442
655.458	11402
655.94	11354
656.422	11540
656.904	11353
657.386	11252
657.868	11253
658.35	11194
658.833	11287
659.315	11322
659.797	11117
660.279	11048
660.762	11090
661.244	10991
661.726	10859
662.209	10850
662.691	10857
663.174	10687
663.656	10769
664.139	10772
664.621	10648
665.104	10567
665.587	10730
666.069	10792
666.552	10761
667.035	10628
667.517	10662
668	10758
668.483	10742
668.966	10644
669.449	10601
669.932	10598
670.415	10708
670.898	10646
671.381	10682
671.864	10672
672.347	10502
672.83	10525
673.313	10556
673.797	10527
674.28	10740
674.763	10776
675.247	10776
675.73	10677
676.213	10769
676.697	10829
677.18	10830
677.664	10856
678.147	10816
678.631	10879
679.114	10955
679.598	10941
680.082	11066
680.565	11053
681.049	11010
681.533	10990
682.017	11024
682.5	10940
682.984	10998
683.468	11018
683.952	10826
684.436	10993
684.92	10865
685.404	10940
685.888	11034
686.372	10932
686.856	10959
687.341	11062
687.825	10910
688.309	10950
688.793	10978
689.278	10848
689.762	10915
690.246	10833
690.731	10878
691.215	10933
691.7	10698
692.184	10796
692.669	10705
693.153	10718
693.638	10543
694.122	10534
694.607	10643
695.092	10501
695.577	10561
696.061	10339
696.546	10359
697.031	10355
697.516	10454
698.001	10481
698.486	10387
698.971	10421
699.456	10178
699.941	10167
700.426	10192
700.911	10341
701.396	10291
701.881	10344
702.366	10276
702.852	10203
703.337	10244
703.822	10222
704.308	10266
704.793	10319
705.278	10346
705.764	10390
706.249	10321
706.735	10313
707.22	10378
707.706	10235
708.191	10388
708.677	10350
709.163	10178
709.648	10201
710.134	10364
710.62	10269
711.106	10320
711.592	10474
712.077	10427
712.563	10131
713.049	10101
713.535	10312
714.021	10274
714.507	10189
714.993	10041
715.479	10104
715.966	9975
716.452	10011
716.938	10095
717.424	9830
717.91	10029
718.397	9956
718.883	9897
719.369	9902
719.856	9807
720.342	9950
720.829	9833
721.315	9900
721.802	9779
722.288	9804
722.775	9401
723.262	9157
723.748	9509
724.235	9469
724.722	9589
725.208	9406
725.695	9371
726.182	9363
726.669	9267
727.156	9315
727.643	9186
728.13	9149
728.617	9036
729.104	9060
729.591	8981
730.078	9080
730.565	9109
731.052	8994
731.539	9014
732.027	8914
732.514	8777
733.001	8843
733.488	8797
733.976	8802
734.463	8761
734.951	8767
735.438	8842
735.926	8715
736.413	8727
736.901	8653
737.388	8716
737.876	8683
738.364	8670
738.851	8739
739.339	8762
739.827	8833
740.314	8547
740.802	8553
741.29	8533
741.778	8445
742.266	8463
742.754	8475
743.242	8544
743.73	8379
744.218	8342
744.706	8240
745.194	8331
745.682	8295
746.17	8313
746.659	8336
747.147	8124
747.635	8129
748.123	8069
748.612	7957
749.1	7929
749.589	8038
750.077	8016
750.566	8007
751.054	8062
751.543	8096
752.031	7915
752.52	7829
753.008	7657
753.497	7665
753.986	7663
754.474	7637
754.963	7702
755.452	7566
755.941	7515
756.43	7503
756.919	7449
757.408	7372
757.896	7396
758.385	7416
758.875	7328
759.364	7248
759.853	7179
760.342	7054
760.831	7224
761.32	7161
761.809	7056
762.299	7075
762.788	7053
763.277	7009
763.767	6912
764.256	6882
764.745	6820
765.235	6945
765.724	6744
766.214	6804
766.703	6696
767.193	6584
767.683	6594
768.172	6471
768.662	6504
769.152	6474
769.641	6487
770.131	6333
770.621	6418
771.111	6324
771.601	6317
772.09	6281
772.58	6222
773.07	6239
773.56	6278
774.05	6121
774.54	6093
775.031	6065
775.521	6057
776.011	6046
776.501	6072
776.991	5930
777.482	5979
777.972	5819
778.462	5790
778.953	5815
779.443	5778
779.933	5771
780.424	5720
780.914	5759
781.405	5772
781.895	5690
782.386	5665
782.877	5618
783.367	5500
783.858	5468
784.349	5457
784.839	5429
785.33	5455
785.821	5444
786.312	5399
786.803	5421
787.293	5417
787.784	5336
788.275	5250
788.766	5196
789.257	5268
789.748	5143
790.24	5081
790.731	5084
791.222	4987
791.713	4948
792.204	4965
792.696	4842
793.187	4916
793.678	4880
794.169	4725
794.661	4789
795.152	4709
795.644	4645
796.135	4648
796.627	4687
797.118	4575
797.61	4534
798.101	4472
798.593	4540
799.085	4464
799.576	4479
800.068	4408
800.56	4413
801.052	4315
801.544	4310
802.035	4315
802.527	4247
803.019	4174
803.511	4127
804.003	4095
804.495	4138
804.987	4101
805.479	4021
805.971	4040
806.464	4018
806.956	3908
807.448	3875
807.94	3873
808.433	3841
808.925	3828
809.417	3783
809.91	3760
810.402	3648
810.894	3670
811.387	3695
811.879	3640
812.372	3674
812.865	3642
813.357	3646
813.85	3624
814.342	3601
814.835	3590
815.328	3550
815.821	3495
816.313	3498
816.806	3498
817.299	3428
817.792	3440
818.285	3379
818.778	3422
819.271	3426
819.764	3389
820.257	3404
820.75	3403
821.243	3394
821.736	3349
822.229	3368
822.722	3349
823.216	3420
