Data from lamp4bck_noballon_Subt2__75__275.txt Node

Date: Wed Apr 09 11:11:17 CEST 2025
User: fys-lab-0081
Spectrometer: S04999
Trigger mode: 0
Resolution mode: 1024 pixels
Integration Time (sec): 1.000000E-1
Scans to average: 1
Nonlinearity correction enabled: false
Boxcar width: 0
Baseline correction enabled: true
XAxis mode: Wavelengths
Number of Pixels in Spectrum: 1024
>>>>>Begin Spectral Data<<<<<
336.42	2
336.877	2
337.334	3
337.792	7
338.249	7
338.706	2
339.164	9
339.621	3
340.079	10
340.536	7
340.994	8
341.452	11
341.909	10
342.367	7
342.825	6
343.283	11
343.741	10
344.198	6
344.656	9
345.114	10
345.572	15
346.03	9
346.488	8
346.947	8
347.405	12
347.863	11
348.321	11
348.779	13
349.238	12
349.696	15
350.154	11
350.613	11
351.071	20
351.53	19
351.988	18
352.447	16
352.905	9
353.364	15
353.823	18
354.282	16
354.74	15
355.199	18
355.658	19
356.117	16
356.576	19
357.035	18
357.494	21
357.953	21
358.412	27
358.871	23
359.33	21
359.789	20
360.249	23
360.708	26
361.167	27
361.626	26
362.086	24
362.545	28
363.005	28
363.464	28
363.924	33
364.383	32
364.843	29
365.303	34
365.762	40
366.222	32
366.682	34
367.142	39
367.601	38
368.061	37
368.521	38
368.981	36
369.441	45
369.901	43
370.361	41
370.821	41
371.282	43
371.742	43
372.202	46
372.662	51
373.123	46
373.583	47
374.043	53
374.504	53
374.964	50
375.425	54
375.885	56
376.346	61
376.806	63
377.267	60
377.728	61
378.188	63
378.649	62
379.11	67
379.571	62
380.032	69
380.493	70
380.954	74
381.414	72
381.876	77
382.337	78
382.798	80
383.259	84
383.72	85
384.181	88
384.642	92
385.104	95
385.565	95
386.026	105
386.488	107
386.949	106
387.411	109
387.872	116
388.334	119
388.795	121
389.257	126
389.719	126
390.181	127
390.642	128
391.104	128
391.566	139
392.028	145
392.49	154
392.952	149
393.414	155
393.876	157
394.338	157
394.8	157
395.262	160
395.724	171
396.186	173
396.648	175
397.111	178
397.573	178
398.035	181
398.498	187
398.96	189
399.423	193
399.885	194
400.348	203
400.81	205
401.273	211
401.736	208
402.198	227
402.661	233
403.124	228
403.587	235
404.049	242
404.512	249
404.975	251
405.438	248
405.901	259
406.364	262
406.827	264
407.29	266
407.754	263
408.217	261
408.68	264
409.143	274
409.607	280
410.07	281
410.533	279
410.997	288
411.46	286
411.924	299
412.387	298
412.851	308
413.314	314
413.778	314
414.242	320
414.705	331
415.169	333
415.633	332
416.097	330
416.561	338
417.024	351
417.488	335
417.952	348
418.416	342
418.88	344
419.344	347
419.809	348
420.273	362
420.737	357
421.201	365
421.665	381
422.13	384
422.594	397
423.059	399
423.523	408
423.987	411
424.452	419
424.916	429
425.381	445
425.846	443
426.31	460
426.775	462
427.24	469
427.704	462
428.169	471
428.634	478
429.099	472
429.564	470
430.029	474
430.494	476
430.959	477
431.424	479
431.889	494
432.354	510
432.819	497
433.284	524
433.75	526
434.215	547
434.68	548
435.146	554
435.611	576
436.077	598
436.542	596
437.008	625
437.473	624
437.939	631
438.404	643
438.87	660
439.336	645
439.801	638
440.267	661
440.733	672
441.199	679
441.665	677
442.131	701
442.596	688
443.062	708
443.529	740
443.995	756
444.461	768
444.927	804
445.393	820
445.859	850
446.325	854
446.792	912
447.258	912
447.724	938
448.191	972
448.657	977
449.124	1005
449.59	992
450.057	1048
450.523	1061
450.99	1079
451.457	1064
451.923	1094
452.39	1086
452.857	1119
453.324	1105
453.791	1129
454.257	1126
454.724	1141
455.191	1148
455.658	1151
456.125	1186
456.592	1173
457.059	1191
457.527	1211
457.994	1243
458.461	1255
458.928	1276
459.396	1267
459.863	1312
460.33	1296
460.798	1306
461.265	1326
461.732	1315
462.2	1362
462.668	1351
463.135	1369
463.603	1323
464.07	1358
464.538	1325
465.006	1368
465.474	1344
465.941	1355
466.409	1372
466.877	1332
467.345	1376
467.813	1359
468.281	1381
468.749	1399
469.217	1398
469.685	1415
470.153	1449
470.621	1452
471.09	1461
471.558	1534
472.026	1533
472.494	1567
472.963	1594
473.431	1637
473.9	1674
474.368	1710
474.837	1735
475.305	1752
475.774	1778
476.242	1826
476.711	1825
477.18	1888
477.648	1871
478.117	1885
478.586	1874
479.055	1883
479.524	1888
479.993	1899
480.462	1895
480.93	1906
481.399	1902
481.869	1925
482.338	1904
482.807	1941
483.276	1922
483.745	1919
484.214	1980
484.684	2013
485.153	2024
485.622	2048
486.092	2109
486.561	2074
487.031	2157
487.5	2194
487.97	2216
488.439	2274
488.909	2348
489.378	2433
489.848	2422
490.318	2468
490.787	2564
491.257	2586
491.727	2593
492.197	2635
492.667	2636
493.137	2667
493.607	2699
494.077	2721
494.547	2691
495.017	2677
495.487	2719
495.957	2776
496.427	2721
496.897	2719
497.368	2760
497.838	2739
498.308	2774
498.779	2826
499.249	2841
499.719	2877
500.19	2905
500.66	2920
501.131	2942
501.602	2992
502.072	2994
502.543	3035
503.014	3159
503.484	3139
503.955	3241
504.426	3360
504.897	3364
505.368	3437
505.838	3521
506.309	3619
506.78	3706
507.251	3764
507.722	3859
508.194	3945
508.665	3993
509.136	3981
509.607	4112
510.078	4132
510.549	4148
511.021	4251
511.492	4271
511.964	4330
512.435	4391
512.906	4360
513.378	4392
513.849	4469
514.321	4492
514.793	4537
515.264	4606
515.736	4634
516.208	4737
516.679	4783
517.151	4807
517.623	4843
518.095	4930
518.567	4972
519.038	5059
519.51	5037
519.982	5099
520.454	5167
520.927	5240
521.399	5346
521.871	5410
522.343	5417
522.815	5453
523.287	5442
523.76	5497
524.232	5576
524.704	5615
525.177	5516
525.649	5548
526.122	5608
526.594	5475
527.067	5622
527.539	5717
528.012	5665
528.484	5650
528.957	5669
529.43	5677
529.903	5626
530.375	5823
530.848	5714
531.321	5791
531.794	5772
532.267	5905
532.74	5810
533.213	5787
533.686	5878
534.159	5861
534.632	6003
535.105	6045
535.578	6187
536.051	6201
536.525	6210
536.998	6189
537.471	6342
537.945	6297
538.418	6393
538.891	6391
539.365	6476
539.838	6506
540.312	6487
540.786	6506
541.259	6471
541.733	6601
542.206	6635
542.68	6549
543.154	6564
543.628	6582
544.101	6691
544.575	6575
545.049	6401
545.523	6528
545.997	6518
546.471	6582
546.945	6524
547.419	6658
547.893	6420
548.367	6580
548.842	6500
549.316	6536
549.79	6555
550.264	6498
550.739	6573
551.213	6588
551.687	6573
552.162	6640
552.636	6562
553.111	6562
553.585	6777
554.06	6706
554.534	6817
555.009	6779
555.484	6885
555.958	6986
556.433	6969
556.908	7069
557.383	6992
557.858	7187
558.333	7213
558.807	7167
559.282	7239
559.757	7444
560.232	7401
560.708	7276
561.183	7205
561.658	7320
562.133	7304
562.608	7223
563.083	7399
563.559	7266
564.034	7300
564.509	7275
564.985	7303
565.46	7215
565.936	7347
566.411	7329
566.887	7250
567.362	7357
567.838	7391
568.313	7469
568.789	7293
569.265	7280
569.74	7336
570.216	7269
570.692	7371
571.168	7376
571.644	7405
572.12	7419
572.596	7492
573.071	7516
573.547	7758
574.024	7823
574.5	7853
574.976	7864
575.452	7975
575.928	8091
576.404	8185
576.881	8436
577.357	8250
577.833	8262
578.31	8498
578.786	8569
579.262	8657
579.739	8529
580.215	8757
580.692	8751
581.169	8683
581.645	8722
582.122	9001
582.598	9012
583.075	9015
583.552	9048
584.029	8969
584.506	8853
584.982	8792
585.459	9025
585.936	8924
586.413	9031
586.89	9192
587.367	9110
587.844	9249
588.321	9123
588.799	9157
589.276	9110
589.753	9273
590.23	9308
590.707	9257
591.185	9274
591.662	9299
592.139	9368
592.617	9465
593.094	9426
593.572	9499
594.049	9591
594.527	9685
595.004	9736
595.482	9994
595.96	9933
596.437	9938
596.915	10180
597.393	10030
597.871	10268
598.349	10161
598.826	10348
599.304	10307
599.782	10490
600.26	10431
600.738	10665
601.216	10617
601.694	10651
602.173	10683
602.651	10706
603.129	10532
603.607	10589
604.085	10642
604.564	10691
605.042	10763
605.52	10667
605.999	10927
606.477	10637
606.956	10638
607.434	10782
607.913	10926
608.391	10884
608.87	10831
609.348	10659
609.827	10681
610.306	10773
610.785	10814
611.263	10779
611.742	10681
612.221	10547
612.7	10697
613.179	10767
613.658	10637
614.137	10810
614.616	10878
615.095	10698
615.574	10847
616.053	10942
616.532	10832
617.011	10858
617.491	10961
617.97	10932
618.449	11074
618.928	11133
619.408	11014
619.887	11136
620.367	11170
620.846	11281
621.326	11198
621.805	11471
622.285	11447
622.764	11508
623.244	11514
623.724	11600
624.203	11641
624.683	11459
625.163	11670
625.643	11651
626.123	11533
626.602	11772
627.082	11522
627.562	11490
628.042	11724
628.522	11603
629.002	11498
629.482	11610
629.963	11638
630.443	11565
630.923	11584
631.403	11631
631.883	11577
632.364	11595
632.844	11513
633.324	11573
633.805	11650
634.285	11507
634.766	11415
635.246	11421
635.727	11405
636.207	11388
636.688	11388
637.168	11369
637.649	11317
638.13	11293
638.611	11368
639.091	11344
639.572	11283
640.053	11237
640.534	11318
641.015	11260
641.496	11108
641.977	11299
642.458	11202
642.939	11278
643.42	11322
643.901	11278
644.382	11381
644.863	11313
645.345	11254
645.826	11256
646.307	11258
646.788	11436
647.27	11239
647.751	11260
648.233	11320
648.714	11065
649.196	11387
649.677	11336
650.159	11305
650.64	11182
651.122	11392
651.603	11221
652.085	11341
652.567	11410
653.049	11325
653.53	11304
654.012	11463
654.494	11268
654.976	11424
655.458	11377
655.94	11335
656.422	11519
656.904	11326
657.386	11234
657.868	11243
658.35	11175
658.833	11261
659.315	11272
659.797	11101
660.279	11025
660.762	11060
661.244	10952
661.726	10822
662.209	10830
662.691	10841
663.174	10671
663.656	10742
664.139	10758
664.621	10618
665.104	10564
665.587	10712
666.069	10765
666.552	10727
667.035	10598
667.517	10625
668	10726
668.483	10712
668.966	10621
669.449	10577
669.932	10585
670.415	10686
670.898	10607
671.381	10645
671.864	10644
672.347	10486
672.83	10491
673.313	10518
673.797	10488
674.28	10726
674.763	10749
675.247	10754
675.73	10656
676.213	10741
676.697	10804
677.18	10804
677.664	10834
678.147	10796
678.631	10864
679.114	10906
679.598	10925
680.082	11035
680.565	11031
681.049	10980
681.533	10961
682.017	10997
682.5	10930
682.984	10952
683.468	10992
683.952	10797
684.436	10967
684.92	10838
685.404	10910
685.888	11003
686.372	10897
686.856	10919
687.341	11023
687.825	10885
688.309	10929
688.793	10956
689.278	10817
689.762	10889
690.246	10825
690.731	10852
691.215	10916
691.7	10673
692.184	10782
692.669	10690
693.153	10695
693.638	10512
694.122	10512
694.607	10611
695.092	10464
695.577	10537
696.061	10323
696.546	10343
697.031	10330
697.516	10433
698.001	10452
698.486	10350
698.971	10409
699.456	10156
699.941	10154
700.426	10160
700.911	10323
701.396	10282
701.881	10334
702.366	10247
702.852	10181
703.337	10213
703.822	10203
704.308	10236
704.793	10307
705.278	10314
705.764	10359
706.249	10304
706.735	10291
707.22	10355
707.706	10203
708.191	10365
708.677	10332
709.163	10166
709.648	10167
710.134	10326
710.62	10252
711.106	10285
711.592	10455
712.077	10414
712.563	10118
713.049	10081
713.535	10295
714.021	10237
714.507	10165
714.993	10021
715.479	10090
715.966	9955
716.452	9986
716.938	10060
717.424	9815
717.91	10016
718.397	9943
718.883	9873
719.369	9888
719.856	9776
720.342	9936
720.829	9818
721.315	9858
721.802	9748
722.288	9789
722.775	9381
723.262	9130
723.748	9481
724.235	9440
724.722	9571
725.208	9380
725.695	9366
726.182	9348
726.669	9244
727.156	9293
727.643	9170
728.13	9128
728.617	9016
729.104	9037
729.591	8957
730.078	9064
730.565	9083
731.052	8963
731.539	8982
732.027	8901
732.514	8745
733.001	8828
733.488	8777
733.976	8767
734.463	8750
734.951	8751
735.438	8815
735.926	8687
736.413	8714
736.901	8631
737.388	8704
737.876	8673
738.364	8634
738.851	8713
739.339	8727
739.827	8818
740.314	8535
740.802	8537
741.29	8506
741.778	8430
742.266	8447
742.754	8464
743.242	8520
743.73	8364
744.218	8330
744.706	8235
745.194	8305
745.682	8267
746.17	8290
746.659	8307
747.147	8087
747.635	8113
748.123	8060
748.612	7946
749.1	7920
749.589	8019
750.077	7992
750.566	7988
751.054	8065
751.543	8066
752.031	7893
752.52	7813
753.008	7646
753.497	7661
753.986	7658
754.474	7640
754.963	7686
755.452	7549
755.941	7500
756.43	7488
756.919	7425
757.408	7358
757.896	7375
758.385	7403
758.875	7305
759.364	7234
759.853	7161
760.342	7040
760.831	7196
761.32	7137
761.809	7039
762.299	7055
762.788	7037
763.277	6996
763.767	6880
764.256	6874
764.745	6808
765.235	6934
765.724	6729
766.214	6790
766.703	6669
767.193	6585
767.683	6576
768.172	6455
768.662	6489
769.152	6454
769.641	6488
770.131	6322
770.621	6406
771.111	6296
771.601	6297
772.09	6276
772.58	6213
773.07	6228
773.56	6251
774.05	6115
774.54	6073
775.031	6058
775.521	6045
776.011	6043
776.501	6058
776.991	5909
777.482	5964
777.972	5794
778.462	5781
778.953	5806
779.443	5764
779.933	5757
780.424	5699
780.914	5746
781.405	5749
781.895	5675
782.386	5646
782.877	5602
783.367	5488
783.858	5448
784.349	5455
784.839	5421
785.33	5452
785.821	5436
786.312	5391
786.803	5412
787.293	5405
787.784	5329
788.275	5242
788.766	5183
789.257	5253
789.748	5124
790.24	5067
790.731	5078
791.222	4964
791.713	4939
792.204	4946
792.696	4826
793.187	4902
793.678	4880
794.169	4716
794.661	4766
795.152	4697
795.644	4644
796.135	4633
796.627	4668
797.118	4578
797.61	4532
798.101	4467
798.593	4524
799.085	4455
799.576	4471
800.068	4398
800.56	4405
801.052	4303
801.544	4305
802.035	4307
802.527	4233
803.019	4180
803.511	4121
804.003	4088
804.495	4125
804.987	4088
805.479	4012
805.971	4035
806.464	4010
806.956	3887
807.448	3874
807.94	3858
808.433	3826
808.925	3817
809.417	3782
809.91	3753
810.402	3652
810.894	3668
811.387	3690
811.879	3633
812.372	3663
812.865	3635
813.357	3629
813.85	3609
814.342	3586
814.835	3585
815.328	3559
815.821	3492
816.313	3478
816.806	3482
817.299	3423
817.792	3434
818.285	3378
818.778	3427
819.271	3429
819.764	3374
820.257	3388
820.75	3393
821.243	3392
821.736	3353
822.229	3363
822.722	3342
823.216	3414
