Data from lamp2helium_zwak_Subt4__19__205.txt Node

Date: Fri Apr 04 10:55:45 CEST 2025
User: fys-lab-0081
Spectrometer: S04999
Trigger mode: 0
Resolution mode: 1024 pixels
Integration Time (sec): 1.000000E-1
Scans to average: 1
Nonlinearity correction enabled: false
Boxcar width: 0
Baseline correction enabled: true
XAxis mode: Wavelengths
Number of Pixels in Spectrum: 1024
>>>>>Begin Spectral Data<<<<<
336.42	-3
336.877	-9
337.334	2
337.792	-1
338.249	-3
338.706	4
339.164	0
339.621	-1
340.079	3
340.536	0
340.994	-2
341.452	3
341.909	7
342.367	-1
342.825	6
343.283	2
343.741	4
344.198	-2
344.656	-3
345.114	2
345.572	0
346.03	2
346.488	2
346.947	1
347.405	0
347.863	0
348.321	-2
348.779	-1
349.238	5
349.696	3
350.154	1
350.613	-1
351.071	5
351.53	1
351.988	-2
352.447	1
352.905	-3
353.364	2
353.823	-1
354.282	-2
354.74	2
355.199	-2
355.658	-2
356.117	2
356.576	1
357.035	0
357.494	-2
357.953	-1
358.412	2
358.871	-2
359.33	-2
359.789	2
360.249	6
360.708	4
361.167	-1
361.626	2
362.086	1
362.545	-3
363.005	0
363.464	4
363.924	-4
364.383	3
364.843	3
365.303	-2
365.762	3
366.222	6
366.682	0
367.142	-3
367.601	1
368.061	3
368.521	2
368.981	-1
369.441	4
369.901	-2
370.361	3
370.821	6
371.282	-1
371.742	-3
372.202	-4
372.662	8
373.123	-1
373.583	2
374.043	2
374.504	1
374.964	4
375.425	2
375.885	6
376.346	6
376.806	0
377.267	2
377.728	-1
378.188	4
378.649	2
379.11	2
379.571	-1
380.032	4
380.493	4
380.954	6
381.414	5
381.876	1
382.337	6
382.798	0
383.259	5
383.72	0
384.181	6
384.642	1
385.104	5
385.565	2
386.026	2
386.488	7
386.949	2
387.411	5
387.872	3
388.334	2
388.795	0
389.257	2
389.719	-1
390.181	5
390.642	7
391.104	5
391.566	4
392.028	-2
392.49	5
392.952	4
393.414	-4
393.876	4
394.338	8
394.8	4
395.262	5
395.724	5
396.186	4
396.648	5
397.111	-1
397.573	-2
398.035	0
398.498	4
398.96	7
399.423	4
399.885	3
400.348	7
400.81	4
401.273	3
401.736	-1
402.198	4
402.661	5
403.124	7
403.587	10
404.049	8
404.512	6
404.975	11
405.438	10
405.901	-1
406.364	3
406.827	13
407.29	5
407.754	8
408.217	4
408.68	6
409.143	7
409.607	7
410.07	3
410.533	5
410.997	11
411.46	9
411.924	4
412.387	4
412.851	2
413.314	10
413.778	7
414.242	9
414.705	10
415.169	6
415.633	7
416.097	8
416.561	8
417.024	5
417.488	11
417.952	11
418.416	5
418.88	15
419.344	7
419.809	9
420.273	13
420.737	7
421.201	8
421.665	8
422.13	6
422.594	8
423.059	9
423.523	4
423.987	9
424.452	11
424.916	6
425.381	6
425.846	11
426.31	8
426.775	5
427.24	9
427.704	10
428.169	12
428.634	13
429.099	10
429.564	13
430.029	11
430.494	12
430.959	13
431.424	10
431.889	12
432.354	8
432.819	15
433.284	15
433.75	9
434.215	8
434.68	15
435.146	13
435.611	16
436.077	15
436.542	19
437.008	16
437.473	17
437.939	12
438.404	16
438.87	14
439.336	14
439.801	19
440.267	12
440.733	13
441.199	16
441.665	16
442.131	19
442.596	12
443.062	16
443.529	14
443.995	17
444.461	19
444.927	16
445.393	16
445.859	21
446.325	16
446.792	21
447.258	21
447.724	23
448.191	21
448.657	21
449.124	23
449.59	21
450.057	24
450.523	24
450.99	25
451.457	29
451.923	22
452.39	23
452.857	25
453.324	24
453.791	27
454.257	29
454.724	28
455.191	24
455.658	19
456.125	28
456.592	24
457.059	25
457.527	21
457.994	28
458.461	26
458.928	29
459.396	29
459.863	30
460.33	23
460.798	32
461.265	32
461.732	26
462.2	30
462.668	29
463.135	28
463.603	33
464.07	36
464.538	35
465.006	34
465.474	28
465.941	28
466.409	35
466.877	29
467.345	32
467.813	31
468.281	30
468.749	34
469.217	30
469.685	35
470.153	31
470.621	37
471.09	35
471.558	35
472.026	34
472.494	34
472.963	35
473.431	35
473.9	41
474.368	39
474.837	40
475.305	40
475.774	42
476.242	41
476.711	44
477.18	46
477.648	41
478.117	41
478.586	42
479.055	46
479.524	41
479.993	47
480.462	49
480.93	48
481.399	42
481.869	46
482.338	41
482.807	46
483.276	44
483.745	46
484.214	47
484.684	44
485.153	47
485.622	50
486.092	49
486.561	43
487.031	49
487.5	50
487.97	49
488.439	50
488.909	52
489.378	56
489.848	57
490.318	53
490.787	58
491.257	60
491.727	61
492.197	62
492.667	65
493.137	65
493.607	64
494.077	61
494.547	67
495.017	59
495.487	68
495.957	68
496.427	63
496.897	65
497.368	61
497.838	63
498.308	62
498.779	71
499.249	71
499.719	65
500.19	63
500.66	70
501.131	70
501.602	73
502.072	70
502.543	70
503.014	67
503.484	74
503.955	77
504.426	80
504.897	75
505.368	79
505.838	79
506.309	90
506.78	89
507.251	83
507.722	93
508.194	95
508.665	91
509.136	92
509.607	100
510.078	95
510.549	103
511.021	100
511.492	103
511.964	103
512.435	100
512.906	102
513.378	106
513.849	110
514.321	112
514.793	105
515.264	105
515.736	113
516.208	114
516.679	112
517.151	114
517.623	115
518.095	123
518.567	121
519.038	117
519.51	117
519.982	126
520.454	128
520.927	126
521.399	131
521.871	124
522.343	127
522.815	128
523.287	129
523.76	133
524.232	133
524.704	137
525.177	137
525.649	132
526.122	137
526.594	136
527.067	135
527.539	138
528.012	139
528.484	142
528.957	140
529.43	143
529.903	140
530.375	145
530.848	142
531.321	144
531.794	145
532.267	142
532.74	141
533.213	144
533.686	148
534.159	145
534.632	153
535.105	152
535.578	150
536.051	153
536.525	154
536.998	159
537.471	158
537.945	157
538.418	161
538.891	159
539.365	160
539.838	165
540.312	162
540.786	167
541.259	166
541.733	170
542.206	172
542.68	169
543.154	164
543.628	161
544.101	172
544.575	167
545.049	161
545.523	170
545.997	166
546.471	170
546.945	165
547.419	168
547.893	167
548.367	169
548.842	170
549.316	164
549.79	166
550.264	168
550.739	174
551.213	175
551.687	166
552.162	172
552.636	170
553.111	175
553.585	176
554.06	172
554.534	177
555.009	177
555.484	180
555.958	179
556.433	179
556.908	186
557.383	185
557.858	187
558.333	185
558.807	186
559.282	187
559.757	197
560.232	194
560.708	192
561.183	189
561.658	197
562.133	196
562.608	189
563.083	200
563.559	189
564.034	194
564.509	191
564.985	193
565.46	192
565.936	189
566.411	197
566.887	197
567.362	198
567.838	197
568.313	200
568.789	199
569.265	198
569.74	198
570.216	196
570.692	201
571.168	202
571.644	210
572.12	200
572.596	204
573.071	203
573.547	208
574.024	212
574.5	211
574.976	213
575.452	211
575.928	219
576.404	221
576.881	229
577.357	219
577.833	222
578.31	232
578.786	238
579.262	246
579.739	232
580.215	241
580.692	245
581.169	244
581.645	238
582.122	244
582.598	249
583.075	250
583.552	251
584.029	253
584.506	249
584.982	249
585.459	257
585.936	251
586.413	259
586.89	259
587.367	254
587.844	263
588.321	264
588.799	260
589.276	256
589.753	259
590.23	265
590.707	265
591.185	260
591.662	264
592.139	267
592.617	269
593.094	269
593.572	273
594.049	273
594.527	283
595.004	278
595.482	285
595.96	286
596.437	285
596.915	294
597.393	284
597.871	287
598.349	289
598.826	297
599.304	306
599.782	303
600.26	301
600.738	305
601.216	303
601.694	309
602.173	310
602.651	314
603.129	311
603.607	316
604.085	320
604.564	317
605.042	319
605.52	312
605.999	323
606.477	321
606.956	315
607.434	319.5
607.913	324
608.391	318
608.87	327
609.348	318
609.827	315
610.306	322
610.785	324
611.263	327
611.742	326
612.221	323
612.7	317
613.179	320
613.658	323
614.137	330
614.616	331
615.095	327
615.574	331
616.053	326
616.532	330
617.011	333
617.491	328
617.97	332
618.449	331
618.928	337
619.408	344
619.887	341
620.367	347
620.846	341
621.326	346
621.805	347
622.285	349
622.764	351
623.244	358
623.724	356
624.203	362
624.683	352
625.163	362
625.643	364
626.123	358
626.602	374
627.082	364
627.562	362
628.042	369
628.522	365
629.002	370
629.482	374
629.963	363
630.443	362
630.923	367
631.403	369
631.883	367
632.364	368
632.844	368
633.324	371
633.805	368
634.285	367
634.766	369
635.246	365
635.727	369
636.207	370
636.688	370
637.168	369
637.649	361
638.13	362
638.611	364
639.091	368
639.572	363
640.053	366
640.534	367
641.015	370
641.496	358
641.977	365
642.458	364
642.939	365
643.42	369
643.901	364
644.382	371
644.863	369
645.345	374
645.826	367
646.307	373
646.788	373
647.27	375
647.751	377
648.233	374
648.714	368
649.196	373
649.677	376
650.159	382
650.64	376
651.122	389
651.603	380
652.085	381
652.567	381
653.049	375
653.53	377
654.012	387
654.494	383
654.976	379
655.458	380
655.94	386
656.422	383
656.904	383
657.386	374
657.868	380
658.35	372
658.833	387
659.315	383
659.797	380
660.279	383
660.762	386
661.244	379
661.726	373
662.209	379
662.691	375
663.174	373
663.656	371
664.139	373
664.621	368
665.104	366
665.587	370
666.069	373
666.552	371
667.035	366
667.517	370
668	371
668.483	376
668.966	374
669.449	367
669.932	372
670.415	381
670.898	375
671.381	369
671.864	371
672.347	375
672.83	372
673.313	383
673.797	379
674.28	379
674.763	381
675.247	377
675.73	378
676.213	376
676.697	390
677.18	391
677.664	392
678.147	392
678.631	393
679.114	394
679.598	389
680.082	399
680.565	402
681.049	395
681.533	392
682.017	398
682.5	401
682.984	412
683.468	400
683.952	396
684.436	398
684.92	397
685.404	399
685.888	398
686.372	401
686.856	403
687.341	407
687.825	401
688.309	403
688.793	404
689.278	399
689.762	401
690.246	406
690.731	403
691.215	407
691.7	397
692.184	402
692.669	400
693.153	399
693.638	394
694.122	392
694.607	400
695.092	394
695.577	398
696.061	395
696.546	393
697.031	394
697.516	395
698.001	403
698.486	397
698.971	400
699.456	392
699.941	390
700.426	395
700.911	401
701.396	388
701.881	393
702.366	387
702.852	394
703.337	393
703.822	397
704.308	385
704.793	394
705.278	393
705.764	392
706.249	391
706.735	395
707.22	407
707.706	392
708.191	398
708.677	392
709.163	399
709.648	403
710.134	404
710.62	403
711.106	403
711.592	400
712.077	408
712.563	389
713.049	386
713.535	400
714.021	400
714.507	400
714.993	395
715.479	401
715.966	395
716.452	399
716.938	399
717.424	388
717.91	397
718.397	392
718.883	388
719.369	387
719.856	384
720.342	390
720.829	383
721.315	388
721.802	386
722.288	397
722.775	375
723.262	371
723.748	387
724.235	379
724.722	386
725.208	378
725.695	382
726.182	381
726.669	374
727.156	377
727.643	371
728.13	371
728.617	370
729.104	370
729.591	370
730.078	372
730.565	368
731.052	368
731.539	372
732.027	373
732.514	363
733.001	364
733.488	364
733.976	364
734.463	366
734.951	372
735.438	369
735.926	357
736.413	362
736.901	359
737.388	360
737.876	364
738.364	362
738.851	363
739.339	356
739.827	363
740.314	353
740.802	356
741.29	360
741.778	356
742.266	358
742.754	353
743.242	363
743.73	354
744.218	361
744.706	352
745.194	356
745.682	355
746.17	355
746.659	361
747.147	352
747.635	354
748.123	350
748.612	348
749.1	345
749.589	354
750.077	349
750.566	341
751.054	347
751.543	346
752.031	342
752.52	339
753.008	329
753.497	328
753.986	336
754.474	333
754.963	338
755.452	331
755.941	329
756.43	328
756.919	327
757.408	324
757.896	330
758.385	333
758.875	322
759.364	321
759.853	315
760.342	311
760.831	322
761.32	320
761.809	319
762.299	317
762.788	320
763.277	316
763.767	310
764.256	307
764.745	302
765.235	312
765.724	300
766.214	306
766.703	304
767.193	309
767.683	308
768.172	300
768.662	300
769.152	303
769.641	301
770.131	295
770.621	295
771.111	292
771.601	293
772.09	294
772.58	289
773.07	287
773.56	297
774.05	283
774.54	285
775.031	281
775.521	282
776.011	282
776.501	281
776.991	281
777.482	287
777.972	279
778.462	275
778.953	279
779.443	274
779.933	281
780.424	272
780.914	275
781.405	276
781.895	271
782.386	273
782.877	268
783.367	265
783.858	267
784.349	263
784.839	259
785.33	265
785.821	263
786.312	262
786.803	263
787.293	264
787.784	254
788.275	252
788.766	254
789.257	261
789.748	248
790.24	253
790.731	249
791.222	252
791.713	248
792.204	247
792.696	244
793.187	250
793.678	246
794.169	241
794.661	245
795.152	249
795.644	238
796.135	244
796.627	247
797.118	234
797.61	238
798.101	232
798.593	242
799.085	240
799.576	237
800.068	232
800.56	227
801.052	231
801.544	225
802.035	225
802.527	221
803.019	226
803.511	221
804.003	220
804.495	219
804.987	217
805.479	212
805.971	219
806.464	218
806.956	210
807.448	210
807.94	211
808.433	212
808.925	206
809.417	215
809.91	211
810.402	207
810.894	210
811.387	210
811.879	209
812.372	202
812.865	202
813.357	195
813.85	204
814.342	199
814.835	204
815.328	202
815.821	199
816.313	203
816.806	205
817.299	203
817.792	204
818.285	195
818.778	205
819.271	205
819.764	200
820.257	194
820.75	195
821.243	200
821.736	192
822.229	195
822.722	196
823.216	201
