Data from lamp2helium_zwak_Subt4__29__215.txt Node

Date: Fri Apr 04 10:55:46 CEST 2025
User: fys-lab-0081
Spectrometer: S04999
Trigger mode: 0
Resolution mode: 1024 pixels
Integration Time (sec): 1.000000E-1
Scans to average: 1
Nonlinearity correction enabled: false
Boxcar width: 0
Baseline correction enabled: true
XAxis mode: Wavelengths
Number of Pixels in Spectrum: 1024
>>>>>Begin Spectral Data<<<<<
336.42	-2
336.877	1
337.334	4
337.792	3
338.249	1
338.706	3
339.164	4
339.621	-1
340.079	2
340.536	3
340.994	1
341.452	2
341.909	5
342.367	1
342.825	4
343.283	0
343.741	4
344.198	-3
344.656	-3
345.114	3
345.572	-1
346.03	1
346.488	1
346.947	3
347.405	2
347.863	4
348.321	-3
348.779	0
349.238	1
349.696	1
350.154	-2
350.613	5
351.071	-4
351.53	-5
351.988	1
352.447	2
352.905	-2
353.364	1
353.823	6
354.282	-1
354.74	-1
355.199	2
355.658	1
356.117	0
356.576	-3
357.035	-2
357.494	-3
357.953	-2
358.412	-4
358.871	2
359.33	3
359.789	5
360.249	2
360.708	4
361.167	-1
361.626	6
362.086	1
362.545	0
363.005	-3
363.464	5
363.924	2
364.383	4
364.843	2
365.303	-4
365.762	2
366.222	7
366.682	4
367.142	-1
367.601	2
368.061	7
368.521	5
368.981	4
369.441	4
369.901	-3
370.361	3
370.821	5
371.282	0
371.742	1
372.202	1
372.662	4
373.123	2
373.583	2
374.043	4
374.504	-1
374.964	0
375.425	1
375.885	4
376.346	4
376.806	-1
377.267	3
377.728	-3
378.188	2
378.649	3
379.11	0
379.571	0
380.032	5
380.493	2
380.954	8
381.414	4
381.876	6
382.337	4
382.798	0
383.259	12
383.72	-3
384.181	4
384.642	0
385.104	4
385.565	1
386.026	3
386.488	5
386.949	-1
387.411	10
387.872	5
388.334	4
388.795	-2
389.257	4
389.719	0
390.181	5
390.642	2
391.104	9
391.566	3
392.028	6
392.49	3
392.952	0
393.414	1
393.876	6
394.338	6
394.8	-2
395.262	3
395.724	6
396.186	3
396.648	5
397.111	1
397.573	1
398.035	4
398.498	1
398.96	5
399.423	5
399.885	6
400.348	7
400.81	5
401.273	3
401.736	1
402.198	6
402.661	9
403.124	9
403.587	5
404.049	6.5
404.512	8
404.975	9
405.438	6
405.901	0
406.364	2
406.827	13
407.29	7
407.754	7
408.217	1
408.68	7
409.143	5
409.607	8
410.07	2
410.533	8
410.997	9
411.46	10
411.924	4
412.387	5
412.851	4
413.314	7
413.778	6
414.242	6
414.705	6
415.169	6
415.633	11
416.097	8
416.561	6
417.024	9
417.488	12
417.952	11
418.416	6
418.88	13
419.344	2
419.809	9
420.273	13
420.737	6
421.201	7
421.665	8
422.13	10
422.594	5
423.059	6
423.523	2
423.987	11
424.452	12
424.916	9
425.381	6
425.846	15
426.31	6
426.775	6
427.24	7
427.704	8
428.169	11
428.634	10
429.099	5
429.564	14
430.029	13
430.494	13
430.959	11
431.424	8
431.889	15
432.354	13
432.819	12
433.284	8
433.75	11
434.215	10
434.68	12
435.146	14
435.611	18
436.077	17
436.542	16
437.008	13
437.473	13
437.939	9
438.404	15
438.87	13
439.336	12
439.801	16
440.267	13
440.733	15
441.199	12
441.665	17
442.131	14
442.596	12
443.062	16
443.529	16
443.995	14
444.461	19
444.927	18
445.393	20
445.859	21
446.325	17
446.792	26
447.258	23
447.724	22
448.191	21
448.657	20
449.124	25
449.59	20
450.057	20
450.523	25
450.99	22
451.457	28
451.923	28
452.39	23
452.857	24
453.324	27
453.791	27
454.257	32
454.724	29
455.191	20
455.658	24
456.125	26
456.592	29
457.059	27
457.527	18
457.994	25
458.461	25
458.928	26
459.396	30
459.863	33
460.33	29
460.798	29
461.265	28
461.732	23
462.2	34
462.668	31
463.135	28
463.603	31
464.07	35
464.538	32
465.006	31
465.474	25
465.941	36
466.409	31
466.877	29
467.345	26
467.813	29
468.281	27
468.749	29
469.217	33
469.685	35
470.153	30
470.621	33
471.09	34
471.558	32
472.026	34
472.494	32
472.963	37
473.431	41
473.9	38
474.368	38
474.837	40
475.305	37
475.774	40
476.242	43
476.711	46
477.18	48
477.648	42
478.117	46
478.586	42
479.055	43
479.524	42
479.993	43
480.462	44
480.93	45
481.399	44
481.869	46
482.338	41
482.807	43
483.276	46
483.745	50
484.214	44
484.684	44
485.153	50
485.622	50
486.092	49
486.561	45
487.031	49
487.5	53
487.97	58
488.439	49
488.909	50
489.378	54
489.848	61
490.318	52
490.787	54
491.257	60
491.727	63
492.197	62
492.667	61
493.137	64
493.607	68
494.077	60
494.547	65
495.017	58
495.487	63
495.957	68
496.427	64
496.897	65
497.368	63
497.838	64
498.308	63
498.779	71
499.249	65
499.719	66
500.19	64
500.66	71
501.131	70
501.602	73
502.072	71
502.543	68
503.014	71
503.484	74
503.955	75
504.426	81
504.897	76
505.368	78
505.838	83
506.309	84
506.78	90
507.251	82
507.722	94
508.194	93
508.665	91
509.136	95
509.607	96
510.078	95
510.549	105
511.021	101
511.492	98
511.964	102
512.435	105
512.906	107
513.378	107
513.849	109
514.321	112
514.793	102
515.264	106
515.736	112
516.208	115
516.679	113
517.151	115
517.623	114
518.095	121
518.567	123
519.038	120
519.51	122
519.982	123
520.454	129
520.927	126
521.399	129
521.871	125
522.343	126
522.815	131
523.287	127
523.76	134
524.232	136
524.704	133
525.177	134
525.649	136
526.122	134
526.594	136
527.067	134
527.539	140
528.012	144
528.484	137
528.957	138
529.43	141
529.903	140
530.375	144
530.848	140
531.321	145
531.794	141
532.267	144
532.74	142
533.213	146
533.686	148
534.159	147
534.632	153
535.105	153
535.578	150
536.051	151
536.525	152
536.998	158
537.471	159
537.945	159
538.418	155
538.891	160
539.365	166
539.838	164
540.312	163
540.786	165
541.259	164
541.733	168
542.206	166
542.68	156
543.154	163
543.628	159
544.101	175
544.575	170
545.049	165
545.523	166
545.997	169
546.471	175
546.945	169
547.419	172
547.893	169
548.367	168
548.842	173
549.316	169
549.79	167
550.264	167
550.739	172
551.213	172
551.687	172
552.162	174
552.636	174
553.111	176
553.585	178
554.06	176
554.534	179
555.009	176
555.484	183
555.958	181
556.433	181
556.908	189
557.383	183
557.858	189
558.333	191
558.807	186
559.282	185
559.757	193
560.232	198
560.708	195
561.183	193
561.658	191
562.133	196
562.608	197
563.083	201
563.559	187
564.034	197
564.509	194
564.985	198
565.46	198
565.936	191
566.411	201
566.887	195
567.362	203
567.838	200
568.313	200
568.789	200
569.265	201
569.74	201
570.216	200
570.692	199
571.168	198
571.644	204
572.12	200
572.596	202
573.071	206
573.547	207
574.024	216
574.5	214
574.976	209
575.452	217
575.928	221
576.404	223
576.881	230
577.357	221
577.833	223
578.31	232
578.786	238
579.262	242
579.739	235
580.215	243
580.692	247
581.169	251
581.645	239
582.122	248
582.598	251
583.075	252
583.552	253
584.029	252
584.506	251
584.982	250
585.459	257
585.936	256
586.413	259
586.89	261
587.367	256
587.844	270
588.321	259
588.799	258
589.276	260
589.753	267
590.23	264
590.707	263
591.185	267
591.662	264
592.139	271
592.617	273
593.094	271
593.572	272
594.049	275
594.527	288
595.004	278
595.482	285
595.96	288
596.437	284
596.915	300
597.393	287
597.871	295
598.349	292
598.826	299
599.304	303
599.782	312
600.26	299
600.738	303
601.216	309
601.694	311
602.173	315
602.651	317
603.129	312
603.607	310
604.085	318
604.564	321
605.042	321
605.52	315
605.999	325
606.477	323
606.956	320
607.434	322
607.913	324
608.391	323
608.87	326
609.348	319
609.827	322
610.306	325
610.785	327
611.263	328
611.742	328
612.221	329
612.7	323
613.179	326
613.658	325
614.137	338
614.616	332
615.095	326
615.574	334
616.053	331
616.532	333
617.011	331
617.491	332
617.97	331
618.449	336
618.928	340
619.408	344
619.887	346
620.367	345
620.846	346
621.326	349
621.805	348
622.285	349
622.764	354
623.244	359
623.724	365
624.203	364
624.683	357
625.163	360
625.643	365
626.123	363
626.602	370
627.082	362
627.562	366
628.042	375
628.522	370
629.002	374
629.482	380
629.963	368
630.443	366
630.923	368
631.403	371
631.883	369
632.364	371
632.844	373
633.324	372
633.805	370
634.285	370
634.766	371
635.246	366
635.727	374
636.207	368
636.688	371
637.168	373
637.649	368
638.13	362
638.611	371
639.091	373
639.572	369
640.053	373
640.534	377
641.015	372
641.496	365
641.977	368
642.458	367
642.939	369
643.42	370
643.901	378
644.382	372
644.863	376
645.345	380
645.826	376
646.307	378
646.788	381
647.27	374
647.751	388
648.233	379
648.714	376
649.196	381
649.677	380
650.159	385
650.64	378
651.122	393
651.603	384
652.085	387
652.567	384
653.049	386
653.53	384
654.012	392
654.494	380
654.976	384
655.458	382
655.94	388
656.422	387
656.904	387
657.386	378
657.868	386
658.35	380
658.833	386
659.315	391
659.797	387
660.279	380
660.762	386
661.244	382
661.726	380
662.209	380
662.691	383
663.174	380
663.656	381
664.139	377
664.621	379
665.104	375
665.587	376
666.069	377
666.552	379
667.035	367
667.517	372
668	377
668.483	384
668.966	372
669.449	368
669.932	378
670.415	377
670.898	377
671.381	376
671.864	374
672.347	379
672.83	374
673.313	382
673.797	379
674.28	383
674.763	387
675.247	386
675.73	386
676.213	386
676.697	394
677.18	396
677.664	395
678.147	392
678.631	399
679.114	396
679.598	394
680.082	402
680.565	398
681.049	398
681.533	395
682.017	404
682.5	410
682.984	409
683.468	410
683.952	402
684.436	402
684.92	403
685.404	413
685.888	409
686.372	407
686.856	410
687.341	414
687.825	405
688.309	411
688.793	411
689.278	409
689.762	406
690.246	410
690.731	411
691.215	409
691.7	403
692.184	403
692.669	407
693.153	407
693.638	402
694.122	405
694.607	400
695.092	403
695.577	404
696.061	397
696.546	397
697.031	394
697.516	404
698.001	406
698.486	403
698.971	406
699.456	391
699.941	397
700.426	400
700.911	403
701.396	393
701.881	398
702.366	396
702.852	400
703.337	397
703.822	399
704.308	389
704.793	393
705.278	399
705.764	398
706.249	398
706.735	404
707.22	408
707.706	400
708.191	407
708.677	402
709.163	403
709.648	411
710.134	413
710.62	409
711.106	403
711.592	407
712.077	411
712.563	402
713.049	396
713.535	406
714.021	410
714.507	403
714.993	401
715.479	404
715.966	396
716.452	396
716.938	403
717.424	394
717.91	399
718.397	396
718.883	397
719.369	395
719.856	393
720.342	395
720.829	387
721.315	390
721.802	387
722.288	396
722.775	382
723.262	376
723.748	394
724.235	385
724.722	389
725.208	384
725.695	388
726.182	387
726.669	382
727.156	381
727.643	378
728.13	376
728.617	379
729.104	375
729.591	370
730.078	372
730.565	375
731.052	376
731.539	379
732.027	374
732.514	364
733.001	366
733.488	374
733.976	367
734.463	369
734.951	369
735.438	368
735.926	361
736.413	367
736.901	364
737.388	369
737.876	369
738.364	366
738.851	367
739.339	362
739.827	372
740.314	363
740.802	362
741.29	371
741.778	363
742.266	367
742.754	357
743.242	366
743.73	360
744.218	365
744.706	351
745.194	362
745.682	358
746.17	363
746.659	366
747.147	354
747.635	354
748.123	360
748.612	352
749.1	350
749.589	355
750.077	351
750.566	347
751.054	354
751.543	350
752.031	345
752.52	345
753.008	342
753.497	334
753.986	341
754.474	341
754.963	344
755.452	340
755.941	336
756.43	332
756.919	330
757.408	329
757.896	332
758.385	335
758.875	331
759.364	323
759.853	320
760.342	320
760.831	324
761.32	329
761.809	326
762.299	325
762.788	320
763.277	325
763.767	322
764.256	316
764.745	309
765.235	318
765.724	302
766.214	314
766.703	309
767.193	306
767.683	311
768.172	308
768.662	302
769.152	305
769.641	310
770.131	302
770.621	297
771.111	294
771.601	293
772.09	296
772.58	296
773.07	287
773.56	301
774.05	285
774.54	285
775.031	289
775.521	285
776.011	287
776.501	287
776.991	284
777.482	289
777.972	278
778.462	280
778.953	285
779.443	280
779.933	284
780.424	272
780.914	280
781.405	279
781.895	276
782.386	275
782.877	269
783.367	272
783.858	270
784.349	272
784.839	265
785.33	269
785.821	264
786.312	266
786.803	264
787.293	265
787.784	260
788.275	255
788.766	252
789.257	264
789.748	248
790.24	254
790.731	254
791.222	254
791.713	254
792.204	254
792.696	251
793.187	246
793.678	249
794.169	246
794.661	247
795.152	249
795.644	242
796.135	247
796.627	249
797.118	241
797.61	241
798.101	240
798.593	247
799.085	245
799.576	236
800.068	232
800.56	236
801.052	235
801.544	229
802.035	227
802.527	227
803.019	228
803.511	227
804.003	225
804.495	222
804.987	218
805.479	215
805.971	218
806.464	223
806.956	220
807.448	210
807.94	215
808.433	213
808.925	215
809.417	217
809.91	212
810.402	215
810.894	211
811.387	214
811.879	213
812.372	205
812.865	205
813.357	201
813.85	203
814.342	204
814.835	204
815.328	208
815.821	198
816.313	203
816.806	207
817.299	210
817.792	205
818.285	204
818.778	204
819.271	203
819.764	203
820.257	198
820.75	203
821.243	196
821.736	196
822.229	199
822.722	196
823.216	203
