Data from lamp2helium_zwak_Subt4__0__186.txt Node

Date: Fri Apr 04 10:55:42 CEST 2025
User: fys-lab-0081
Spectrometer: S04999
Trigger mode: 0
Resolution mode: 1024 pixels
Integration Time (sec): 1.000000E-1
Scans to average: 1
Nonlinearity correction enabled: false
Boxcar width: 0
Baseline correction enabled: true
XAxis mode: Wavelengths
Number of Pixels in Spectrum: 1024
>>>>>Begin Spectral Data<<<<<
336.42	-3
336.877	-3
337.334	1
337.792	7
338.249	-2
338.706	4
339.164	7
339.621	-1
340.079	0
340.536	0
340.994	-2
341.452	3
341.909	1
342.367	5
342.825	5
343.283	3
343.741	4
344.198	-2
344.656	-1
345.114	1
345.572	-2
346.03	1
346.488	1
346.947	6
347.405	3
347.863	-1
348.321	2
348.779	2
349.238	3
349.696	1
350.154	1
350.613	3
351.071	6
351.53	2
351.988	-1
352.447	4
352.905	1
353.364	-1
353.823	6
354.282	-5
354.74	4
355.199	1
355.658	0
356.117	-2
356.576	-5
357.035	-1
357.494	-2
357.953	1
358.412	3
358.871	2
359.33	1
359.789	0
360.249	-1
360.708	4
361.167	-3
361.626	3
362.086	1
362.545	0
363.005	-12
363.464	4
363.924	-2
364.383	-1
364.843	5
365.303	-1
365.762	4
366.222	2
366.682	1
367.142	3
367.601	3
368.061	2
368.521	5
368.981	5
369.441	2
369.901	0
370.361	1
370.821	3
371.282	5
371.742	-2
372.202	2
372.662	6
373.123	2
373.583	1
374.043	3
374.504	-3
374.964	0
375.425	-1
375.885	0
376.346	3
376.806	-5
377.267	6
377.728	0
378.188	1
378.649	2
379.11	-1
379.571	0
380.032	5
380.493	1
380.954	9
381.414	0
381.876	4
382.337	6
382.798	2
383.259	2
383.72	-1
384.181	7
384.642	1
385.104	4
385.565	6
386.026	0
386.488	8
386.949	4
387.411	7
387.872	3
388.334	1
388.795	-3
389.257	7
389.719	5
390.181	7
390.642	7
391.104	8
391.566	2
392.028	1
392.49	2
392.952	-3
393.414	-3
393.876	6
394.338	8
394.8	2
395.262	2
395.724	6
396.186	0
396.648	8
397.111	3
397.573	3
398.035	2
398.498	7
398.96	9
399.423	5
399.885	3
400.348	6
400.81	5
401.273	4
401.736	3
402.198	6
402.661	6
403.124	6
403.587	5
404.049	5.5
404.512	6
404.975	8
405.438	9
405.901	4
406.364	5
406.827	14
407.29	4
407.754	9
408.217	2
408.68	10
409.143	8
409.607	7
410.07	5
410.533	7
410.997	2
411.46	6
411.924	2
412.387	3
412.851	7
413.314	11
413.778	5
414.242	12
414.705	6
415.169	8
415.633	10
416.097	10
416.561	8
417.024	4
417.488	11
417.952	8
418.416	10
418.88	12
419.344	6
419.809	11
420.273	11
420.737	6
421.201	8
421.665	8
422.13	5
422.594	11
423.059	10
423.523	4
423.987	11
424.452	13
424.916	9
425.381	4
425.846	12
426.31	8
426.775	9
427.24	10
427.704	9
428.169	13
428.634	12
429.099	7
429.564	11
430.029	10
430.494	14
430.959	9
431.424	8
431.889	11
432.354	10
432.819	12
433.284	11
433.75	15
434.215	15
434.68	16
435.146	12
435.611	15
436.077	15
436.542	17
437.008	16
437.473	14
437.939	12
438.404	18
438.87	14
439.336	13
439.801	16
440.267	15
440.733	11
441.199	17
441.665	14
442.131	17
442.596	13
443.062	16
443.529	19
443.995	12
444.461	18
444.927	15
445.393	17
445.859	20
446.325	20
446.792	20
447.258	20
447.724	24
448.191	23
448.657	21
449.124	22
449.59	24
450.057	22
450.523	22
450.99	23
451.457	27
451.923	31
452.39	21
452.857	27
453.324	24
453.791	27
454.257	33
454.724	29
455.191	22
455.658	26
456.125	32
456.592	30
457.059	27
457.527	23
457.994	25
458.461	25
458.928	26
459.396	28
459.863	32
460.33	25
460.798	32
461.265	32
461.732	24
462.2	31
462.668	31
463.135	25
463.603	28
464.07	34
464.538	34
465.006	37
465.474	25
465.941	31
466.409	33
466.877	29
467.345	33
467.813	29
468.281	30
468.749	28
469.217	36
469.685	34
470.153	24
470.621	38
471.09	39
471.558	35
472.026	34
472.494	31
472.963	37
473.431	42
473.9	39
474.368	40
474.837	41
475.305	41
475.774	44
476.242	44
476.711	44
477.18	43
477.648	40
478.117	45
478.586	40
479.055	44
479.524	39
479.993	47
480.462	42
480.93	47
481.399	39
481.869	48
482.338	45
482.807	47
483.276	44
483.745	48
484.214	45
484.684	45
485.153	47
485.622	48
486.092	47
486.561	44
487.031	46
487.5	50
487.97	51
488.439	48
488.909	48
489.378	59
489.848	55
490.318	51
490.787	54
491.257	62
491.727	62
492.197	61
492.667	63
493.137	68
493.607	66
494.077	59
494.547	66
495.017	58
495.487	66
495.957	68
496.427	67
496.897	64
497.368	65
497.838	63
498.308	63
498.779	67
499.249	68
499.719	62
500.19	61
500.66	68
501.131	73
501.602	73
502.072	65
502.543	67
503.014	72
503.484	76
503.955	79
504.426	81
504.897	78
505.368	77
505.838	83
506.309	85
506.78	90
507.251	78
507.722	92
508.194	88
508.665	88
509.136	95
509.607	96
510.078	96
510.549	102
511.021	104
511.492	102
511.964	104
512.435	105
512.906	105
513.378	110
513.849	106
514.321	112
514.793	103
515.264	104
515.736	111
516.208	118
516.679	109
517.151	121
517.623	117
518.095	119
518.567	120
519.038	116
519.51	119
519.982	124
520.454	128
520.927	125
521.399	127
521.871	130
522.343	130
522.815	130
523.287	125
523.76	132
524.232	136
524.704	135
525.177	137
525.649	135
526.122	137
526.594	137
527.067	138
527.539	143
528.012	142
528.484	141
528.957	139
529.43	141
529.903	141
530.375	141
530.848	143
531.321	144
531.794	140
532.267	144
532.74	141
533.213	146
533.686	151
534.159	147
534.632	147
535.105	156
535.578	151
536.051	153
536.525	154
536.998	155
537.471	155
537.945	155
538.418	158
538.891	163
539.365	161
539.838	164
540.312	165
540.786	167
541.259	165
541.733	170
542.206	167
542.68	162
543.154	161
543.628	165
544.101	172
544.575	172
545.049	165
545.523	170
545.997	166
546.471	174
546.945	166
547.419	174
547.893	166
548.367	167
548.842	173
549.316	172
549.79	167
550.264	169
550.739	175
551.213	172
551.687	173
552.162	167
552.636	172
553.111	172
553.585	176
554.06	173
554.534	175
555.009	183
555.484	180
555.958	181
556.433	179
556.908	185
557.383	183
557.858	185
558.333	188
558.807	189
559.282	187
559.757	196
560.232	191
560.708	193
561.183	194
561.658	197
562.133	195
562.608	191
563.083	197
563.559	192
564.034	196
564.509	194
564.985	194
565.46	193
565.936	197
566.411	203
566.887	190
567.362	196
567.838	195
568.313	202
568.789	201
569.265	200
569.74	198
570.216	200
570.692	202
571.168	196
571.644	207
572.12	203
572.596	205
573.071	204
573.547	208
574.024	211
574.5	214
574.976	210
575.452	216
575.928	219
576.404	220
576.881	229
577.357	223
577.833	225
578.31	231
578.786	240
579.262	242
579.739	230
580.215	244
580.692	245
581.169	244
581.645	244
582.122	239
582.598	249
583.075	252
583.552	252
584.029	247
584.506	253
584.982	253
585.459	254
585.936	252
586.413	257
586.89	261
587.367	254
587.844	260
588.321	256
588.799	258
589.276	256
589.753	259
590.23	261
590.707	266
591.185	263
591.662	262
592.139	266
592.617	264
593.094	267
593.572	272
594.049	275
594.527	282
595.004	278
595.482	290
595.96	283
596.437	281
596.915	294
597.393	287
597.871	294
598.349	288
598.826	294
599.304	302
599.782	309
600.26	301
600.738	307
601.216	300
601.694	313
602.173	313
602.651	313
603.129	309
603.607	317
604.085	323
604.564	314
605.042	322
605.52	316
605.999	324
606.477	327
606.956	319
607.434	320
607.913	321
608.391	321
608.87	325
609.348	320
609.827	321
610.306	320
610.785	327
611.263	325
611.742	327
612.221	318
612.7	321
613.179	322
613.658	321
614.137	332
614.616	338
615.095	326
615.574	328
616.053	329
616.532	331
617.011	332
617.491	331
617.97	333
618.449	333
618.928	340
619.408	341
619.887	341
620.367	342
620.846	348
621.326	348
621.805	344
622.285	347
622.764	352
623.244	356
623.724	364
624.203	360
624.683	355
625.163	362
625.643	363
626.123	359
626.602	373
627.082	360
627.562	355
628.042	371
628.522	365
629.002	369
629.482	373
629.963	366
630.443	361
630.923	367
631.403	364
631.883	368
632.364	369
632.844	367
633.324	372
633.805	374
634.285	365
634.766	373
635.246	368
635.727	372
636.207	370
636.688	363
637.168	371
637.649	361
638.13	362
638.611	361
639.091	370
639.572	367
640.053	370
640.534	370
641.015	368
641.496	357
641.977	366
642.458	360
642.939	364
643.42	362
643.901	366
644.382	368
644.863	373
645.345	371
645.826	369
646.307	371
646.788	380
647.27	372
647.751	384
648.233	377
648.714	366
649.196	374
649.677	379
650.159	380
650.64	374
651.122	389
651.603	387
652.085	380
652.567	380
653.049	375
653.53	380
654.012	385
654.494	376
654.976	381
655.458	379
655.94	384
656.422	387
656.904	380
657.386	378
657.868	377
658.35	378
658.833	389
659.315	381
659.797	382
660.279	380
660.762	383
661.244	381
661.726	375
662.209	377
662.691	376
663.174	373
663.656	378
664.139	375
664.621	374
665.104	365
665.587	376
666.069	370
666.552	372
667.035	368
667.517	369
668	369
668.483	376
668.966	368
669.449	368
669.932	371
670.415	373
670.898	370
671.381	370
671.864	372
672.347	374
672.83	371
673.313	377
673.797	373
674.28	376
674.763	384
675.247	376
675.73	381
676.213	383
676.697	391
677.18	390
677.664	389
678.147	396
678.631	394
679.114	394
679.598	396
680.082	395
680.565	395
681.049	397
681.533	395
682.017	396
682.5	402
682.984	405
683.468	401
683.952	394
684.436	395
684.92	395
685.404	397
685.888	403
686.372	404
686.856	407
687.341	407
687.825	401
688.309	407
688.793	404
689.278	400
689.762	399
690.246	406
690.731	405
691.215	405
691.7	394
692.184	402
692.669	402
693.153	401
693.638	398
694.122	398
694.607	397
695.092	397
695.577	401
696.061	400
696.546	395
697.031	389
697.516	395
698.001	401
698.486	394
698.971	399
699.456	394
699.941	392
700.426	394
700.911	399
701.396	395
701.881	388
702.366	390
702.852	392
703.337	392
703.822	389
704.308	390
704.793	385
705.278	391
705.764	391
706.249	390
706.735	399
707.22	400
707.706	397
708.191	398
708.677	395
709.163	398
709.648	398
710.134	404
710.62	403
711.106	399
711.592	395
712.077	405
712.563	394
713.049	388
713.535	398
714.021	399
714.507	397
714.993	395
715.479	396
715.966	392
716.452	396
716.938	396
717.424	386
717.91	401
718.397	391
718.883	391
719.369	389
719.856	388
720.342	391
720.829	378
721.315	387
721.802	386
722.288	390
722.775	373
723.262	374
723.748	388
724.235	382
724.722	387
725.208	374
725.695	381
726.182	382
726.669	376
727.156	375
727.643	371
728.13	370
728.617	372
729.104	367
729.591	367
730.078	370
730.565	371
731.052	368
731.539	373
732.027	371
732.514	369
733.001	366
733.488	361
733.976	362
734.463	365
734.951	364
735.438	365
735.926	361
736.413	366
736.901	358
737.388	361
737.876	364
738.364	362
738.851	360
739.339	359
739.827	364
740.314	354
740.802	359
741.29	360
741.778	352
742.266	362
742.754	354
743.242	360
743.73	357
744.218	356
744.706	350
745.194	363
745.682	354
746.17	360
746.659	359
747.147	349
747.635	356
748.123	352
748.612	350
749.1	345
749.589	352
750.077	352
750.566	336
751.054	342
751.543	345
752.031	345
752.52	337
753.008	336
753.497	328
753.986	334
754.474	337
754.963	341
755.452	332
755.941	327
756.43	326
756.919	327
757.408	328
757.896	325
758.385	331
758.875	323
759.364	326
759.853	310
760.342	311
760.831	321
761.32	315
761.809	320
762.299	318
762.788	314
763.277	317
763.767	318
764.256	309
764.745	307
765.235	311
765.724	301
766.214	311
766.703	306
767.193	307
767.683	307
768.172	300
768.662	300
769.152	299
769.641	304
770.131	295
770.621	294
771.111	294
771.601	295
772.09	294
772.58	292
773.07	286
773.56	297
774.05	286
774.54	281
775.031	281
775.521	286
776.011	284
776.501	283
776.991	280
777.482	286
777.972	281
778.462	275
778.953	285
779.443	276
779.933	282
780.424	275
780.914	277
781.405	275
781.895	271
782.386	273
782.877	269
783.367	259
783.858	269
784.349	263
784.839	261
785.33	263
785.821	262
786.312	261
786.803	261
787.293	262
787.784	256
788.275	254
788.766	253
789.257	262
789.748	252
790.24	252
790.731	255
791.222	246
791.713	249
792.204	253
792.696	241
793.187	247
793.678	245
794.169	245
794.661	247
795.152	242
795.644	237
796.135	243
796.627	244
797.118	232
797.61	236
798.101	239
798.593	242
799.085	235
799.576	234
800.068	236
800.56	230
801.052	232
801.544	222
802.035	224
802.527	221
803.019	226
803.511	223
804.003	219
804.495	218
804.987	220
805.479	216
805.971	212
806.464	222
806.956	210
807.448	212
807.94	209
808.433	211
808.925	213
809.417	214
809.91	206
810.402	201
810.894	208
811.387	208
811.879	207
812.372	200
812.865	208
813.357	193
813.85	203
814.342	200
814.835	203
815.328	202
815.821	198
816.313	197
816.806	197
817.299	202
817.792	208
818.285	197
818.778	204
819.271	204
819.764	198
820.257	195
820.75	200
821.243	194
821.736	192
822.229	201
822.722	195
823.216	197
