Data from lamp2helium_zwak_Subt4__23__209.txt Node

Date: Fri Apr 04 10:55:45 CEST 2025
User: fys-lab-0081
Spectrometer: S04999
Trigger mode: 0
Resolution mode: 1024 pixels
Integration Time (sec): 1.000000E-1
Scans to average: 1
Nonlinearity correction enabled: false
Boxcar width: 0
Baseline correction enabled: true
XAxis mode: Wavelengths
Number of Pixels in Spectrum: 1024
>>>>>Begin Spectral Data<<<<<
336.42	-2
336.877	-1
337.334	-1
337.792	5
338.249	-3
338.706	4
339.164	3
339.621	-2
340.079	0
340.536	5
340.994	-4
341.452	0
341.909	2
342.367	2
342.825	5
343.283	0
343.741	6
344.198	-2
344.656	2
345.114	-1
345.572	-5
346.03	-3
346.488	2
346.947	0
347.405	2
347.863	2
348.321	-3
348.779	5
349.238	1
349.696	2
350.154	-1
350.613	-5
351.071	1
351.53	1
351.988	-1
352.447	0
352.905	2
353.364	-1
353.823	6
354.282	-2
354.74	0
355.199	2
355.658	0
356.117	0
356.576	-1
357.035	-1
357.494	1
357.953	-2
358.412	0
358.871	3
359.33	4
359.789	2
360.249	2
360.708	4
361.167	-4
361.626	5
362.086	3
362.545	2
363.005	-2
363.464	7
363.924	2
364.383	5
364.843	2
365.303	-5
365.762	4
366.222	3
366.682	-4
367.142	1
367.601	0
368.061	4
368.521	1
368.981	4
369.441	4
369.901	-1
370.361	1
370.821	7
371.282	-3
371.742	1
372.202	-1
372.662	-1
373.123	3
373.583	4
374.043	4
374.504	0
374.964	0
375.425	5
375.885	1
376.346	3
376.806	-3
377.267	2
377.728	1
378.188	3
378.649	7
379.11	1
379.571	-3
380.032	3
380.493	3
380.954	8
381.414	-1
381.876	2
382.337	2
382.798	1
383.259	5
383.72	0
384.181	5
384.642	5
385.104	2
385.565	5
386.026	1
386.488	5
386.949	2
387.411	7
387.872	6
388.334	4
388.795	0
389.257	3
389.719	3
390.181	8
390.642	8
391.104	4
391.566	3
392.028	0
392.49	3
392.952	0
393.414	1
393.876	4
394.338	2
394.8	4
395.262	-2
395.724	3
396.186	4
396.648	8
397.111	5
397.573	4
398.035	2
398.498	7
398.96	5
399.423	6
399.885	1
400.348	6
400.81	5
401.273	5
401.736	2
402.198	1
402.661	8
403.124	6
403.587	7
404.049	7.5
404.512	8
404.975	10
405.438	7
405.901	3
406.364	4
406.827	11
407.29	5
407.754	7
408.217	1
408.68	9
409.143	7
409.607	9
410.07	0
410.533	7
410.997	11
411.46	9
411.924	3
412.387	1
412.851	3
413.314	7
413.778	5
414.242	9
414.705	10
415.169	1
415.633	11
416.097	10
416.561	8
417.024	9
417.488	9
417.952	11
418.416	9
418.88	13
419.344	5
419.809	10
420.273	12
420.737	6
421.201	9
421.665	7
422.13	7
422.594	10
423.059	9
423.523	3
423.987	12
424.452	11
424.916	4
425.381	8
425.846	14
426.31	9
426.775	8
427.24	9
427.704	10
428.169	14
428.634	14
429.099	4
429.564	10
430.029	7
430.494	11
430.959	13
431.424	9
431.889	13
432.354	11
432.819	11
433.284	12
433.75	11
434.215	12
434.68	15
435.146	15
435.611	15
436.077	17
436.542	13
437.008	13
437.473	14
437.939	13
438.404	19
438.87	16
439.336	9
439.801	13
440.267	15
440.733	14
441.199	19
441.665	16
442.131	17
442.596	12
443.062	21
443.529	13
443.995	13
444.461	21
444.927	16
445.393	17
445.859	21
446.325	17
446.792	19
447.258	21
447.724	23
448.191	25
448.657	20
449.124	19
449.59	22
450.057	23
450.523	22
450.99	23
451.457	29
451.923	30
452.39	28
452.857	23
453.324	26
453.791	27
454.257	29
454.724	27
455.191	22
455.658	19
456.125	28
456.592	29
457.059	24
457.527	19
457.994	24
458.461	28
458.928	27
459.396	27
459.863	28
460.33	28
460.798	31
461.265	28
461.732	26
462.2	31
462.668	27
463.135	31
463.603	30
464.07	34
464.538	35
465.006	34
465.474	29
465.941	30
466.409	33
466.877	30
467.345	28
467.813	30
468.281	29
468.749	32
469.217	35
469.685	32
470.153	27
470.621	33
471.09	32
471.558	30
472.026	31
472.494	35
472.963	34
473.431	38
473.9	43
474.368	40
474.837	41
475.305	42
475.774	41
476.242	44
476.711	46
477.18	48
477.648	39
478.117	42
478.586	42
479.055	42
479.524	38
479.993	45
480.462	49
480.93	44
481.399	42
481.869	41
482.338	44
482.807	47
483.276	48
483.745	43
484.214	47
484.684	46
485.153	49
485.622	45
486.092	49
486.561	44
487.031	51
487.5	50
487.97	50
488.439	47
488.909	49
489.378	56
489.848	57
490.318	53
490.787	60
491.257	61
491.727	61
492.197	61
492.667	64
493.137	73
493.607	67
494.077	61
494.547	64
495.017	54
495.487	64
495.957	70
496.427	61
496.897	66
497.368	64
497.838	62
498.308	63
498.779	70
499.249	73
499.719	65
500.19	63
500.66	74
501.131	71
501.602	70
502.072	68
502.543	61
503.014	71
503.484	75
503.955	76
504.426	80
504.897	76
505.368	79
505.838	83
506.309	87
506.78	91
507.251	82
507.722	94
508.194	91
508.665	92
509.136	92
509.607	98
510.078	95
510.549	103
511.021	102
511.492	103
511.964	103
512.435	102
512.906	104
513.378	107
513.849	106
514.321	107
514.793	104
515.264	107
515.736	111
516.208	114
516.679	111
517.151	119
517.623	116
518.095	125
518.567	121
519.038	119
519.51	125
519.982	126
520.454	122
520.927	124
521.399	128
521.871	129
522.343	130
522.815	133
523.287	129
523.76	132
524.232	133
524.704	136
525.177	131
525.649	136
526.122	138
526.594	136
527.067	138
527.539	136
528.012	143
528.484	140
528.957	138
529.43	141
529.903	137
530.375	146
530.848	135
531.321	144
531.794	141
532.267	145
532.74	145
533.213	144
533.686	152
534.159	141
534.632	148
535.105	148
535.578	148
536.051	156
536.525	156
536.998	156
537.471	157
537.945	158
538.418	162
538.891	158
539.365	160
539.838	161
540.312	169
540.786	168
541.259	159
541.733	169
542.206	166
542.68	162
543.154	166
543.628	159
544.101	172
544.575	165
545.049	164
545.523	175
545.997	166
546.471	172
546.945	168
547.419	175
547.893	167
548.367	167
548.842	165
549.316	167
549.79	167
550.264	167
550.739	172
551.213	169
551.687	172
552.162	171
552.636	171
553.111	176
553.585	178
554.06	176
554.534	173
555.009	169
555.484	176
555.958	184
556.433	183
556.908	184
557.383	181
557.858	187
558.333	191
558.807	186
559.282	186
559.757	192
560.232	194
560.708	187
561.183	192
561.658	190
562.133	195
562.608	192
563.083	201
563.559	190
564.034	194
564.509	195
564.985	194
565.46	194
565.936	193
566.411	201
566.887	190
567.362	198
567.838	195
568.313	201
568.789	195
569.265	198
569.74	205
570.216	203
570.692	200
571.168	194
571.644	205
572.12	205
572.596	206
573.071	202
573.547	208
574.024	207
574.5	213
574.976	206
575.452	213
575.928	221
576.404	222
576.881	228
577.357	223
577.833	222
578.31	230
578.786	236
579.262	243
579.739	233
580.215	241
580.692	245
581.169	243
581.645	240
582.122	246
582.598	247
583.075	252
583.552	249
584.029	251
584.506	246
584.982	253
585.459	255
585.936	255
586.413	255
586.89	259
587.367	256
587.844	261
588.321	258
588.799	256
589.276	252
589.753	263
590.23	265
590.707	265
591.185	267
591.662	262
592.139	269
592.617	268
593.094	268
593.572	273
594.049	271
594.527	285
595.004	275
595.482	282
595.96	284
596.437	284
596.915	291
597.393	282
597.871	289
598.349	286
598.826	297
599.304	304
599.782	310
600.26	295
600.738	304
601.216	306
601.694	311
602.173	314
602.651	310
603.129	311
603.607	312
604.085	317
604.564	314
605.042	320
605.52	312
605.999	322
606.477	319
606.956	320
607.434	320
607.913	320
608.391	321
608.87	322
609.348	319
609.827	317
610.306	323
610.785	323
611.263	324
611.742	325
612.221	321
612.7	319
613.179	320
613.658	321
614.137	336
614.616	329
615.095	322
615.574	321
616.053	328
616.532	329
617.011	333
617.491	326
617.97	333
618.449	330
618.928	340
619.408	342
619.887	339
620.367	346
620.846	345
621.326	349
621.805	346
622.285	341
622.764	352
623.244	358
623.724	357
624.203	361
624.683	351
625.163	360
625.643	362
626.123	361
626.602	369
627.082	358
627.562	356
628.042	370
628.522	367
629.002	364
629.482	368
629.963	362
630.443	363
630.923	367
631.403	366
631.883	365
632.364	366
632.844	369
633.324	365
633.805	368
634.285	366
634.766	374
635.246	369
635.727	368
636.207	367
636.688	366
637.168	370
637.649	361
638.13	361
638.611	361
639.091	369
639.572	370
640.053	363
640.534	366
641.015	368
641.496	361
641.977	364
642.458	360
642.939	363
643.42	367
643.901	370
644.382	368
644.863	374
645.345	370
645.826	375
646.307	373
646.788	379
647.27	365
647.751	378
648.233	376
648.714	368
649.196	377
649.677	369
650.159	383
650.64	380
651.122	384
651.603	378
652.085	380
652.567	385
653.049	376
653.53	377
654.012	384
654.494	373
654.976	376
655.458	381
655.94	379
656.422	384
656.904	383
657.386	372
657.868	377
658.35	374
658.833	385
659.315	379
659.797	375
660.279	379
660.762	384
661.244	380
661.726	375
662.209	374
662.691	375
663.174	373
663.656	375
664.139	366
664.621	370
665.104	372
665.587	374
666.069	370
666.552	371
667.035	367
667.517	369
668	369
668.483	374
668.966	370
669.449	363
669.932	370
670.415	372
670.898	370
671.381	370
671.864	372
672.347	373
672.83	368
673.313	378
673.797	373
674.28	381
674.763	380
675.247	377
675.73	380
676.213	381
676.697	392
677.18	387
677.664	390
678.147	390
678.631	392
679.114	388
679.598	388
680.082	394
680.565	395
681.049	393
681.533	394
682.017	396
682.5	401
682.984	403
683.468	405
683.952	390
684.436	393
684.92	398
685.404	398
685.888	403
686.372	407
686.856	405
687.341	405
687.825	402
688.309	405
688.793	399
689.278	404
689.762	401
690.246	403
690.731	394
691.215	403
691.7	394
692.184	397
692.669	396
693.153	400
693.638	393
694.122	396
694.607	396
695.092	397
695.577	397
696.061	394
696.546	394
697.031	394
697.516	396
698.001	395
698.486	394
698.971	401
699.456	385
699.941	391
700.426	396
700.911	395
701.396	389
701.881	389
702.366	389
702.852	392
703.337	394
703.822	393
704.308	385
704.793	390
705.278	394
705.764	388
706.249	391
706.735	397
707.22	401
707.706	393
708.191	397
708.677	398
709.163	396
709.648	406
710.134	406
710.62	396
711.106	399
711.592	399
712.077	396
712.563	395
713.049	387
713.535	404
714.021	405
714.507	394
714.993	394
715.479	398
715.966	387
716.452	392
716.938	397
717.424	385
717.91	392
718.397	390
718.883	389
719.369	388
719.856	387
720.342	390
720.829	379
721.315	388
721.802	381
722.288	389
722.775	376
723.262	372
723.748	382
724.235	382
724.722	379
725.208	376
725.695	382
726.182	380
726.669	374
727.156	376
727.643	369
728.13	371
728.617	371
729.104	368
729.591	367
730.078	370
730.565	368
731.052	371
731.539	370
732.027	370
732.514	360
733.001	365
733.488	361
733.976	364
734.463	366
734.951	368
735.438	361
735.926	355
736.413	367
736.901	353
737.388	362
737.876	361
738.364	361
738.851	357
739.339	357
739.827	360
740.314	356
740.802	355
741.29	362
741.778	350
742.266	358
742.754	352
743.242	359
743.73	354
744.218	358
744.706	349
745.194	352
745.682	354
746.17	358
746.659	359
747.147	348
747.635	346
748.123	347
748.612	347
749.1	341
749.589	348
750.077	348
750.566	338
751.054	340
751.543	348
752.031	342
752.52	341
753.008	333
753.497	329
753.986	333
754.474	333
754.963	335
755.452	325
755.941	324
756.43	326
756.919	329
757.408	322
757.896	328
758.385	333
758.875	323
759.364	321
759.853	310
760.342	314
760.831	325
761.32	318
761.809	319
762.299	311
762.788	313
763.277	320
763.767	310
764.256	308
764.745	301
765.235	308
765.724	296
766.214	305
766.703	301
767.193	305
767.683	306
768.172	300
768.662	301
769.152	300
769.641	304
770.131	297
770.621	290
771.111	286
771.601	294
772.09	291
772.58	284
773.07	284
773.56	289
774.05	283
774.54	286
775.031	281
775.521	280
776.011	285
776.501	281
776.991	279
777.482	282
777.972	272
778.462	271
778.953	285
779.443	279
779.933	279
780.424	269
780.914	273
781.405	276
781.895	270
782.386	274
782.877	265
783.367	264
783.858	262
784.349	266
784.839	259
785.33	264
785.821	264
786.312	263
786.803	258
787.293	258
787.784	259
788.275	253
788.766	251
789.257	260
789.748	249
790.24	250
790.731	251
791.222	252
791.713	247
792.204	249
792.696	248
793.187	249
793.678	241
794.169	242
794.661	243
795.152	244
795.644	237
796.135	243
796.627	245
797.118	236
797.61	239
798.101	233
798.593	239
799.085	236
799.576	234
800.068	233
800.56	231
801.052	228
801.544	227
802.035	229
802.527	222
803.019	221
803.511	224
804.003	219
804.495	223
804.987	214
805.479	214
805.971	217
806.464	218
806.956	212
807.448	206
807.94	206
808.433	214
808.925	208
809.417	209
809.91	212
810.402	205
810.894	209
811.387	203
811.879	209
812.372	202
812.865	206
813.357	197
813.85	202
814.342	201
814.835	200
815.328	198
815.821	203
816.313	198
816.806	202
817.299	202
817.792	202
818.285	194
818.778	202
819.271	208
819.764	195
820.257	196
820.75	195
821.243	196
821.736	195
822.229	198
822.722	194
823.216	196
