Data from lamp2bck_Subt4__2__157.txt Node

Date: Fri Apr 04 10:40:29 CEST 2025
User: fys-lab-0081
Spectrometer: S04999
Trigger mode: 0
Resolution mode: 1024 pixels
Integration Time (sec): 1.000000E-1
Scans to average: 1
Nonlinearity correction enabled: false
Boxcar width: 0
Baseline correction enabled: true
XAxis mode: Wavelengths
Number of Pixels in Spectrum: 1024
>>>>>Begin Spectral Data<<<<<
336.42	-3
336.877	-3
337.334	0
337.792	6
338.249	-3
338.706	5
339.164	6
339.621	-2
340.079	3
340.536	0
340.994	1
341.452	3
341.909	2
342.367	4
342.825	6
343.283	1
343.741	2
344.198	-5
344.656	0
345.114	3
345.572	-6
346.03	-5
346.488	0
346.947	-2
347.405	2
347.863	2
348.321	-1
348.779	3
349.238	0
349.696	3
350.154	-2
350.613	2
351.071	2
351.53	-2
351.988	-2
352.447	-3
352.905	-3
353.364	-1
353.823	5
354.282	0
354.74	-2
355.199	1
355.658	0
356.117	0
356.576	-4
357.035	-2
357.494	0
357.953	-3
358.412	-1
358.871	5
359.33	1
359.789	-3
360.249	1
360.708	6
361.167	0
361.626	3
362.086	1
362.545	0
363.005	-2
363.464	4
363.924	2
364.383	-1
364.843	2
365.303	-2
365.762	-2
366.222	2
366.682	2
367.142	4
367.601	3
368.061	1
368.521	3
368.981	3
369.441	5
369.901	-3
370.361	1
370.821	7
371.282	-2
371.742	-2
372.202	1
372.662	5
373.123	2
373.583	-2
374.043	2
374.504	-4
374.964	2
375.425	-2
375.885	5
376.346	7
376.806	-2
377.267	2
377.728	-7
378.188	5
378.649	4
379.11	0
379.571	-6
380.032	1
380.493	4
380.954	7
381.414	0
381.876	1
382.337	4
382.798	1
383.259	6
383.72	2
384.181	6
384.642	0
385.104	-2
385.565	2
386.026	-1
386.488	5
386.949	3
387.411	5
387.872	5
388.334	4
388.795	-1
389.257	3
389.719	2
390.181	5
390.642	4
391.104	7
391.566	2
392.028	2
392.49	-2
392.952	6
393.414	-1
393.876	-1
394.338	5
394.8	-1
395.262	1
395.724	2
396.186	3
396.648	6
397.111	4
397.573	1
398.035	0
398.498	3
398.96	6
399.423	1
399.885	0
400.348	2
400.81	-2
401.273	5
401.736	1
402.198	3
402.661	6
403.124	3
403.587	6
404.049	6
404.512	6
404.975	7
405.438	7
405.901	0
406.364	1
406.827	9
407.29	4
407.754	5
408.217	3
408.68	4
409.143	8
409.607	7
410.07	-2
410.533	3
410.997	5
411.46	6
411.924	2
412.387	1
412.851	3
413.314	9
413.778	7
414.242	7
414.705	6
415.169	2
415.633	3
416.097	8
416.561	4
417.024	4
417.488	4
417.952	7
418.416	3
418.88	7
419.344	5
419.809	3
420.273	9
420.737	6
421.201	8
421.665	4
422.13	3
422.594	4
423.059	3
423.523	1
423.987	6
424.452	7
424.916	7
425.381	3
425.846	6
426.31	3
426.775	5
427.24	7
427.704	2
428.169	10
428.634	11
429.099	5
429.564	6
430.029	10
430.494	10
430.959	9
431.424	9
431.889	10
432.354	6
432.819	9
433.284	11
433.75	9
434.215	6
434.68	9
435.146	9
435.611	14
436.077	11
436.542	15
437.008	12
437.473	6
437.939	8
438.404	13
438.87	12
439.336	12
439.801	9
440.267	9
440.733	10
441.199	8
441.665	11
442.131	11
442.596	12
443.062	11
443.529	10
443.995	10
444.461	13
444.927	14
445.393	8
445.859	19
446.325	12
446.792	17
447.258	16
447.724	16
448.191	17
448.657	13
449.124	15
449.59	15
450.057	15
450.523	18
450.99	15
451.457	19
451.923	19
452.39	15
452.857	21
453.324	22
453.791	21
454.257	26
454.724	21
455.191	12
455.658	17
456.125	20
456.592	18
457.059	17
457.527	17
457.994	19
458.461	18
458.928	17
459.396	24
459.863	19
460.33	20
460.798	17
461.265	21
461.732	21
462.2	25
462.668	20
463.135	19
463.603	20
464.07	30
464.538	23
465.006	26
465.474	14
465.941	23
466.409	25
466.877	18
467.345	25
467.813	21
468.281	21
468.749	23
469.217	22
469.685	26
470.153	21
470.621	28
471.09	27
471.558	26
472.026	26
472.494	22
472.963	26
473.431	27
473.9	28
474.368	30
474.837	31
475.305	26
475.774	32
476.242	33
476.711	34
477.18	33
477.648	30
478.117	33
478.586	28
479.055	33
479.524	30
479.993	29
480.462	37
480.93	35
481.399	29
481.869	34
482.338	30
482.807	33
483.276	34
483.745	38
484.214	33
484.684	33
485.153	32
485.622	37
486.092	35
486.561	37
487.031	37
487.5	34
487.97	36
488.439	32
488.909	40
489.378	41
489.848	44
490.318	36
490.787	42
491.257	45
491.727	43
492.197	46
492.667	47
493.137	49
493.607	53
494.077	45
494.547	50
495.017	45
495.487	50
495.957	50
496.427	48
496.897	48
497.368	50
497.838	45
498.308	47
498.779	55
499.249	54
499.719	48
500.19	46
500.66	53
501.131	55
501.602	55
502.072	52
502.543	54
503.014	52
503.484	58
503.955	56
504.426	59
504.897	60
505.368	59
505.838	60
506.309	67
506.78	66
507.251	59
507.722	67
508.194	69
508.665	65
509.136	72
509.607	76
510.078	73
510.549	80
511.021	79
511.492	75
511.964	74
512.435	75
512.906	77
513.378	81
513.849	84
514.321	83
514.793	75
515.264	80
515.736	81
516.208	85
516.679	88
517.151	88
517.623	88
518.095	94
518.567	94
519.038	87
519.51	91
519.982	95
520.454	98
520.927	93
521.399	98
521.871	95
522.343	95
522.815	100
523.287	95
523.76	100
524.232	105
524.704	95
525.177	104
525.649	100
526.122	101
526.594	105
527.067	104
527.539	106
528.012	104
528.484	112
528.957	106
529.43	105
529.903	108
530.375	110
530.848	104
531.321	110
531.794	108
532.267	112
532.74	108
533.213	109
533.686	119
534.159	109
534.632	114
535.105	117
535.578	118
536.051	120
536.525	121
536.998	117
537.471	119
537.945	118
538.418	121
538.891	119
539.365	121
539.838	124
540.312	125
540.786	129
541.259	123
541.733	130
542.206	128
542.68	128
543.154	123
543.628	122
544.101	139
544.575	130
545.049	121
545.523	130
545.997	127
546.471	134
546.945	130
547.419	133
547.893	126
548.367	132
548.842	131
549.316	131
549.79	130
550.264	130
550.739	134
551.213	130
551.687	130
552.162	131
552.636	130
553.111	138
553.585	138
554.06	135
554.534	136
555.009	138
555.484	138
555.958	142
556.433	138
556.908	148
557.383	140
557.858	145
558.333	147
558.807	143
559.282	143
559.757	149
560.232	151
560.708	145
561.183	151
561.658	154
562.133	152
562.608	149
563.083	156
563.559	151
564.034	152
564.509	150
564.985	155
565.46	150
565.936	152
566.411	155
566.887	154
567.362	156
567.838	149
568.313	153
568.789	153
569.265	156
569.74	152
570.216	157
570.692	156
571.168	151
571.644	160
572.12	156
572.596	159
573.071	157
573.547	161
574.024	165
574.5	165
574.976	163
575.452	167
575.928	172
576.404	178
576.881	180
577.357	173
577.833	173
578.31	184
578.786	189
579.262	193
579.739	181
580.215	194
580.692	193
581.169	191
581.645	194
582.122	194
582.598	193
583.075	195
583.552	194
584.029	198
584.506	197
584.982	198
585.459	203
585.936	198
586.413	206
586.89	207
587.367	200
587.844	213
588.321	211
588.799	200
589.276	201
589.753	205
590.23	212
590.707	214
591.185	210
591.662	206
592.139	210
592.617	214
593.094	213
593.572	220
594.049	218
594.527	226
595.004	219
595.482	224
595.96	224
596.437	222
596.915	231
597.393	227
597.871	231
598.349	228
598.826	236
599.304	242
599.782	240
600.26	234
600.738	246
601.216	245
601.694	245
602.173	249
602.651	248
603.129	248
603.607	248
604.085	253
604.564	254
605.042	254
605.52	249
605.999	258
606.477	256
606.956	251
607.434	254.5
607.913	258
608.391	257
608.87	263
609.348	256
609.827	259
610.306	262
610.785	259
611.263	261
611.742	261
612.221	258
612.7	257
613.179	261
613.658	256
614.137	268
614.616	268
615.095	262
615.574	264
616.053	267
616.532	266
617.011	274
617.491	267
617.97	267
618.449	265
618.928	273
619.408	278
619.887	273
620.367	278
620.846	279
621.326	278
621.805	276
622.285	277
622.764	289
623.244	290
623.724	294
624.203	290
624.683	286
625.163	289
625.643	290
626.123	292
626.602	294
627.082	293
627.562	290
628.042	299
628.522	292
629.002	295
629.482	301
629.963	301
630.443	294
630.923	294
631.403	292
631.883	296
632.364	304
632.844	294
633.324	299
633.805	300
634.285	299
634.766	300
635.246	297
635.727	301
636.207	300
636.688	294
637.168	296
637.649	293
638.13	293
638.611	299
639.091	298
639.572	295
640.053	298
640.534	301
641.015	300
641.496	294
641.977	293
642.458	291
642.939	296
643.42	300
643.901	295
644.382	303
644.863	302
645.345	303
645.826	299
646.307	305
646.788	305
647.27	301
647.751	309
648.233	310
648.714	301
649.196	309
649.677	304
650.159	312
650.64	307
651.122	315
651.603	308
652.085	314
652.567	308
653.049	304
653.53	311
654.012	318
654.494	308
654.976	311
655.458	310
655.94	312
656.422	317
656.904	315
657.386	310
657.868	310
658.35	308
658.833	318
659.315	311
659.797	301
660.279	308
660.762	316
661.244	314
661.726	308
662.209	303
662.691	308
663.174	299
663.656	303
664.139	307
664.621	309
665.104	304
665.587	310
666.069	305
666.552	305
667.035	305
667.517	305
668	304
668.483	313
668.966	303
669.449	301
669.932	304
670.415	311
670.898	307
671.381	306
671.864	305
672.347	308
672.83	304
673.313	309
673.797	305
674.28	314
674.763	313
675.247	311
675.73	310
676.213	311
676.697	323
677.18	317
677.664	316
678.147	323
678.631	323
679.114	328
679.598	325
680.082	326
680.565	325
681.049	324
681.533	321
682.017	327
682.5	330
682.984	335
683.468	327
683.952	329
684.436	326
684.92	326
685.404	329
685.888	329
686.372	332
686.856	333
687.341	336
687.825	331
688.309	334
688.793	334
689.278	332
689.762	326
690.246	330
690.731	332
691.215	336
691.7	323
692.184	324
692.669	329
693.153	330
693.638	326
694.122	325
694.607	326
695.092	329
695.577	333
696.061	325
696.546	324
697.031	324
697.516	331
698.001	333
698.486	328
698.971	332
699.456	325
699.941	321
700.426	331
700.911	333
701.396	321
701.881	325
702.366	323
702.852	325
703.337	331
703.822	325
704.308	323
704.793	323
705.278	328
705.764	327
706.249	324
706.735	329
707.22	334
707.706	329
708.191	332
708.677	333
709.163	332
709.648	336
710.134	336
710.62	331
711.106	330
711.592	335
712.077	334
712.563	328
713.049	328
713.535	330
714.021	335
714.507	328
714.993	328
715.479	332
715.966	330
716.452	322
716.938	330
717.424	324
717.91	328
718.397	322
718.883	322
719.369	322
719.856	322
720.342	326
720.829	314
721.315	321
721.802	318
722.288	326
722.775	314
723.262	311
723.748	323
724.235	324
724.722	328
725.208	313
725.695	323
726.182	316
726.669	315
727.156	316
727.643	312
728.13	308
728.617	312
729.104	307
729.591	306
730.078	313
730.565	308
731.052	307
731.539	307
732.027	308
732.514	301
733.001	300
733.488	306
733.976	303
734.463	307
734.951	309
735.438	310
735.926	302
736.413	310
736.901	302
737.388	308
737.876	305
738.364	304
738.851	302
739.339	301
739.827	301
740.314	299
740.802	298
741.29	305
741.778	299
742.266	304
742.754	300
743.242	301
743.73	298
744.218	301
744.706	293
745.194	301
745.682	294
746.17	302
746.659	300
747.147	296
747.635	294
748.123	300
748.612	294
749.1	291
749.589	293
750.077	292
750.566	290
751.054	291
751.543	292
752.031	286
752.52	291
753.008	285
753.497	279
753.986	284
754.474	284
754.963	288
755.452	287
755.941	284
756.43	275
756.919	280
757.408	276
757.896	280
758.385	279
758.875	271
759.364	269
759.853	268
760.342	267
760.831	270
761.32	267
761.809	269
762.299	266
762.788	267
763.277	270
763.767	269
764.256	260
764.745	257
765.235	266
765.724	255
766.214	264
766.703	257
767.193	260
767.683	258
768.172	256
768.662	255
769.152	258
769.641	257
770.131	255
770.621	249
771.111	244
771.601	249
772.09	250
772.58	248
773.07	242
773.56	257
774.05	242
774.54	241
775.031	242
775.521	247
776.011	245
776.501	245
776.991	240
777.482	245
777.972	234
778.462	238
778.953	246
779.443	232
779.933	237
780.424	233
780.914	234
781.405	238
781.895	232
782.386	233
782.877	231
783.367	227
783.858	228
784.349	228
784.839	224
785.33	227
785.821	229
786.312	226
786.803	227
787.293	224
787.784	222
788.275	215
788.766	219
789.257	226
789.748	218
790.24	215
790.731	219
791.222	218
791.713	212
792.204	215
792.696	214
793.187	213
793.678	204
794.169	206
794.661	210
795.152	211
795.644	208
796.135	212
796.627	209
797.118	202
797.61	202
798.101	201
798.593	205
799.085	204
799.576	199
800.068	200
800.56	195
801.052	198
801.544	190
802.035	193
802.527	189
803.019	194
803.511	190
804.003	184
804.495	188
804.987	189
805.479	185
805.971	185
806.464	191
806.956	177
807.448	181
807.94	180
808.433	181
808.925	184
809.417	184
809.91	182
810.402	176
810.894	180
811.387	178
811.879	179
812.372	177
812.865	176
813.357	167
813.85	175
814.342	170
814.835	177
815.328	174
815.821	172
816.313	174
816.806	172
817.299	177
817.792	175
818.285	175
818.778	179
819.271	173
819.764	171
820.257	169
820.75	172
821.243	170
821.736	169
822.229	170
822.722	165
823.216	172
