Data from lamp1helium_zwak_Subt4__3__96.txt Node

Date: Fri Apr 04 10:09:12 CEST 2025
User: fys-lab-0081
Spectrometer: S04999
Trigger mode: 0
Resolution mode: 1024 pixels
Integration Time (sec): 1.000000E-1
Scans to average: 1
Nonlinearity correction enabled: false
Boxcar width: 0
Baseline correction enabled: true
XAxis mode: Wavelengths
Number of Pixels in Spectrum: 1024
>>>>>Begin Spectral Data<<<<<
336.42	3
336.877	3
337.334	5
337.792	9
338.249	8
338.706	7
339.164	9
339.621	3
340.079	11
340.536	7
340.994	9
341.452	7
341.909	13
342.367	10
342.825	14
343.283	13
343.741	10
344.198	4
344.656	7
345.114	12
345.572	8
346.03	13
346.488	9
346.947	10
347.405	11
347.863	13
348.321	15
348.779	15
349.238	14
349.696	17
350.154	15
350.613	18
351.071	15
351.53	16
351.988	19
352.447	18
352.905	20
353.364	21
353.823	26
354.282	17
354.74	24
355.199	25
355.658	22
356.117	26
356.576	19
357.035	23
357.494	22
357.953	24
358.412	24
358.871	32
359.33	34
359.789	28
360.249	31
360.708	34
361.167	32
361.626	39
362.086	36
362.545	34
363.005	33
363.464	41
363.924	42
364.383	43
364.843	42
365.303	40
365.762	52
366.222	48
366.682	47
367.142	45
367.601	51
368.061	52
368.521	56
368.981	53
369.441	55
369.901	51
370.361	57
370.821	59
371.282	50
371.742	51
372.202	58
372.662	63
373.123	63
373.583	61
374.043	67
374.504	66
374.964	68
375.425	71
375.885	74
376.346	72
376.806	74
377.267	81
377.728	71
378.188	80
378.649	79
379.11	82
379.571	80
380.032	84
380.493	88
380.954	92
381.414	90
381.876	99
382.337	101
382.798	100
383.259	103
383.72	107
384.181	114
384.642	113
385.104	119
385.565	117
386.026	130
386.488	136
386.949	137
387.411	141
387.872	144
388.334	142
388.795	142
389.257	149
389.719	151
390.181	158
390.642	160
391.104	163
391.566	167
392.028	173
392.49	175
392.952	175
393.414	184
393.876	188
394.338	192
394.8	195
395.262	198
395.724	207
396.186	205
396.648	213
397.111	208
397.573	213
398.035	212
398.498	222
398.96	222
399.423	220
399.885	227
400.348	230
400.81	240
401.273	237
401.736	237
402.198	257
402.661	263
403.124	267
403.587	273
404.049	280
404.512	287
404.975	295
405.438	289
405.901	288
406.364	287
406.827	301
407.29	290
407.754	297
408.217	290
408.68	300
409.143	297
409.607	296
410.07	300
410.533	305
410.997	312
411.46	315
411.924	313
412.387	317
412.851	335
413.314	346
413.778	340
414.242	348
414.705	370
415.169	355
415.633	361
416.097	366
416.561	367
417.024	378
417.488	364
417.952	372
418.416	359
418.88	378
419.344	368
419.809	371
420.273	383
420.737	369
421.201	381
421.665	387
422.13	388
422.594	399
423.059	405
423.523	403
423.987	413
424.452	430
424.916	434
425.381	447
425.846	456
426.31	456
426.775	460
427.24	472
427.704	467
428.169	469
428.634	474
429.099	465
429.564	465
430.029	477
430.494	472
430.959	471
431.424	466
431.889	480
432.354	482
432.819	478
433.284	495
433.75	497
434.215	516
434.68	522
435.146	528
435.611	556
436.077	568
436.542	585
437.008	594
437.473	602
437.939	607
438.404	623
438.87	623
439.336	614
439.801	614
440.267	627
440.733	635
441.199	638
441.665	642
442.131	654
442.596	636
443.062	663
443.529	679
443.995	686
444.461	699
444.927	725
445.393	725
445.859	763
446.325	769
446.792	815
447.258	810
447.724	833
448.191	870
448.657	875
449.124	904
449.59	894
450.057	939
450.523	952
450.99	977
451.457	966
451.923	987
452.39	970
452.857	989
453.324	986
453.791	995
454.257	1003
454.724	1004
455.191	1000
455.658	995
456.125	1036
456.592	1009
457.059	1036
457.527	1038
457.994	1075
458.461	1071
458.928	1098
459.396	1093
459.863	1126
460.33	1125
460.798	1133
461.265	1145
461.732	1135
462.2	1164
462.668	1154
463.135	1173
463.603	1141
464.07	1176
464.538	1141
465.006	1173
465.474	1146
465.941	1151
466.409	1165
466.877	1129
467.345	1166
467.813	1145
468.281	1155
468.749	1159
469.217	1162
469.685	1169
470.153	1187
470.621	1184
471.09	1188
471.558	1237
472.026	1226
472.494	1268
472.963	1273
473.431	1312
473.9	1335
474.368	1370
474.837	1394
475.305	1413
475.774	1450
476.242	1478
476.711	1486
477.18	1524
477.648	1506
478.117	1534
478.586	1510
479.055	1505
479.524	1516
479.993	1515
480.462	1507
480.93	1521
481.399	1519
481.869	1524
482.338	1501
482.807	1518
483.276	1511
483.745	1514
484.214	1544
484.684	1552
485.153	1545
485.622	1556
486.092	1597
486.561	1567
487.031	1611
487.5	1652
487.97	1643
488.439	1681
488.909	1727
489.378	1785
489.848	1781
490.318	1819
490.787	1888
491.257	1935
491.727	1949
492.197	1990
492.667	1990
493.137	2017
493.607	2027
494.077	2047
494.547	2021
495.017	2011
495.487	2053
495.957	2094
496.427	2040
496.897	2047
497.368	2066
497.838	2048
498.308	2062
498.779	2071
499.249	2089
499.719	2101
500.19	2115
500.66	2128
501.131	2139
501.602	2176
502.072	2172
502.543	2192
503.014	2256
503.484	2245
503.955	2314
504.426	2376
504.897	2388
505.368	2428
505.838	2458
506.309	2524
506.78	2594
507.251	2634
507.722	2684
508.194	2750
508.665	2781
509.136	2775
509.607	2866
510.078	2911
510.549	2935
511.021	3006
511.492	3003
511.964	3032
512.435	3077
512.906	3058
513.378	3089
513.849	3129
514.321	3124
514.793	3164
515.264	3179
515.736	3213
516.208	3262
516.679	3275
517.151	3321
517.623	3336
518.095	3384
518.567	3407
519.038	3466
519.51	3459
519.982	3510
520.454	3558
520.927	3579
521.399	3605
521.871	3644
522.343	3654
522.815	3713
523.287	3708
523.76	3736
524.232	3787
524.704	3815
525.177	3760
525.649	3787
526.122	3831
526.594	3748
527.067	3841
527.539	3863
528.012	3811
528.484	3810
528.957	3829
529.43	3823
529.903	3814
530.375	3936
530.848	3832
531.321	3882
531.794	3861
532.267	3933
532.74	3861
533.213	3865
533.686	3922
534.159	3884
534.632	3968
535.105	3951
535.578	4023
536.051	4024
536.525	4053
536.998	4045
537.471	4129
537.945	4068
538.418	4119
538.891	4147
539.365	4192
539.838	4211
540.312	4219
540.786	4244
541.259	4222
541.733	4290
542.206	4292
542.68	4219
543.154	4215
543.628	4209
544.101	4319
544.575	4295
545.049	4182
545.523	4266
545.997	4230
546.471	4261
546.945	4216
547.419	4278
547.893	4105
548.367	4178
548.842	4138
549.316	4150
549.79	4185
550.264	4144
550.739	4182
551.213	4166
551.687	4171
552.162	4212
552.636	4159
553.111	4140
553.585	4235
554.06	4170
554.534	4262
555.009	4214
555.484	4281
555.958	4330
556.433	4351
556.908	4396
557.383	4332
557.858	4457
558.333	4491
558.807	4431
559.282	4468
559.757	4585
560.232	4615
560.708	4515
561.183	4498
561.658	4550
562.133	4569
562.608	4524
563.083	4626
563.559	4516
564.034	4550
564.509	4561
564.985	4577
565.46	4514
565.936	4572
566.411	4583
566.887	4508
567.362	4525
567.838	4510
568.313	4580
568.789	4539
569.265	4517
569.74	4513
570.216	4478
570.692	4555
571.168	4539
571.644	4544
572.12	4534
572.596	4570
573.071	4549
573.547	4637
574.024	4685
574.5	4700
574.976	4721
575.452	4788
575.928	4799
576.404	4804
576.881	4969
577.357	4880
577.833	4900
578.31	5010
578.786	5094
579.262	5186
579.739	5120
580.215	5258
580.692	5250
581.169	5221
581.645	5231
582.122	5382
582.598	5316
583.075	5323
583.552	5406
584.029	5411
584.506	5386
584.982	5324
585.459	5442
585.936	5382
586.413	5439
586.89	5487
587.367	5408
587.844	5491
588.321	5468
588.799	5486
589.276	5410
589.753	5480
590.23	5526
590.707	5508
591.185	5481
591.662	5444
592.139	5515
592.617	5604
593.094	5603
593.572	5622
594.049	5654
594.527	5689
595.004	5694
595.482	5847
595.96	5791
596.437	5782
596.915	5925
597.393	5864
597.871	6010
598.349	5901
598.826	6014
599.304	6043
599.782	6168
600.26	6067
600.738	6183
601.216	6139
601.694	6219
602.173	6262
602.651	6306
603.129	6214
603.607	6246
604.085	6299
604.564	6301
605.042	6307
605.52	6247
605.999	6391
606.477	6260
606.956	6289
607.434	6311.5
607.913	6334
608.391	6322
608.87	6331
609.348	6259
609.827	6279
610.306	6290
610.785	6272
611.263	6300
611.742	6286
612.221	6211
612.7	6264
613.179	6288
613.658	6204
614.137	6319
614.616	6371
615.095	6229
615.574	6279
616.053	6304
616.532	6263
617.011	6338
617.491	6329
617.97	6289
618.449	6348
618.928	6429
619.408	6394
619.887	6419
620.367	6399
620.846	6418
621.326	6416
621.805	6552
622.285	6538
622.764	6598
623.244	6588
623.724	6633
624.203	6669
624.683	6540
625.163	6656
625.643	6625
626.123	6584
626.602	6759
627.082	6602
627.562	6601
628.042	6748
628.522	6672
629.002	6652
629.482	6723
629.963	6711
630.443	6627
630.923	6656
631.403	6696
631.883	6680
632.364	6711
632.844	6642
633.324	6639
633.805	6637
634.285	6582
634.766	6530
635.246	6535
635.727	6557
636.207	6566
636.688	6557
637.168	6565
637.649	6505
638.13	6457
638.611	6470
639.091	6469
639.572	6464
640.053	6426
640.534	6488
641.015	6444
641.496	6310
641.977	6407
642.458	6341
642.939	6341
643.42	6358
643.901	6370
644.382	6396
644.863	6392
645.345	6416
645.826	6413
646.307	6405
646.788	6474
647.27	6335
647.751	6401
648.233	6484
648.714	6355
649.196	6510
649.677	6454
650.159	6450
650.64	6392
651.122	6523
651.603	6433
652.085	6496
652.567	6480
653.049	6402
653.53	6405
654.012	6507
654.494	6379
654.976	6420
655.458	6380
655.94	6357
656.422	6464
656.904	6404
657.386	6326
657.868	6291
658.35	6255
658.833	6319
659.315	6348
659.797	6264
660.279	6259
660.762	6307
661.244	6254
661.726	6175
662.209	6177
662.691	6175
663.174	6042
663.656	6064
664.139	6065
664.621	6022
665.104	5966
665.587	6022
666.069	6022
666.552	6001
667.035	5946
667.517	5958
668	6011
668.483	6003
668.966	5949
669.449	5892
669.932	5895
670.415	5980
670.898	5935
671.381	5958
671.864	5966
672.347	5918
672.83	5936
673.313	5957
673.797	5953
674.28	6054
674.763	6043
675.247	6011
675.73	6005
676.213	6064
676.697	6128
677.18	6128
677.664	6126
678.147	6087
678.631	6085
679.114	6102
679.598	6082
680.082	6113
680.565	6107
681.049	6085
681.533	6072
682.017	6146
682.5	6148
682.984	6197
683.468	6185
683.952	6072
684.436	6161
684.92	6066
685.404	6092
685.888	6141
686.372	6096
686.856	6093
687.341	6146
687.825	6075
688.309	6126
688.793	6131
689.278	6069
689.762	6138
690.246	6091
690.731	6081
691.215	6105
691.7	5946
692.184	6033
692.669	6038
693.153	6061
693.638	5925
694.122	5904
694.607	5957
695.092	5889
695.577	5971
696.061	5882
696.546	5858
697.031	5818
697.516	5869
698.001	5875
698.486	5829
698.971	5883
699.456	5760
699.941	5764
700.426	5736
700.911	5788
701.396	5761
701.881	5803
702.366	5787
702.852	5768
703.337	5796
703.822	5784
704.308	5764
704.793	5777
705.278	5770
705.764	5784
706.249	5746
706.735	5749
707.22	5787
707.706	5696
708.191	5799
708.677	5785
709.163	5757
709.648	5782
710.134	5817
710.62	5727
711.106	5691
711.592	5765
712.077	5758
712.563	5634
713.049	5637
713.535	5731
714.021	5690
714.507	5662
714.993	5611
715.479	5691
715.966	5622
716.452	5663
716.938	5664
717.424	5492
717.91	5606
718.397	5554
718.883	5537
719.369	5534
719.856	5466
720.342	5530
720.829	5458
721.315	5493
721.802	5478
722.288	5542
722.775	5360
723.262	5201
723.748	5404
724.235	5339
724.722	5415
725.208	5310
725.695	5344
726.182	5329
726.669	5248
727.156	5247
727.643	5176
728.13	5192
728.617	5148
729.104	5150
729.591	5111
730.078	5141
730.565	5135
731.052	5050
731.539	5072
732.027	5035
732.514	4989
733.001	5066
733.488	5029
733.976	5009
734.463	4976
734.951	4947
735.438	5001
735.926	4952
736.413	5006
736.901	4949
737.388	4988
737.876	4970
738.364	4928
738.851	4966
739.339	4955
739.827	5020
740.314	4883
740.802	4918
741.29	4947
741.778	4877
742.266	4874
742.754	4873
743.242	4914
743.73	4839
744.218	4826
744.706	4762
745.194	4806
745.682	4762
746.17	4783
746.659	4803
747.147	4702
747.635	4733
748.123	4727
748.612	4651
749.1	4605
749.589	4631
750.077	4599
750.566	4582
751.054	4603
751.543	4633
752.031	4534
752.52	4547
753.008	4455
753.497	4452
753.986	4468
754.474	4456
754.963	4513
755.452	4425
755.941	4398
756.43	4378
756.919	4350
757.408	4324
757.896	4339
758.385	4361
758.875	4329
759.364	4302
759.853	4273
760.342	4197
760.831	4287
761.32	4250
761.809	4178
762.299	4193
762.788	4203
763.277	4189
763.767	4106
764.256	4098
764.745	4035
765.235	4103
765.724	4012
766.214	4076
766.703	4044
767.193	3989
767.683	4001
768.172	3931
768.662	3969
769.152	3984
769.641	3999
770.131	3915
770.621	3941
771.111	3902
771.601	3906
772.09	3872
772.58	3819
773.07	3843
773.56	3890
774.05	3815
774.54	3799
775.031	3766
775.521	3727
776.011	3711
776.501	3727
776.991	3652
777.482	3694
777.972	3623
778.462	3632
778.953	3670
779.443	3623
779.933	3606
780.424	3547
780.914	3583
781.405	3605
781.895	3579
782.386	3574
782.877	3559
783.367	3508
783.858	3481
784.349	3482
784.839	3457
785.33	3472
785.821	3429
786.312	3400
786.803	3398
787.293	3388
787.784	3333
788.275	3289
788.766	3279
789.257	3355
789.748	3285
790.24	3252
790.731	3280
791.222	3228
791.713	3219
792.204	3224
792.696	3150
793.187	3193
793.678	3171
794.169	3102
794.661	3151
795.152	3121
795.644	3084
796.135	3087
796.627	3110
797.118	3052
797.61	3048
798.101	3021
798.593	3072
799.085	3010
799.576	3014
800.068	2967
800.56	2962
801.052	2904
801.544	2891
802.035	2913
802.527	2888
803.019	2877
803.511	2845
804.003	2824
804.495	2828
804.987	2807
805.479	2750
805.971	2766
806.464	2793
806.956	2727
807.448	2716
807.94	2709
808.433	2672
808.925	2649
809.417	2637
809.91	2637
810.402	2581
810.894	2609
811.387	2625
811.879	2577
812.372	2574
812.865	2536
813.357	2516
813.85	2514
814.342	2510
814.835	2510
815.328	2528
815.821	2501
816.313	2501
816.806	2515
817.299	2493
817.792	2517
818.285	2495
818.778	2544
819.271	2557
819.764	2523
820.257	2535
820.75	2534
821.243	2522
821.736	2479
822.229	2497
822.722	2483
823.216	2532
