Data from lamp1helium_zwak_Subt4__22__115.txt Node

Date: Fri Apr 04 10:09:14 CEST 2025
User: fys-lab-0081
Spectrometer: S04999
Trigger mode: 0
Resolution mode: 1024 pixels
Integration Time (sec): 1.000000E-1
Scans to average: 1
Nonlinearity correction enabled: false
Boxcar width: 0
Baseline correction enabled: true
XAxis mode: Wavelengths
Number of Pixels in Spectrum: 1024
>>>>>Begin Spectral Data<<<<<
336.42	1
336.877	2
337.334	10
337.792	13
338.249	3
338.706	6
339.164	11
339.621	8
340.079	7
340.536	9
340.994	9
341.452	9
341.909	9
342.367	13
342.825	15
343.283	7
343.741	13
344.198	5
344.656	11
345.114	13
345.572	5
346.03	11
346.488	11
346.947	14
347.405	16
347.863	10
348.321	11
348.779	14
349.238	17
349.696	18
350.154	13
350.613	13
351.071	14
351.53	16
351.988	19
352.447	18
352.905	21
353.364	22
353.823	23
354.282	18
354.74	21
355.199	24
355.658	26
356.117	26
356.576	23
357.035	27
357.494	26
357.953	25
358.412	24
358.871	33
359.33	32
359.789	30
360.249	33
360.708	36
361.167	28
361.626	37
362.086	35
362.545	38
363.005	34
363.464	43
363.924	37
364.383	44
364.843	46
365.303	40
365.762	46
366.222	48
366.682	47
367.142	47
367.601	55
368.061	52
368.521	51
368.981	51
369.441	49
369.901	49
370.361	59
370.821	61
371.282	54
371.742	52
372.202	55
372.662	60
373.123	62
373.583	63
374.043	71
374.504	64
374.964	71
375.425	71
375.885	75
376.346	75
376.806	72
377.267	74
377.728	71
378.188	78
378.649	81
379.11	78
379.571	81
380.032	86
380.493	84
380.954	94
381.414	92
381.876	97
382.337	100
382.798	99
383.259	109
383.72	107
384.181	117
384.642	118
385.104	124
385.565	120
386.026	128
386.488	137
386.949	132
387.411	136
387.872	138
388.334	141
388.795	144
389.257	149
389.719	153
390.181	156
390.642	163
391.104	164
391.566	166
392.028	170
392.49	175
392.952	173
393.414	181
393.876	190
394.338	193
394.8	195
395.262	200
395.724	204
396.186	207
396.648	212
397.111	207
397.573	213
398.035	208
398.498	222
398.96	226
399.423	225
399.885	231
400.348	231
400.81	244
401.273	246
401.736	243
402.198	256
402.661	266
403.124	270
403.587	274
404.049	279.5
404.512	285
404.975	293
405.438	287
405.901	292
406.364	292
406.827	301
407.29	293
407.754	295
408.217	292
408.68	297
409.143	300
409.607	297
410.07	301
410.533	306
410.997	314
411.46	321
411.924	317
412.387	316
412.851	330
413.314	349
413.778	347
414.242	348
414.705	366
415.169	355
415.633	369
416.097	363
416.561	365
417.024	377
417.488	363
417.952	376
418.416	365
418.88	377
419.344	374
419.809	368
420.273	378
420.737	373
421.201	382
421.665	385
422.13	384
422.594	394
423.059	405
423.523	410
423.987	412
424.452	431
424.916	436
425.381	447
425.846	458
426.31	452
426.775	464
427.24	472
427.704	469
428.169	472
428.634	473
429.099	465
429.564	470
430.029	469
430.494	469
430.959	472
431.424	464
431.889	481
432.354	481
432.819	479
433.284	493
433.75	503
434.215	524
434.68	521
435.146	528
435.611	558
436.077	573
436.542	581
437.008	600
437.473	603
437.939	606
438.404	628
438.87	629
439.336	617
439.801	618
440.267	633
440.733	637
441.199	639
441.665	642
442.131	654
442.596	638
443.062	661
443.529	682
443.995	687
444.461	705
444.927	723
445.393	722
445.859	757
446.325	764
446.792	814
447.258	813
447.724	831
448.191	871
448.657	880
449.124	905
449.59	904
450.057	941
450.523	953
450.99	974
451.457	969
451.923	985
452.39	970
452.857	993
453.324	984
453.791	998
454.257	998
454.724	1013
455.191	1006
455.658	996
456.125	1038
456.592	1015
457.059	1033
457.527	1040
457.994	1075
458.461	1074
458.928	1092
459.396	1092
459.863	1131
460.33	1132
460.798	1140
461.265	1147
461.732	1135
462.2	1163
462.668	1163
463.135	1177
463.603	1143
464.07	1183
464.538	1145
465.006	1179
465.474	1149
465.941	1151
466.409	1161
466.877	1136
467.345	1166
467.813	1145
468.281	1159
468.749	1173
469.217	1168
469.685	1175
470.153	1190
470.621	1191
471.09	1187
471.558	1245
472.026	1233
472.494	1271
472.963	1283
473.431	1318
473.9	1345
474.368	1377
474.837	1400
475.305	1421
475.774	1445
476.242	1486
476.711	1492
477.18	1524
477.648	1508
478.117	1537
478.586	1514
479.055	1517
479.524	1520
479.993	1517
480.462	1512
480.93	1521
481.399	1521
481.869	1527
482.338	1503
482.807	1520
483.276	1520
483.745	1512
484.214	1550
484.684	1560
485.153	1554
485.622	1564
486.092	1600
486.561	1566
487.031	1614
487.5	1656
487.97	1653
488.439	1686
488.909	1730
489.378	1791
489.848	1793
490.318	1831
490.787	1905
491.257	1934
491.727	1950
492.197	1990
492.667	1995
493.137	2021
493.607	2037
494.077	2051
494.547	2031
495.017	2025
495.487	2056
495.957	2101
496.427	2049
496.897	2052
497.368	2074
497.838	2056
498.308	2074
498.779	2083
499.249	2099
499.719	2112
500.19	2121
500.66	2141
501.131	2141
501.602	2184
502.072	2183
502.543	2198
503.014	2267
503.484	2249
503.955	2314
504.426	2394
504.897	2388
505.368	2436
505.838	2474
506.309	2533
506.78	2603
507.251	2647
507.722	2698
508.194	2756
508.665	2797
509.136	2791
509.607	2874
510.078	2919
510.549	2942
511.021	3018
511.492	3014
511.964	3041
512.435	3088
512.906	3069
513.378	3096
513.849	3138
514.321	3143
514.793	3176
515.264	3201
515.736	3228
516.208	3275
516.679	3298
517.151	3336
517.623	3345
518.095	3407
518.567	3422
519.038	3477
519.51	3463
519.982	3532
520.454	3574
520.927	3585
521.399	3621
521.871	3654
522.343	3669
522.815	3724
523.287	3729
523.76	3749
524.232	3806
524.704	3829
525.177	3768
525.649	3795
526.122	3845
526.594	3760
527.067	3846
527.539	3881
528.012	3840
528.484	3833
528.957	3845
529.43	3847
529.903	3832
530.375	3951
530.848	3844
531.321	3889
531.794	3881
532.267	3946
532.74	3877
533.213	3879
533.686	3932
534.159	3903
534.632	3988
535.105	3970
535.578	4034
536.051	4051
536.525	4070
536.998	4062
537.471	4137
537.945	4085
538.418	4149
538.891	4159
539.365	4211
539.838	4229
540.312	4239
540.786	4262
541.259	4242
541.733	4309
542.206	4308
542.68	4241
543.154	4227
543.628	4229
544.101	4345
544.575	4315
545.049	4201
545.523	4288
545.997	4249
546.471	4278
546.945	4229
547.419	4293
547.893	4128
548.367	4199
548.842	4156
549.316	4173
549.79	4206
550.264	4167
550.739	4204
551.213	4186
551.687	4191
552.162	4223
552.636	4176
553.111	4161
553.585	4259
554.06	4187
554.534	4282
555.009	4230
555.484	4308
555.958	4346
556.433	4372
556.908	4410
557.383	4359
557.858	4483
558.333	4516
558.807	4454
559.282	4489
559.757	4600
560.232	4637
560.708	4533
561.183	4519
561.658	4574
562.133	4588
562.608	4549
563.083	4645
563.559	4538
564.034	4579
564.509	4587
564.985	4595
565.46	4529
565.936	4599
566.411	4603
566.887	4532
567.362	4561
567.838	4530
568.313	4599
568.789	4562
569.265	4533
569.74	4539
570.216	4503
570.692	4584
571.168	4563
571.644	4561
572.12	4553
572.596	4597
573.071	4575
573.547	4672
574.024	4697
574.5	4718
574.976	4742
575.452	4802
575.928	4820
576.404	4827
576.881	4985
577.357	4910
577.833	4918
578.31	5042
578.786	5101
579.262	5208
579.739	5145
580.215	5278
580.692	5274
581.169	5241
581.645	5266
582.122	5399
582.598	5353
583.075	5361
583.552	5435
584.029	5447
584.506	5412
584.982	5354
585.459	5471
585.936	5404
586.413	5474
586.89	5523
587.367	5442
587.844	5531
588.321	5506
588.799	5520
589.276	5446
589.753	5514
590.23	5562
590.707	5546
591.185	5517
591.662	5480
592.139	5548
592.617	5632
593.094	5630
593.572	5653
594.049	5683
594.527	5729
595.004	5735
595.482	5878
595.96	5825
596.437	5800
596.915	5949
597.393	5899
597.871	6039
598.349	5936
598.826	6050
599.304	6073
599.782	6200
600.26	6096
600.738	6221
601.216	6189
601.694	6250
602.173	6315
602.651	6338
603.129	6247
603.607	6273
604.085	6337
604.564	6342
605.042	6352
605.52	6277
605.999	6422
606.477	6313
606.956	6313
607.434	6340.5
607.913	6368
608.391	6346
608.87	6370
609.348	6287
609.827	6309
610.306	6322
610.785	6303
611.263	6340
611.742	6320
612.221	6231
612.7	6312
613.179	6337
613.658	6253
614.137	6367
614.616	6413
615.095	6261
615.574	6313
616.053	6351
616.532	6311
617.011	6369
617.491	6375
617.97	6318
618.449	6377
618.928	6476
619.408	6441
619.887	6443
620.367	6429
620.846	6464
621.326	6459
621.805	6584
622.285	6578
622.764	6622
623.244	6631
623.724	6660
624.203	6718
624.683	6572
625.163	6701
625.643	6666
626.123	6620
626.602	6797
627.082	6635
627.562	6630
628.042	6781
628.522	6694
629.002	6698
629.482	6757
629.963	6752
630.443	6662
630.923	6682
631.403	6743
631.883	6705
632.364	6751
632.844	6686
633.324	6668
633.805	6673
634.285	6599
634.766	6563
635.246	6588
635.727	6591
636.207	6584
636.688	6583
637.168	6613
637.649	6550
638.13	6489
638.611	6500
639.091	6503
639.572	6492
640.053	6456
640.534	6508
641.015	6475
641.496	6333
641.977	6439
642.458	6386
642.939	6388
643.42	6410
643.901	6407
644.382	6446
644.863	6432
645.345	6459
645.826	6457
646.307	6438
646.788	6507
647.27	6384
647.751	6449
648.233	6532
648.714	6381
649.196	6539
649.677	6479
650.159	6501
650.64	6440
651.122	6571
651.603	6475
652.085	6535
652.567	6517
653.049	6443
653.53	6453
654.012	6535
654.494	6423
654.976	6469
655.458	6432
655.94	6393
656.422	6497
656.904	6440
657.386	6354
657.868	6320
658.35	6283
658.833	6363
659.315	6377
659.797	6309
660.279	6303
660.762	6349
661.244	6295
661.726	6219
662.209	6225
662.691	6209
663.174	6079
663.656	6109
664.139	6105
664.621	6055
665.104	6014
665.587	6063
666.069	6058
666.552	6045
667.035	5986
667.517	5996
668	6045
668.483	6050
668.966	5992
669.449	5926
669.932	5948
670.415	6011
670.898	5975
671.381	6005
671.864	5995
672.347	5954
672.83	5977
673.313	5988
673.797	5979
674.28	6088
674.763	6065
675.247	6059
675.73	6038
676.213	6107
676.697	6176
677.18	6164
677.664	6171
678.147	6143
678.631	6123
679.114	6144
679.598	6125
680.082	6154
680.565	6147
681.049	6125
681.533	6118
682.017	6199
682.5	6199
682.984	6237
683.468	6231
683.952	6118
684.436	6204
684.92	6103
685.404	6131
685.888	6180
686.372	6136
686.856	6133
687.341	6193
687.825	6110
688.309	6167
688.793	6161
689.278	6104
689.762	6171
690.246	6139
690.731	6140
691.215	6150
691.7	5993
692.184	6065
692.669	6079
693.153	6094
693.638	5969
694.122	5948
694.607	6002
695.092	5938
695.577	6011
696.061	5920
696.546	5891
697.031	5852
697.516	5898
698.001	5915
698.486	5875
698.971	5934
699.456	5806
699.941	5809
700.426	5795
700.911	5839
701.396	5795
701.881	5856
702.366	5826
702.852	5816
703.337	5843
703.822	5810
704.308	5797
704.793	5812
705.278	5819
705.764	5810
706.249	5779
706.735	5787
707.22	5831
707.706	5747
708.191	5836
708.677	5810
709.163	5773
709.648	5812
710.134	5839
710.62	5754
711.106	5729
711.592	5790
712.077	5802
712.563	5674
713.049	5672
713.535	5764
714.021	5732
714.507	5702
714.993	5643
715.479	5732
715.966	5673
716.452	5695
716.938	5715
717.424	5537
717.91	5651
718.397	5602
718.883	5570
719.369	5576
719.856	5509
720.342	5569
720.829	5499
721.315	5535
721.802	5524
722.288	5586
722.775	5390
723.262	5238
723.748	5446
724.235	5388
724.722	5454
725.208	5346
725.695	5365
726.182	5366
726.669	5292
727.156	5296
727.643	5215
728.13	5218
728.617	5185
729.104	5189
729.591	5145
730.078	5167
730.565	5180
731.052	5083
731.539	5104
732.027	5075
732.514	5023
733.001	5090
733.488	5063
733.976	5029
734.463	5013
734.951	4975
735.438	5047
735.926	4995
736.413	5040
736.901	4987
737.388	5027
737.876	5008
738.364	4969
738.851	5000
739.339	4987
739.827	5059
740.314	4921
740.802	4962
741.29	4992
741.778	4919
742.266	4911
742.754	4933
743.242	4956
743.73	4863
744.218	4869
744.706	4796
745.194	4842
745.682	4800
746.17	4813
746.659	4848
747.147	4734
747.635	4770
748.123	4755
748.612	4690
749.1	4638
749.589	4663
750.077	4629
750.566	4612
751.054	4650
751.543	4673
752.031	4568
752.52	4579
753.008	4494
753.497	4483
753.986	4504
754.474	4504
754.963	4552
755.452	4464
755.941	4432
756.43	4409
756.919	4386
757.408	4348
757.896	4380
758.385	4403
758.875	4360
759.364	4330
759.853	4300
760.342	4230
760.831	4318
761.32	4278
761.809	4201
762.299	4228
762.788	4234
763.277	4211
763.767	4134
764.256	4131
764.745	4070
765.235	4142
765.724	4045
766.214	4086
766.703	4072
767.193	4022
767.683	4026
768.172	3955
768.662	4002
769.152	4002
769.641	4033
770.131	3943
770.621	3982
771.111	3931
771.601	3934
772.09	3900
772.58	3861
773.07	3875
773.56	3922
774.05	3843
774.54	3828
775.031	3795
775.521	3753
776.011	3741
776.501	3753
776.991	3682
777.482	3734
777.972	3651
778.462	3664
778.953	3693
779.443	3660
779.933	3638
780.424	3578
780.914	3602
781.405	3628
781.895	3597
782.386	3605
782.877	3585
783.367	3531
783.858	3509
784.349	3516
784.839	3488
785.33	3492
785.821	3463
786.312	3419
786.803	3420
787.293	3415
787.784	3358
788.275	3315
788.766	3303
789.257	3365
789.748	3305
790.24	3276
790.731	3301
791.222	3247
791.713	3237
792.204	3248
792.696	3176
793.187	3223
793.678	3192
794.169	3128
794.661	3179
795.152	3132
795.644	3108
796.135	3104
796.627	3126
797.118	3071
797.61	3060
798.101	3050
798.593	3089
799.085	3033
799.576	3020
800.068	2988
800.56	2986
801.052	2919
801.544	2912
802.035	2937
802.527	2914
803.019	2901
803.511	2872
804.003	2839
804.495	2850
804.987	2829
805.479	2766
805.971	2794
806.464	2810
806.956	2744
807.448	2743
807.94	2729
808.433	2700
808.925	2675
809.417	2656
809.91	2658
810.402	2600
810.894	2619
811.387	2646
811.879	2604
812.372	2592
812.865	2552
813.357	2541
813.85	2532
814.342	2528
814.835	2533
815.328	2547
815.821	2519
816.313	2530
816.806	2535
817.299	2517
817.792	2536
818.285	2509
818.778	2553
819.271	2572
819.764	2550
820.257	2558
820.75	2559
821.243	2541
821.736	2503
822.229	2514
822.722	2502
823.216	2551
