Data from lamp1helium_zwak_Subt4__29__122.txt Node

Date: Fri Apr 04 10:09:15 CEST 2025
User: fys-lab-0081
Spectrometer: S04999
Trigger mode: 0
Resolution mode: 1024 pixels
Integration Time (sec): 1.000000E-1
Scans to average: 1
Nonlinearity correction enabled: false
Boxcar width: 0
Baseline correction enabled: true
XAxis mode: Wavelengths
Number of Pixels in Spectrum: 1024
>>>>>Begin Spectral Data<<<<<
336.42	5
336.877	6
337.334	3
337.792	3
338.249	5
338.706	10
339.164	9
339.621	6
340.079	12
340.536	8
340.994	6
341.452	9
341.909	11
342.367	9
342.825	13
343.283	8
343.741	14
344.198	6
344.656	7
345.114	11
345.572	4
346.03	12
346.488	11
346.947	11
347.405	17
347.863	14
348.321	11
348.779	12
349.238	12
349.696	13
350.154	16
350.613	15
351.071	17
351.53	17
351.988	17
352.447	16
352.905	14
353.364	20
353.823	27
354.282	20
354.74	19
355.199	24
355.658	23
356.117	26
356.576	22
357.035	24
357.494	27
357.953	27
358.412	27
358.871	23
359.33	33
359.789	29
360.249	33
360.708	35
361.167	28
361.626	37
362.086	38
362.545	40
363.005	36
363.464	40
363.924	38
364.383	41
364.843	44
365.303	40
365.762	46
366.222	50
366.682	49
367.142	47
367.601	49
368.061	54
368.521	55
368.981	53
369.441	54
369.901	51
370.361	58
370.821	64
371.282	54
371.742	56
372.202	58
372.662	61
373.123	62
373.583	61
374.043	67
374.504	63
374.964	64
375.425	69
375.885	72
376.346	74
376.806	75
377.267	76
377.728	70
378.188	77
378.649	79
379.11	77
379.571	77
380.032	87
380.493	88
380.954	92
381.414	89
381.876	93
382.337	100
382.798	99
383.259	105
383.72	104
384.181	114
384.642	113
385.104	119
385.565	121
386.026	121
386.488	134
386.949	134
387.411	142
387.872	142
388.334	142
388.795	145
389.257	147
389.719	152
390.181	151
390.642	160
391.104	165
391.566	165
392.028	170
392.49	172
392.952	180
393.414	184
393.876	190
394.338	192
394.8	187
395.262	196
395.724	206
396.186	206
396.648	211
397.111	204
397.573	210
398.035	205
398.498	216
398.96	222
399.423	223
399.885	227
400.348	232
400.81	236
401.273	241
401.736	238
402.198	255
402.661	262
403.124	262
403.587	273
404.049	279.5
404.512	286
404.975	290
405.438	288
405.901	290
406.364	291
406.827	297
407.29	292
407.754	292
408.217	283
408.68	295
409.143	296
409.607	298
410.07	297
410.533	304
410.997	309
411.46	314
411.924	313
412.387	312
412.851	329
413.314	344
413.778	346
414.242	346
414.705	364
415.169	348
415.633	361
416.097	365
416.561	370
417.024	375
417.488	361
417.952	372
418.416	366
418.88	374
419.344	367
419.809	370
420.273	383
420.737	370
421.201	375
421.665	382
422.13	379
422.594	391
423.059	402
423.523	400
423.987	411
424.452	425
424.916	436
425.381	442
425.846	450
426.31	451
426.775	460
427.24	467
427.704	466
428.169	472
428.634	470
429.099	461
429.564	462
430.029	469
430.494	469
430.959	473
431.424	462
431.889	475
432.354	475
432.819	476
433.284	495
433.75	494
434.215	513
434.68	516
435.146	527
435.611	551
436.077	566
436.542	571
437.008	591
437.473	599
437.939	601
438.404	616
438.87	620
439.336	612
439.801	612
440.267	625
440.733	631
441.199	631
441.665	632
442.131	649
442.596	631
443.062	656
443.529	674
443.995	679
444.461	695
444.927	717
445.393	719
445.859	755
446.325	756
446.792	804
447.258	805
447.724	823
448.191	862
448.657	868
449.124	900
449.59	889
450.057	937
450.523	947
450.99	966
451.457	965
451.923	974
452.39	964
452.857	985
453.324	974
453.791	993
454.257	991
454.724	1009
455.191	996
455.658	991
456.125	1031
456.592	1009
457.059	1022
457.527	1037
457.994	1064
458.461	1066
458.928	1087
459.396	1087
459.863	1121
460.33	1113
460.798	1123
461.265	1137
461.732	1129
462.2	1155
462.668	1154
463.135	1166
463.603	1133
464.07	1168
464.538	1128
465.006	1167
465.474	1136
465.941	1142
466.409	1154
466.877	1122
467.345	1156
467.813	1138
468.281	1146
468.749	1160
469.217	1150
469.685	1161
470.153	1181
470.621	1180
471.09	1178
471.558	1232
472.026	1219
472.494	1253
472.963	1271
473.431	1303
473.9	1331
474.368	1359
474.837	1383
475.305	1402
475.774	1434
476.242	1468
476.711	1482
477.18	1513
477.648	1494
478.117	1520
478.586	1500
479.055	1499
479.524	1504
479.993	1503
480.462	1497
480.93	1504
481.399	1501
481.869	1515
482.338	1492
482.807	1512
483.276	1501
483.745	1497
484.214	1535
484.684	1543
485.153	1532
485.622	1546
486.092	1585
486.561	1554
487.031	1605
487.5	1635
487.97	1637
488.439	1669
488.909	1707
489.378	1771
489.848	1768
490.318	1810
490.787	1884
491.257	1919
491.727	1937
492.197	1974
492.667	1976
493.137	2006
493.607	2020
494.077	2023
494.547	2009
495.017	1999
495.487	2035
495.957	2067
496.427	2025
496.897	2036
497.368	2049
497.838	2036
498.308	2053
498.779	2065
499.249	2074
499.719	2091
500.19	2101
500.66	2115
501.131	2121
501.602	2164
502.072	2158
502.543	2172
503.014	2243
503.484	2233
503.955	2288
504.426	2361
504.897	2366
505.368	2410
505.838	2447
506.309	2508
506.78	2578
507.251	2615
507.722	2665
508.194	2737
508.665	2762
509.136	2754
509.607	2846
510.078	2896
510.549	2911
511.021	2987
511.492	2978
511.964	3013
512.435	3060
512.906	3035
513.378	3063
513.849	3104
514.321	3117
514.793	3144
515.264	3162
515.736	3195
516.208	3236
516.679	3257
517.151	3301
517.623	3316
518.095	3371
518.567	3385
519.038	3444
519.51	3445
519.982	3488
520.454	3536
520.927	3553
521.399	3584
521.871	3627
522.343	3624
522.815	3691
523.287	3694
523.76	3713
524.232	3761
524.704	3784
525.177	3728
525.649	3764
526.122	3809
526.594	3722
527.067	3812
527.539	3833
528.012	3806
528.484	3793
528.957	3800
529.43	3800
529.903	3788
530.375	3904
530.848	3803
531.321	3852
531.794	3832
532.267	3900
532.74	3843
533.213	3836
533.686	3890
534.159	3861
534.632	3940
535.105	3935
535.578	3989
536.051	4006
536.525	4031
536.998	4022
537.471	4102
537.945	4044
538.418	4097
538.891	4103
539.365	4171
539.838	4185
540.312	4189
540.786	4215
541.259	4203
541.733	4262
542.206	4264
542.68	4194
543.154	4182
543.628	4179
544.101	4294
544.575	4266
545.049	4156
545.523	4235
545.997	4200
546.471	4236
546.945	4188
547.419	4242
547.893	4085
548.367	4144
548.842	4110
549.316	4129
549.79	4156
550.264	4114
550.739	4166
551.213	4149
551.687	4147
552.162	4178
552.636	4125
553.111	4110
553.585	4213
554.06	4145
554.534	4229
555.009	4187
555.484	4257
555.958	4298
556.433	4326
556.908	4366
557.383	4313
557.858	4421
558.333	4462
558.807	4400
559.282	4437
559.757	4549
560.232	4588
560.708	4485
561.183	4467
561.658	4527
562.133	4533
562.608	4492
563.083	4599
563.559	4479
564.034	4519
564.509	4531
564.985	4545
565.46	4488
565.936	4547
566.411	4554
566.887	4482
567.362	4509
567.838	4476
568.313	4547
568.789	4505
569.265	4486
569.74	4492
570.216	4447
570.692	4527
571.168	4517
571.644	4507
572.12	4497
572.596	4536
573.071	4518
573.547	4612
574.024	4652
574.5	4666
574.976	4683
575.452	4750
575.928	4759
576.404	4775
576.881	4933
577.357	4841
577.833	4864
578.31	4981
578.786	5051
579.262	5154
579.739	5081
580.215	5230
580.692	5216
581.169	5192
581.645	5200
582.122	5340
582.598	5297
583.075	5304
583.552	5373
584.029	5385
584.506	5346
584.982	5286
585.459	5409
585.936	5341
586.413	5409
586.89	5450
587.367	5371
587.844	5461
588.321	5433
588.799	5441
589.276	5377
589.753	5454
590.23	5483
590.707	5467
591.185	5446
591.662	5417
592.139	5495
592.617	5572
593.094	5568
593.572	5592
594.049	5604
594.527	5657
595.004	5668
595.482	5805
595.96	5743
596.437	5743
596.915	5878
597.393	5825
597.871	5962
598.349	5857
598.826	5967
599.304	5998
599.782	6126
600.26	6034
600.738	6143
601.216	6109
601.694	6173
602.173	6233
602.651	6259
603.129	6173
603.607	6206
604.085	6258
604.564	6271
605.042	6263
605.52	6208
605.999	6349
606.477	6219
606.956	6237
607.434	6256.5
607.913	6276
608.391	6265
608.87	6282
609.348	6212
609.827	6234
610.306	6234
610.785	6225
611.263	6261
611.742	6231
612.221	6160
612.7	6218
613.179	6247
613.658	6171
614.137	6282
614.616	6323
615.095	6185
615.574	6241
616.053	6254
616.532	6226
617.011	6286
617.491	6285
617.97	6242
618.449	6305
618.928	6383
619.408	6335
619.887	6363
620.367	6339
620.846	6368
621.326	6368
621.805	6497
622.285	6496
622.764	6538
623.244	6540
623.724	6584
624.203	6619
624.683	6493
625.163	6614
625.643	6581
626.123	6537
626.602	6712
627.082	6546
627.562	6548
628.042	6683
628.522	6616
629.002	6605
629.482	6659
629.963	6654
630.443	6575
630.923	6596
631.403	6644
631.883	6635
632.364	6655
632.844	6596
633.324	6586
633.805	6590
634.285	6521
634.766	6488
635.246	6510
635.727	6511
636.207	6507
636.688	6500
637.168	6518
637.649	6453
638.13	6396
638.611	6413
639.091	6425
639.572	6407
640.053	6381
640.534	6425
641.015	6390
641.496	6256
641.977	6351
642.458	6307
642.939	6304
643.42	6319
643.901	6323
644.382	6354
644.863	6353
645.345	6374
645.826	6352
646.307	6351
646.788	6415
647.27	6304
647.751	6359
648.233	6442
648.714	6295
649.196	6454
649.677	6399
650.159	6405
650.64	6355
651.122	6485
651.603	6377
652.085	6436
652.567	6426
653.049	6354
653.53	6358
654.012	6453
654.494	6332
654.976	6375
655.458	6335
655.94	6317
656.422	6417
656.904	6343
657.386	6267
657.868	6236
658.35	6207
658.833	6269
659.315	6291
659.797	6210
660.279	6215
660.762	6269
661.244	6209
661.726	6125
662.209	6127
662.691	6141
663.174	5984
663.656	6024
664.139	6017
664.621	5981
665.104	5930
665.587	5982
666.069	5977
666.552	5956
667.035	5905
667.517	5915
668	5978
668.483	5949
668.966	5900
669.449	5844
669.932	5857
670.415	5940
670.898	5896
671.381	5894
671.864	5916
672.347	5873
672.83	5869
673.313	5913
673.797	5897
674.28	6006
674.763	5985
675.247	5959
675.73	5963
676.213	6012
676.697	6089
677.18	6077
677.664	6079
678.147	6043
678.631	6038
679.114	6050
679.598	6035
680.082	6067
680.565	6073
681.049	6045
681.533	6026
682.017	6092
682.5	6099
682.984	6143
683.468	6147
683.952	6032
684.436	6105
684.92	6005
685.404	6029
685.888	6093
686.372	6036
686.856	6043
687.341	6102
687.825	6029
688.309	6083
688.793	6078
689.278	6012
689.762	6074
690.246	6041
690.731	6038
691.215	6051
691.7	5907
692.184	5983
692.669	5975
693.153	5987
693.638	5878
694.122	5874
694.607	5906
695.092	5843
695.577	5923
696.061	5824
696.546	5811
697.031	5763
697.516	5819
698.001	5832
698.486	5780
698.971	5847
699.456	5720
699.941	5722
700.426	5707
700.911	5755
701.396	5718
701.881	5756
702.366	5729
702.852	5727
703.337	5750
703.822	5735
704.308	5704
704.793	5727
705.278	5719
705.764	5738
706.249	5692
706.735	5690
707.22	5741
707.706	5650
708.191	5744
708.677	5730
709.163	5690
709.648	5719
710.134	5758
710.62	5667
711.106	5633
711.592	5707
712.077	5708
712.563	5589
713.049	5589
713.535	5686
714.021	5628
714.507	5624
714.993	5564
715.479	5642
715.966	5587
716.452	5603
716.938	5619
717.424	5445
717.91	5570
718.397	5513
718.883	5491
719.369	5489
719.856	5430
720.342	5491
720.829	5409
721.315	5447
721.802	5425
722.288	5487
722.775	5302
723.262	5155
723.748	5363
724.235	5298
724.722	5363
725.208	5275
725.695	5292
726.182	5294
726.669	5203
727.156	5210
727.643	5143
728.13	5141
728.617	5109
729.104	5100
729.591	5060
730.078	5084
730.565	5089
731.052	5016
731.539	5028
732.027	4998
732.514	4959
733.001	5013
733.488	4986
733.976	4958
734.463	4923
734.951	4898
735.438	4970
735.926	4929
736.413	4960
736.901	4906
737.388	4948
737.876	4920
738.364	4884
738.851	4918
739.339	4904
739.827	4972
740.314	4844
740.802	4892
741.29	4906
741.778	4832
742.266	4834
742.754	4839
743.242	4881
743.73	4785
744.218	4777
744.706	4717
745.194	4760
745.682	4720
746.17	4743
746.659	4752
747.147	4656
747.635	4700
748.123	4675
748.612	4611
749.1	4565
749.589	4589
750.077	4558
750.566	4543
751.054	4571
751.543	4589
752.031	4498
752.52	4512
753.008	4412
753.497	4416
753.986	4433
754.474	4421
754.963	4457
755.452	4399
755.941	4355
756.43	4331
756.919	4306
757.408	4283
757.896	4296
758.385	4327
758.875	4290
759.364	4259
759.853	4224
760.342	4169
760.831	4246
761.32	4217
761.809	4139
762.299	4167
762.788	4169
763.277	4147
763.767	4078
764.256	4067
764.745	4007
765.235	4070
765.724	3975
766.214	4032
766.703	4001
767.193	3951
767.683	3955
768.172	3888
768.662	3932
769.152	3936
769.641	3964
770.131	3876
770.621	3911
771.111	3868
771.601	3876
772.09	3832
772.58	3794
773.07	3804
773.56	3855
774.05	3786
774.54	3763
775.031	3723
775.521	3695
776.011	3680
776.501	3697
776.991	3619
777.482	3671
777.972	3589
778.462	3601
778.953	3629
779.443	3601
779.933	3575
780.424	3507
780.914	3539
781.405	3561
781.895	3533
782.386	3541
782.877	3522
783.367	3469
783.858	3450
784.349	3453
784.839	3428
785.33	3437
785.821	3408
786.312	3373
786.803	3367
787.293	3358
787.784	3298
788.275	3259
788.766	3248
789.257	3327
789.748	3247
790.24	3225
790.731	3249
791.222	3193
791.713	3189
792.204	3197
792.696	3118
793.187	3163
793.678	3138
794.169	3072
794.661	3125
795.152	3092
795.644	3058
796.135	3056
796.627	3077
797.118	3022
797.61	3011
798.101	2993
798.593	3038
799.085	2985
799.576	2983
800.068	2936
800.56	2938
801.052	2873
801.544	2864
802.035	2885
802.527	2861
803.019	2844
803.511	2823
804.003	2799
804.495	2800
804.987	2782
805.479	2725
805.971	2747
806.464	2765
806.956	2699
807.448	2688
807.94	2682
808.433	2660
808.925	2627
809.417	2609
809.91	2611
810.402	2554
810.894	2579
811.387	2597
811.879	2553
812.372	2545
812.865	2513
813.357	2491
813.85	2490
814.342	2480
814.835	2495
815.328	2509
815.821	2477
816.313	2480
816.806	2492
817.299	2468
817.792	2487
818.285	2471
818.778	2517
819.271	2532
819.764	2501
820.257	2518
820.75	2512
821.243	2498
821.736	2463
822.229	2468
822.722	2457
823.216	2508
