Data from lamp1helium_zwak_Subt4__27__120.txt Node

Date: Fri Apr 04 10:09:15 CEST 2025
User: fys-lab-0081
Spectrometer: S04999
Trigger mode: 0
Resolution mode: 1024 pixels
Integration Time (sec): 1.000000E-1
Scans to average: 1
Nonlinearity correction enabled: false
Boxcar width: 0
Baseline correction enabled: true
XAxis mode: Wavelengths
Number of Pixels in Spectrum: 1024
>>>>>Begin Spectral Data<<<<<
336.42	6
336.877	5
337.334	5
337.792	11
338.249	5
338.706	7
339.164	9
339.621	6
340.079	8
340.536	8
340.994	5
341.452	10
341.909	7
342.367	11
342.825	9
343.283	9
343.741	14
344.198	8
344.656	7
345.114	12
345.572	9
346.03	9
346.488	10
346.947	14
347.405	14
347.863	15
348.321	12
348.779	16
349.238	15
349.696	16
350.154	11
350.613	18
351.071	19
351.53	19
351.988	17
352.447	16
352.905	17
353.364	19
353.823	30
354.282	20
354.74	19
355.199	24
355.658	26
356.117	28
356.576	22
357.035	24
357.494	30
357.953	28
358.412	24
358.871	28
359.33	33
359.789	28
360.249	30
360.708	33
361.167	28
361.626	31
362.086	32
362.545	38
363.005	35
363.464	41
363.924	38
364.383	44
364.843	45
365.303	40
365.762	46
366.222	52
366.682	45
367.142	45
367.601	50
368.061	52
368.521	52
368.981	53
369.441	53
369.901	50
370.361	55
370.821	60
371.282	54
371.742	53
372.202	58
372.662	59
373.123	62
373.583	63
374.043	69
374.504	67
374.964	67
375.425	72
375.885	76
376.346	76
376.806	70
377.267	76
377.728	68
378.188	78
378.649	80
379.11	76
379.571	76
380.032	86
380.493	84
380.954	91
381.414	90
381.876	97
382.337	101
382.798	93
383.259	103
383.72	101
384.181	115
384.642	113
385.104	121
385.565	119
386.026	128
386.488	134
386.949	133
387.411	139
387.872	143
388.334	138
388.795	145
389.257	149
389.719	149
390.181	150
390.642	162
391.104	164
391.566	158
392.028	170
392.49	173
392.952	175
393.414	181
393.876	188
394.338	198
394.8	190
395.262	195
395.724	205
396.186	204
396.648	209
397.111	205
397.573	209
398.035	210
398.498	215
398.96	220
399.423	223
399.885	224
400.348	229
400.81	238
401.273	240
401.736	238
402.198	250
402.661	263
403.124	264
403.587	269
404.049	277
404.512	285
404.975	293
405.438	286
405.901	293
406.364	293
406.827	298
407.29	292
407.754	295
408.217	286
408.68	290
409.143	300
409.607	294
410.07	298
410.533	304
410.997	307
411.46	316
411.924	313
412.387	312
412.851	324
413.314	343
413.778	344
414.242	344
414.705	363
415.169	357
415.633	360
416.097	364
416.561	367
417.024	369
417.488	361
417.952	364
418.416	362
418.88	374
419.344	362
419.809	367
420.273	382
420.737	369
421.201	376
421.665	383
422.13	381
422.594	392
423.059	398
423.523	400
423.987	407
424.452	429
424.916	431
425.381	446
425.846	456
426.31	453
426.775	464
427.24	472
427.704	466
428.169	470
428.634	468
429.099	462
429.564	462
430.029	467
430.494	468
430.959	470
431.424	462
431.889	480
432.354	477
432.819	473
433.284	493
433.75	497
434.215	514
434.68	515
435.146	530
435.611	553
436.077	564
436.542	576
437.008	591
437.473	597
437.939	598
438.404	618
438.87	625
439.336	610
439.801	613
440.267	625
440.733	627
441.199	631
441.665	633
442.131	649
442.596	630
443.062	655
443.529	676
443.995	678
444.461	697
444.927	716
445.393	722
445.859	757
446.325	760
446.792	804
447.258	802
447.724	827
448.191	858
448.657	867
449.124	898
449.59	891
450.057	934
450.523	941
450.99	960
451.457	959
451.923	978
452.39	965
452.857	983
453.324	975
453.791	987
454.257	993
454.724	1007
455.191	994
455.658	988
456.125	1034
456.592	1004
457.059	1030
457.527	1040
457.994	1064
458.461	1067
458.928	1084
459.396	1084
459.863	1121
460.33	1122
460.798	1126
461.265	1139
461.732	1129
462.2	1158
462.668	1154
463.135	1168
463.603	1136
464.07	1170
464.538	1137
465.006	1164
465.474	1133
465.941	1144
466.409	1148
466.877	1123
467.345	1152
467.813	1138
468.281	1148
468.749	1156
469.217	1155
469.685	1162
470.153	1183
470.621	1184
471.09	1182
471.558	1229
472.026	1219
472.494	1258
472.963	1267
473.431	1306
473.9	1330
474.368	1363
474.837	1386
475.305	1406
475.774	1434
476.242	1466
476.711	1479
477.18	1511
477.648	1493
478.117	1521
478.586	1498
479.055	1505
479.524	1506
479.993	1501
480.462	1503
480.93	1513
481.399	1508
481.869	1516
482.338	1490
482.807	1512
483.276	1501
483.745	1500
484.214	1536
484.684	1544
485.153	1544
485.622	1549
486.092	1588
486.561	1555
487.031	1603
487.5	1644
487.97	1638
488.439	1665
488.909	1714
489.378	1767
489.848	1773
490.318	1815
490.787	1885
491.257	1924
491.727	1936
492.197	1971
492.667	1980
493.137	2012
493.607	2015
494.077	2026
494.547	2004
495.017	2002
495.487	2045
495.957	2074
496.427	2030
496.897	2032
497.368	2055
497.838	2026
498.308	2057
498.779	2067
499.249	2081
499.719	2102
500.19	2104
500.66	2118
501.131	2131
501.602	2165
502.072	2161
502.543	2175
503.014	2241
503.484	2229
503.955	2290
504.426	2367
504.897	2368
505.368	2412
505.838	2455
506.309	2510
506.78	2572
507.251	2622
507.722	2675
508.194	2734
508.665	2761
509.136	2762
509.607	2847
510.078	2897
510.549	2913
511.021	2993
511.492	2977
511.964	3021
512.435	3052
512.906	3044
513.378	3063
513.849	3112
514.321	3121
514.793	3147
515.264	3163
515.736	3189
516.208	3241
516.679	3257
517.151	3309
517.623	3321
518.095	3368
518.567	3387
519.038	3448
519.51	3437
519.982	3491
520.454	3541
520.927	3559
521.399	3588
521.871	3622
522.343	3629
522.815	3686
523.287	3697
523.76	3710
524.232	3768
524.704	3784
525.177	3732
525.649	3763
526.122	3815
526.594	3721
527.067	3820
527.539	3843
528.012	3801
528.484	3791
528.957	3805
529.43	3807
529.903	3803
530.375	3914
530.848	3810
531.321	3854
531.794	3840
532.267	3906
532.74	3846
533.213	3846
533.686	3895
534.159	3851
534.632	3934
535.105	3933
535.578	3993
536.051	4007
536.525	4032
536.998	4020
537.471	4095
537.945	4046
538.418	4097
538.891	4114
539.365	4168
539.838	4194
540.312	4201
540.786	4233
541.259	4195
541.733	4263
542.206	4267
542.68	4199
543.154	4187
543.628	4184
544.101	4294
544.575	4273
545.049	4159
545.523	4240
545.997	4200
546.471	4238
546.945	4192
547.419	4252
547.893	4082
548.367	4147
548.842	4124
549.316	4132
549.79	4164
550.264	4130
550.739	4165
551.213	4146
551.687	4156
552.162	4184
552.636	4138
553.111	4117
553.585	4208
554.06	4152
554.534	4240
555.009	4189
555.484	4261
555.958	4303
556.433	4324
556.908	4383
557.383	4316
557.858	4436
558.333	4470
558.807	4411
559.282	4443
559.757	4558
560.232	4588
560.708	4499
561.183	4471
561.658	4526
562.133	4535
562.608	4504
563.083	4610
563.559	4487
564.034	4531
564.509	4538
564.985	4543
565.46	4496
565.936	4548
566.411	4567
566.887	4489
567.362	4507
567.838	4475
568.313	4549
568.789	4506
569.265	4487
569.74	4484
570.216	4460
570.692	4537
571.168	4526
571.644	4507
572.12	4498
572.596	4548
573.071	4528
573.547	4621
574.024	4651
574.5	4675
574.976	4696
575.452	4752
575.928	4770
576.404	4783
576.881	4941
577.357	4860
577.833	4879
578.31	4995
578.786	5059
579.262	5174
579.739	5090
580.215	5226
580.692	5230
581.169	5189
581.645	5204
582.122	5354
582.598	5306
583.075	5305
583.552	5372
584.029	5397
584.506	5360
584.982	5300
585.459	5426
585.936	5351
586.413	5408
586.89	5454
587.367	5386
587.844	5472
588.321	5443
588.799	5457
589.276	5388
589.753	5451
590.23	5497
590.707	5477
591.185	5463
591.662	5422
592.139	5489
592.617	5586
593.094	5576
593.572	5596
594.049	5614
594.527	5672
595.004	5679
595.482	5818
595.96	5755
596.437	5737
596.915	5897
597.393	5829
597.871	5975
598.349	5870
598.826	5988
599.304	6027
599.782	6140
600.26	6046
600.738	6155
601.216	6117
601.694	6189
602.173	6238
602.651	6276
603.129	6186
603.607	6214
604.085	6278
604.564	6280
605.042	6283
605.52	6212
605.999	6356
606.477	6240
606.956	6259
607.434	6278.5
607.913	6298
608.391	6290
608.87	6297
609.348	6224
609.827	6240
610.306	6254
610.785	6246
611.263	6269
611.742	6251
612.221	6158
612.7	6240
613.179	6255
613.658	6185
614.137	6292
614.616	6348
615.095	6204
615.574	6244
616.053	6271
616.532	6237
617.011	6297
617.491	6299
617.97	6254
618.449	6315
618.928	6391
619.408	6364
619.887	6383
620.367	6364
620.846	6393
621.326	6379
621.805	6506
622.285	6512
622.764	6560
623.244	6562
623.724	6591
624.203	6631
624.683	6507
625.163	6621
625.643	6593
626.123	6542
626.602	6726
627.082	6561
627.562	6570
628.042	6705
628.522	6621
629.002	6618
629.482	6690
629.963	6688
630.443	6596
630.923	6604
631.403	6662
631.883	6640
632.364	6671
632.844	6613
633.324	6591
633.805	6611
634.285	6543
634.766	6503
635.246	6513
635.727	6525
636.207	6523
636.688	6513
637.168	6532
637.649	6469
638.13	6412
638.611	6422
639.091	6436
639.572	6420
640.053	6401
640.534	6444
641.015	6410
641.496	6276
641.977	6358
642.458	6310
642.939	6313
643.42	6322
643.901	6338
644.382	6363
644.863	6364
645.345	6377
645.826	6379
646.307	6363
646.788	6439
647.27	6313
647.751	6371
648.233	6457
648.714	6318
649.196	6478
649.677	6404
650.159	6426
650.64	6360
651.122	6498
651.603	6411
652.085	6465
652.567	6443
653.049	6369
653.53	6364
654.012	6465
654.494	6341
654.976	6390
655.458	6346
655.94	6309
656.422	6425
656.904	6356
657.386	6282
657.868	6253
658.35	6205
658.833	6283
659.315	6303
659.797	6237
660.279	6220
660.762	6276
661.244	6208
661.726	6140
662.209	6136
662.691	6135
663.174	6008
663.656	6024
664.139	6033
664.621	5973
665.104	5934
665.587	5989
666.069	5990
666.552	5967
667.035	5918
667.517	5935
668	5971
668.483	5963
668.966	5916
669.449	5860
669.932	5861
670.415	5946
670.898	5898
671.381	5923
671.864	5925
672.347	5882
672.83	5888
673.313	5922
673.797	5911
674.28	6027
674.763	5998
675.247	5982
675.73	5960
676.213	6028
676.697	6093
677.18	6095
677.664	6087
678.147	6048
678.631	6035
679.114	6063
679.598	6038
680.082	6066
680.565	6070
681.049	6042
681.533	6041
682.017	6115
682.5	6107
682.984	6156
683.468	6150
683.952	6041
684.436	6118
684.92	6019
685.404	6039
685.888	6095
686.372	6052
686.856	6058
687.341	6106
687.825	6035
688.309	6090
688.793	6089
689.278	6020
689.762	6089
690.246	6038
690.731	6044
691.215	6059
691.7	5914
692.184	5996
692.669	5992
693.153	6005
693.638	5886
694.122	5875
694.607	5907
695.092	5858
695.577	5923
696.061	5835
696.546	5812
697.031	5768
697.516	5830
698.001	5846
698.486	5802
698.971	5848
699.456	5724
699.941	5720
700.426	5717
700.911	5759
701.396	5723
701.881	5764
702.366	5742
702.852	5722
703.337	5756
703.822	5725
704.308	5707
704.793	5727
705.278	5730
705.764	5743
706.249	5704
706.735	5707
707.22	5758
707.706	5661
708.191	5752
708.677	5735
709.163	5703
709.648	5734
710.134	5761
710.62	5662
711.106	5640
711.592	5706
712.077	5711
712.563	5588
713.049	5590
713.535	5684
714.021	5639
714.507	5618
714.993	5574
715.479	5649
715.966	5594
716.452	5611
716.938	5625
717.424	5450
717.91	5566
718.397	5507
718.883	5485
719.369	5484
719.856	5425
720.342	5490
720.829	5427
721.315	5447
721.802	5443
722.288	5494
722.775	5314
723.262	5167
723.748	5363
724.235	5306
724.722	5379
725.208	5269
725.695	5294
726.182	5277
726.669	5216
727.156	5213
727.643	5153
728.13	5144
728.617	5110
729.104	5121
729.591	5064
730.078	5089
730.565	5098
731.052	5022
731.539	5032
732.027	5013
732.514	4951
733.001	5020
733.488	4990
733.976	4967
734.463	4934
734.951	4901
735.438	4974
735.926	4932
736.413	4953
736.901	4910
737.388	4946
737.876	4917
738.364	4887
738.851	4917
739.339	4920
739.827	4974
740.314	4860
740.802	4893
741.29	4928
741.778	4841
742.266	4840
742.754	4840
743.242	4894
743.73	4786
744.218	4801
744.706	4719
745.194	4766
745.682	4734
746.17	4743
746.659	4758
747.147	4662
747.635	4699
748.123	4684
748.612	4612
749.1	4562
749.589	4586
750.077	4561
750.566	4542
751.054	4575
751.543	4600
752.031	4506
752.52	4515
753.008	4425
753.497	4418
753.986	4438
754.474	4429
754.963	4464
755.452	4391
755.941	4356
756.43	4337
756.919	4308
757.408	4282
757.896	4311
758.385	4335
758.875	4306
759.364	4271
759.853	4239
760.342	4171
760.831	4241
761.32	4214
761.809	4140
762.299	4165
762.788	4172
763.277	4153
763.767	4075
764.256	4074
764.745	4008
765.235	4076
765.724	3979
766.214	4033
766.703	4008
767.193	3964
767.683	3971
768.172	3889
768.662	3941
769.152	3945
769.641	3970
770.131	3881
770.621	3921
771.111	3871
771.601	3876
772.09	3843
772.58	3791
773.07	3807
773.56	3860
774.05	3791
774.54	3767
775.031	3727
775.521	3695
776.011	3684
776.501	3699
776.991	3629
777.482	3670
777.972	3593
778.462	3603
778.953	3639
779.443	3603
779.933	3584
780.424	3507
780.914	3549
781.405	3563
781.895	3542
782.386	3539
782.877	3525
783.367	3465
783.858	3445
784.349	3448
784.839	3430
785.33	3435
785.821	3401
786.312	3372
786.803	3368
787.293	3366
787.784	3304
788.275	3259
788.766	3243
789.257	3321
789.748	3249
790.24	3230
790.731	3242
791.222	3189
791.713	3191
792.204	3192
792.696	3126
793.187	3166
793.678	3143
794.169	3072
794.661	3120
795.152	3086
795.644	3061
796.135	3054
796.627	3080
797.118	3016
797.61	3019
798.101	2995
798.593	3043
799.085	2980
799.576	2976
800.068	2941
800.56	2931
801.052	2868
801.544	2862
802.035	2891
802.527	2861
803.019	2853
803.511	2817
804.003	2792
804.495	2806
804.987	2781
805.479	2719
805.971	2756
806.464	2762
806.956	2710
807.448	2686
807.94	2687
808.433	2653
808.925	2631
809.417	2607
809.91	2608
810.402	2551
810.894	2579
811.387	2597
811.879	2556
812.372	2553
812.865	2517
813.357	2497
813.85	2492
814.342	2482
814.835	2494
815.328	2509
815.821	2476
816.313	2492
816.806	2489
817.299	2465
817.792	2478
818.285	2465
818.778	2508
819.271	2534
819.764	2504
820.257	2512
820.75	2515
821.243	2496
821.736	2454
822.229	2467
822.722	2464
823.216	2512
