Data from lamp1helium_zwak_Subt4__11__104.txt Node

Date: Fri Apr 04 10:09:13 CEST 2025
User: fys-lab-0081
Spectrometer: S04999
Trigger mode: 0
Resolution mode: 1024 pixels
Integration Time (sec): 1.000000E-1
Scans to average: 1
Nonlinearity correction enabled: false
Boxcar width: 0
Baseline correction enabled: true
XAxis mode: Wavelengths
Number of Pixels in Spectrum: 1024
>>>>>Begin Spectral Data<<<<<
336.42	4
336.877	3
337.334	5
337.792	9
338.249	7
338.706	9
339.164	8
339.621	10
340.079	10
340.536	3
340.994	6
341.452	9
341.909	10
342.367	10
342.825	13
343.283	11
343.741	11
344.198	7
344.656	7
345.114	14
345.572	10
346.03	13
346.488	11
346.947	11
347.405	12
347.863	8
348.321	15
348.779	15
349.238	16
349.696	13
350.154	17
350.613	19
351.071	19
351.53	16
351.988	20
352.447	20
352.905	19
353.364	16
353.823	25
354.282	22
354.74	27
355.199	27
355.658	23
356.117	24
356.576	22
357.035	26
357.494	25
357.953	25
358.412	23
358.871	27
359.33	33
359.789	29
360.249	31
360.708	35
361.167	28
361.626	37
362.086	35
362.545	35
363.005	36
363.464	45
363.924	39
364.383	40
364.843	43
365.303	42
365.762	48
366.222	49
366.682	45
367.142	49
367.601	54
368.061	50
368.521	54
368.981	49
369.441	54
369.901	50
370.361	56
370.821	58
371.282	56
371.742	53
372.202	59
372.662	63
373.123	63
373.583	63
374.043	67
374.504	65
374.964	67
375.425	70
375.885	73
376.346	74
376.806	69
377.267	78
377.728	73
378.188	79
378.649	80
379.11	80
379.571	82
380.032	85
380.493	86
380.954	94
381.414	93
381.876	98
382.337	100
382.798	101
383.259	104
383.72	104
384.181	118
384.642	118
385.104	118
385.565	124
386.026	126
386.488	137
386.949	129
387.411	139
387.872	144
388.334	136
388.795	143
389.257	147
389.719	151
390.181	151
390.642	161
391.104	162
391.566	163
392.028	176
392.49	172
392.952	178
393.414	181
393.876	186
394.338	193
394.8	193
395.262	199
395.724	202
396.186	205
396.648	212
397.111	206
397.573	209
398.035	208
398.498	221
398.96	224
399.423	226
399.885	223
400.348	229
400.81	243
401.273	243
401.736	243
402.198	252
402.661	261
403.124	262
403.587	276
404.049	278.5
404.512	281
404.975	292
405.438	289
405.901	289
406.364	294
406.827	304
407.29	294
407.754	295
408.217	291
408.68	297
409.143	299
409.607	299
410.07	303
410.533	309
410.997	312
411.46	315
411.924	316
412.387	318
412.851	332
413.314	344
413.778	349
414.242	345
414.705	366
415.169	358
415.633	367
416.097	367
416.561	369
417.024	379
417.488	365
417.952	368
418.416	370
418.88	381
419.344	373
419.809	366
420.273	382
420.737	370
421.201	378
421.665	383
422.13	378
422.594	396
423.059	402
423.523	406
423.987	412
424.452	431
424.916	436
425.381	451
425.846	458
426.31	452
426.775	462
427.24	472
427.704	467
428.169	476
428.634	475
429.099	464
429.564	467
430.029	470
430.494	469
430.959	473
431.424	464
431.889	479
432.354	484
432.819	476
433.284	497
433.75	500
434.215	519
434.68	520
435.146	532
435.611	553
436.077	571
436.542	580
437.008	595
437.473	601
437.939	607
438.404	622
438.87	631
439.336	614
439.801	615
440.267	631
440.733	642
441.199	638
441.665	641
442.131	656
442.596	639
443.062	663
443.529	682
443.995	684
444.461	703
444.927	722
445.393	721
445.859	765
446.325	761
446.792	818
447.258	814
447.724	832
448.191	872
448.657	874
449.124	907
449.59	897
450.057	942
450.523	955
450.99	973
451.457	971
451.923	984
452.39	972
452.857	993
453.324	987
453.791	1000
454.257	1002
454.724	1015
455.191	1007
455.658	993
456.125	1037
456.592	1008
457.059	1035
457.527	1042
457.994	1080
458.461	1074
458.928	1095
459.396	1097
459.863	1132
460.33	1133
460.798	1130
461.265	1148
461.732	1136
462.2	1162
462.668	1155
463.135	1180
463.603	1149
464.07	1178
464.538	1142
465.006	1180
465.474	1142
465.941	1153
466.409	1166
466.877	1131
467.345	1166
467.813	1146
468.281	1161
468.749	1168
469.217	1166
469.685	1175
470.153	1192
470.621	1187
471.09	1185
471.558	1233
472.026	1232
472.494	1263
472.963	1279
473.431	1319
473.9	1337
474.368	1380
474.837	1396
475.305	1424
475.774	1445
476.242	1479
476.711	1492
477.18	1523
477.648	1510
478.117	1532
478.586	1511
479.055	1512
479.524	1520
479.993	1515
480.462	1519
480.93	1521
481.399	1519
481.869	1524
482.338	1506
482.807	1526
483.276	1515
483.745	1515
484.214	1548
484.684	1554
485.153	1551
485.622	1557
486.092	1599
486.561	1566
487.031	1620
487.5	1653
487.97	1652
488.439	1683
488.909	1723
489.378	1789
489.848	1789
490.318	1828
490.787	1899
491.257	1941
491.727	1953
492.197	1991
492.667	1992
493.137	2022
493.607	2032
494.077	2044
494.547	2031
495.017	2012
495.487	2054
495.957	2094
496.427	2044
496.897	2044
497.368	2070
497.838	2052
498.308	2078
498.779	2082
499.249	2096
499.719	2107
500.19	2124
500.66	2133
501.131	2149
501.602	2183
502.072	2181
502.543	2194
503.014	2263
503.484	2256
503.955	2310
504.426	2385
504.897	2386
505.368	2437
505.838	2466
506.309	2521
506.78	2606
507.251	2634
507.722	2685
508.194	2749
508.665	2780
509.136	2779
509.607	2863
510.078	2924
510.549	2932
511.021	3022
511.492	3005
511.964	3045
512.435	3086
512.906	3065
513.378	3094
513.849	3141
514.321	3142
514.793	3171
515.264	3197
515.736	3223
516.208	3269
516.679	3294
517.151	3329
517.623	3355
518.095	3394
518.567	3420
519.038	3469
519.51	3463
519.982	3526
520.454	3568
520.927	3582
521.399	3617
521.871	3655
522.343	3666
522.815	3719
523.287	3731
523.76	3740
524.232	3786
524.704	3821
525.177	3773
525.649	3799
526.122	3836
526.594	3749
527.067	3844
527.539	3881
528.012	3830
528.484	3832
528.957	3843
529.43	3840
529.903	3827
530.375	3947
530.848	3833
531.321	3883
531.794	3872
532.267	3944
532.74	3873
533.213	3872
533.686	3932
534.159	3889
534.632	3981
535.105	3968
535.578	4029
536.051	4042
536.525	4064
536.998	4058
537.471	4138
537.945	4076
538.418	4140
538.891	4156
539.365	4212
539.838	4221
540.312	4251
540.786	4266
541.259	4234
541.733	4304
542.206	4313
542.68	4234
543.154	4224
543.628	4215
544.101	4335
544.575	4306
545.049	4208
545.523	4288
545.997	4243
546.471	4278
546.945	4229
547.419	4292
547.893	4124
548.367	4187
548.842	4149
549.316	4169
549.79	4201
550.264	4160
550.739	4199
551.213	4187
551.687	4187
552.162	4217
552.636	4178
553.111	4146
553.585	4248
554.06	4183
554.534	4278
555.009	4236
555.484	4296
555.958	4335
556.433	4362
556.908	4413
557.383	4353
557.858	4479
558.333	4511
558.807	4455
559.282	4485
559.757	4597
560.232	4626
560.708	4537
561.183	4511
561.658	4568
562.133	4580
562.608	4534
563.083	4647
563.559	4532
564.034	4570
564.509	4572
564.985	4599
565.46	4528
565.936	4590
566.411	4596
566.887	4521
567.362	4556
567.838	4516
568.313	4594
568.789	4560
569.265	4529
569.74	4537
570.216	4492
570.692	4578
571.168	4563
571.644	4561
572.12	4538
572.596	4593
573.071	4562
573.547	4658
574.024	4700
574.5	4716
574.976	4734
575.452	4807
575.928	4814
576.404	4830
576.881	4982
577.357	4901
577.833	4921
578.31	5034
578.786	5101
579.262	5219
579.739	5134
580.215	5269
580.692	5264
581.169	5225
581.645	5251
582.122	5395
582.598	5336
583.075	5350
583.552	5427
584.029	5431
584.506	5402
584.982	5346
585.459	5456
585.936	5399
586.413	5456
586.89	5517
587.367	5436
587.844	5522
588.321	5494
588.799	5515
589.276	5439
589.753	5506
590.23	5544
590.707	5524
591.185	5512
591.662	5469
592.139	5553
592.617	5623
593.094	5630
593.572	5650
594.049	5671
594.527	5716
595.004	5731
595.482	5870
595.96	5819
596.437	5797
596.915	5950
597.393	5886
597.871	6026
598.349	5931
598.826	6036
599.304	6072
599.782	6189
600.26	6099
600.738	6209
601.216	6175
601.694	6246
602.173	6292
602.651	6330
603.129	6243
603.607	6277
604.085	6324
604.564	6324
605.042	6326
605.52	6268
605.999	6417
606.477	6298
606.956	6317
607.434	6341
607.913	6365
608.391	6344
608.87	6356
609.348	6273
609.827	6308
610.306	6310
610.785	6293
611.263	6324
611.742	6308
612.221	6231
612.7	6294
613.179	6319
613.658	6228
614.137	6357
614.616	6403
615.095	6259
615.574	6297
616.053	6332
616.532	6294
617.011	6348
617.491	6353
617.97	6311
618.449	6370
618.928	6456
619.408	6435
619.887	6444
620.367	6424
620.846	6458
621.326	6447
621.805	6580
622.285	6579
622.764	6626
623.244	6621
623.724	6663
624.203	6703
624.683	6564
625.163	6688
625.643	6663
626.123	6609
626.602	6783
627.082	6626
627.562	6622
628.042	6767
628.522	6697
629.002	6693
629.482	6750
629.963	6747
630.443	6644
630.923	6666
631.403	6725
631.883	6697
632.364	6732
632.844	6670
633.324	6658
633.805	6661
634.285	6604
634.766	6566
635.246	6576
635.727	6596
636.207	6585
636.688	6578
637.168	6606
637.649	6536
638.13	6480
638.611	6484
639.091	6495
639.572	6485
640.053	6469
640.534	6510
641.015	6467
641.496	6322
641.977	6429
642.458	6375
642.939	6375
643.42	6382
643.901	6401
644.382	6426
644.863	6419
645.345	6443
645.826	6430
646.307	6432
646.788	6504
647.27	6383
647.751	6433
648.233	6519
648.714	6374
649.196	6534
649.677	6471
650.159	6490
650.64	6428
651.122	6557
651.603	6464
652.085	6516
652.567	6513
653.049	6436
653.53	6432
654.012	6521
654.494	6410
654.976	6457
655.458	6414
655.94	6386
656.422	6496
656.904	6418
657.386	6346
657.868	6322
658.35	6273
658.833	6354
659.315	6377
659.797	6294
660.279	6292
660.762	6345
661.244	6289
661.726	6205
662.209	6198
662.691	6197
663.174	6074
663.656	6101
664.139	6098
664.621	6047
665.104	5993
665.587	6049
666.069	6053
666.552	6029
667.035	5970
667.517	5990
668	6037
668.483	6027
668.966	5977
669.449	5915
669.932	5918
670.415	6002
670.898	5965
671.381	5979
671.864	5981
672.347	5946
672.83	5944
673.313	5976
673.797	5962
674.28	6081
674.763	6058
675.247	6039
675.73	6028
676.213	6087
676.697	6163
677.18	6151
677.664	6147
678.147	6107
678.631	6096
679.114	6120
679.598	6098
680.082	6146
680.565	6136
681.049	6112
681.533	6101
682.017	6170
682.5	6176
682.984	6222
683.468	6220
683.952	6098
684.436	6171
684.92	6088
685.404	6111
685.888	6168
686.372	6115
686.856	6120
687.341	6189
687.825	6088
688.309	6149
688.793	6151
689.278	6079
689.762	6153
690.246	6115
690.731	6109
691.215	6129
691.7	5973
692.184	6058
692.669	6062
693.153	6077
693.638	5948
694.122	5938
694.607	5977
695.092	5915
695.577	5991
696.061	5894
696.546	5879
697.031	5833
697.516	5881
698.001	5911
698.486	5859
698.971	5915
699.456	5794
699.941	5778
700.426	5766
700.911	5823
701.396	5785
701.881	5822
702.366	5809
702.852	5792
703.337	5827
703.822	5796
704.308	5780
704.793	5795
705.278	5798
705.764	5804
706.249	5763
706.735	5768
707.22	5813
707.706	5730
708.191	5818
708.677	5801
709.163	5764
709.648	5782
710.134	5836
710.62	5730
711.106	5717
711.592	5776
712.077	5779
712.563	5658
713.049	5648
713.535	5743
714.021	5702
714.507	5670
714.993	5646
715.479	5704
715.966	5651
716.452	5675
716.938	5677
717.424	5509
717.91	5633
718.397	5579
718.883	5550
719.369	5545
719.856	5487
720.342	5556
720.829	5485
721.315	5516
721.802	5504
722.288	5553
722.775	5367
723.262	5225
723.748	5424
724.235	5358
724.722	5429
725.208	5327
725.695	5353
726.182	5345
726.669	5272
727.156	5275
727.643	5202
728.13	5197
728.617	5166
729.104	5169
729.591	5122
730.078	5155
730.565	5153
731.052	5075
731.539	5092
732.027	5067
732.514	5003
733.001	5083
733.488	5046
733.976	5021
734.463	4991
734.951	4955
735.438	5012
735.926	4975
736.413	5010
736.901	4961
737.388	4999
737.876	4987
738.364	4947
738.851	4976
739.339	4973
739.827	5037
740.314	4897
740.802	4950
741.29	4971
741.778	4887
742.266	4902
742.754	4901
743.242	4953
743.73	4854
744.218	4839
744.706	4779
745.194	4827
745.682	4778
746.17	4796
746.659	4818
747.147	4713
747.635	4747
748.123	4734
748.612	4665
749.1	4610
749.589	4640
750.077	4613
750.566	4590
751.054	4628
751.543	4647
752.031	4549
752.52	4554
753.008	4475
753.497	4465
753.986	4491
754.474	4483
754.963	4516
755.452	4448
755.941	4412
756.43	4389
756.919	4358
757.408	4335
757.896	4350
758.385	4383
758.875	4347
759.364	4317
759.853	4296
760.342	4207
760.831	4304
761.32	4262
761.809	4178
762.299	4214
762.788	4223
763.277	4205
763.767	4120
764.256	4126
764.745	4054
765.235	4120
765.724	4021
766.214	4080
766.703	4050
767.193	4001
767.683	4017
768.172	3946
768.662	3975
769.152	3985
769.641	4013
770.131	3926
770.621	3949
771.111	3912
771.601	3916
772.09	3873
772.58	3834
773.07	3842
773.56	3892
774.05	3823
774.54	3807
775.031	3771
775.521	3733
776.011	3720
776.501	3743
776.991	3673
777.482	3711
777.972	3627
778.462	3639
778.953	3678
779.443	3640
779.933	3617
780.424	3559
780.914	3595
781.405	3610
781.895	3582
782.386	3591
782.877	3577
783.367	3509
783.858	3492
784.349	3491
784.839	3461
785.33	3482
785.821	3439
786.312	3405
786.803	3401
787.293	3399
787.784	3342
788.275	3292
788.766	3283
789.257	3361
789.748	3290
790.24	3265
790.731	3282
791.222	3224
791.713	3227
792.204	3229
792.696	3155
793.187	3199
793.678	3184
794.169	3109
794.661	3157
795.152	3120
795.644	3099
796.135	3088
796.627	3113
797.118	3052
797.61	3047
798.101	3025
798.593	3070
799.085	3019
799.576	3013
800.068	2970
800.56	2977
801.052	2907
801.544	2890
802.035	2914
802.527	2896
803.019	2881
803.511	2852
804.003	2825
804.495	2839
804.987	2816
805.479	2751
805.971	2775
806.464	2793
806.956	2734
807.448	2720
807.94	2718
808.433	2677
808.925	2662
809.417	2645
809.91	2638
810.402	2577
810.894	2611
811.387	2630
811.879	2583
812.372	2572
812.865	2538
813.357	2526
813.85	2518
814.342	2518
814.835	2516
815.328	2533
815.821	2502
816.313	2515
816.806	2524
817.299	2503
817.792	2519
818.285	2497
818.778	2540
819.271	2556
819.764	2531
820.257	2550
820.75	2546
821.243	2526
821.736	2487
822.229	2496
822.722	2487
823.216	2535
