Data from lamp3helium_zwak_Subt4__25__304.txt Node

Date: Fri Apr 04 11:06:31 CEST 2025
User: fys-lab-0081
Spectrometer: S04999
Trigger mode: 0
Resolution mode: 1024 pixels
Integration Time (sec): 1.000000E-1
Scans to average: 1
Nonlinearity correction enabled: false
Boxcar width: 0
Baseline correction enabled: true
XAxis mode: Wavelengths
Number of Pixels in Spectrum: 1024
>>>>>Begin Spectral Data<<<<<
336.42	4
336.877	4
337.334	7
337.792	5
338.249	12
338.706	10
339.164	10
339.621	3
340.079	8
340.536	10
340.994	10
341.452	13
341.909	12
342.367	16
342.825	16
343.283	12
343.741	17
344.198	7
344.656	15
345.114	16
345.572	8
346.03	13
346.488	16
346.947	17
347.405	19
347.863	16
348.321	13
348.779	19
349.238	23
349.696	22
350.154	16
350.613	21
351.071	26
351.53	23
351.988	26
352.447	25
352.905	23
353.364	27
353.823	33
354.282	26
354.74	29
355.199	35
355.658	32
356.117	36
356.576	32
357.035	33
357.494	41
357.953	36
358.412	35
358.871	35
359.33	41
359.789	40
360.249	41
360.708	45
361.167	41
361.626	48
362.086	49
362.545	43
363.005	46
363.464	58
363.924	55
364.383	55
364.843	59
365.303	54
365.762	61
366.222	67
366.682	62
367.142	66
367.601	69
368.061	69
368.521	74
368.981	67
369.441	69
369.901	67
370.361	72
370.821	77
371.282	71
371.742	73
372.202	75
372.662	83
373.123	80
373.583	82
374.043	89
374.504	82
374.964	85
375.425	90
375.885	92
376.346	97
376.806	94
377.267	98
377.728	96
378.188	102
378.649	105
379.11	103
379.571	101
380.032	107
380.493	111
380.954	119
381.414	116
381.876	119
382.337	127
382.798	128
383.259	132
383.72	135
384.181	147
384.642	141
385.104	152
385.565	156
386.026	155
386.488	167
386.949	166
387.411	176
387.872	172
388.334	175
388.795	177
389.257	186
389.719	190
390.181	192
390.642	200
391.104	203
391.566	204
392.028	211
392.49	219
392.952	216
393.414	223
393.876	230
394.338	235
394.8	233
395.262	243
395.724	247
396.186	248
396.648	253
397.111	258
397.573	260
398.035	257
398.498	266
398.96	271
399.423	272
399.885	274
400.348	276
400.81	293
401.273	294
401.736	293
402.198	305
402.661	313
403.124	319
403.587	325
404.049	334
404.512	343
404.975	348
405.438	344
405.901	344
406.364	349
406.827	358
407.29	345
407.754	352
408.217	350
408.68	349
409.143	352
409.607	358
410.07	357
410.533	362
410.997	374
411.46	369
411.924	372
412.387	372
412.851	387
413.314	402
413.778	398
414.242	407
414.705	425
415.169	413
415.633	425
416.097	425
416.561	427
417.024	436
417.488	426
417.952	436
418.416	426
418.88	434
419.344	429
419.809	426
420.273	435
420.737	427
421.201	434
421.665	449
422.13	444
422.594	450
423.059	467
423.523	464
423.987	473
424.452	492
424.916	497
425.381	511
425.846	527
426.31	516
426.775	529
427.24	539
427.704	531
428.169	536
428.634	539
429.099	524
429.564	524
430.029	533
430.494	532
430.959	533
431.424	523
431.889	538
432.354	544
432.819	538
433.284	557
433.75	561
434.215	579
434.68	587
435.146	595
435.611	615
436.077	638
436.542	647
437.008	668
437.473	674
437.939	676
438.404	692
438.87	701
439.336	682
439.801	684
440.267	699
440.733	703
441.199	703
441.665	704
442.131	723
442.596	705
443.062	730
443.529	748
443.995	757
444.461	773
444.927	791
445.393	799
445.859	833
446.325	839
446.792	894
447.258	888
447.724	912
448.191	951
448.657	963
449.124	987
449.59	982
450.057	1022
450.523	1038
450.99	1055
451.457	1053
451.923	1068
452.39	1055
452.857	1076
453.324	1067
453.791	1083
454.257	1082
454.724	1093
455.191	1088
455.658	1084
456.125	1120
456.592	1093
457.059	1115
457.527	1126
457.994	1153
458.461	1153
458.928	1176
459.396	1171
459.863	1215
460.33	1209
460.798	1209
461.265	1229
461.732	1219
462.2	1247
462.668	1236
463.135	1251
463.603	1219
464.07	1253
464.538	1219
465.006	1250
465.474	1214
465.941	1224
466.409	1241
466.877	1204
467.345	1237
467.813	1221
468.281	1222
468.749	1237
469.217	1230
469.685	1241
470.153	1252
470.621	1257
471.09	1256
471.558	1308
472.026	1294
472.494	1331
472.963	1354
473.431	1389
473.9	1403
474.368	1443
474.837	1461
475.305	1493
475.774	1521
476.242	1552
476.711	1559
477.18	1593
477.648	1575
478.117	1597
478.586	1573
479.055	1587
479.524	1593
479.993	1586
480.462	1581
480.93	1587
481.399	1589
481.869	1597
482.338	1573
482.807	1590
483.276	1580
483.745	1579
484.214	1616
484.684	1629
485.153	1622
485.622	1627
486.092	1681
486.561	1643
487.031	1690
487.5	1724
487.97	1714
488.439	1754
488.909	1790
489.378	1859
489.848	1853
490.318	1893
490.787	1971
491.257	2000
491.727	2024
492.197	2055
492.667	2054
493.137	2081
493.607	2091
494.077	2108
494.547	2079
495.017	2075
495.487	2111
495.957	2153
496.427	2097
496.897	2102
497.368	2122
497.838	2107
498.308	2123
498.779	2137
499.249	2143
499.719	2152
500.19	2161
500.66	2172
501.131	2182
501.602	2228
502.072	2226
502.543	2232
503.014	2302
503.484	2292
503.955	2358
504.426	2428
504.897	2426
505.368	2481
505.838	2507
506.309	2577
506.78	2654
507.251	2695
507.722	2739
508.194	2797
508.665	2833
509.136	2831
509.607	2920
510.078	2967
510.549	2985
511.021	3069
511.492	3060
511.964	3079
512.435	3124
512.906	3106
513.378	3124
513.849	3170
514.321	3173
514.793	3200
515.264	3232
515.736	3254
516.208	3304
516.679	3322
517.151	3359
517.623	3372
518.095	3421
518.567	3437
519.038	3495
519.51	3486
519.982	3536
520.454	3577
520.927	3596
521.399	3626
521.871	3658
522.343	3668
522.815	3718
523.287	3714
523.76	3740
524.232	3798
524.704	3821
525.177	3756
525.649	3778
526.122	3823
526.594	3734
527.067	3832
527.539	3862
528.012	3829
528.484	3813
528.957	3813
529.43	3799
529.903	3796
530.375	3912
530.848	3810
531.321	3854
531.794	3846
532.267	3919
532.74	3864
533.213	3844
533.686	3898
534.159	3864
534.632	3954
535.105	3946
535.578	3998
536.051	4016
536.525	4025
536.998	4016
537.471	4091
537.945	4035
538.418	4086
538.891	4100
539.365	4157
539.838	4191
540.312	4182
540.786	4210
541.259	4198
541.733	4256
542.206	4255
542.68	4177
543.154	4156
543.628	4168
544.101	4262
544.575	4234
545.049	4133
545.523	4215
545.997	4178
546.471	4202
546.945	4162
547.419	4218
547.893	4052
548.367	4117
548.842	4071
549.316	4088
549.79	4108
550.264	4072
550.739	4115
551.213	4107
551.687	4116
552.162	4138
552.636	4095
553.111	4076
553.585	4174
554.06	4099
554.534	4192
555.009	4146
555.484	4212
555.958	4247
556.433	4264
556.908	4313
557.383	4255
557.858	4364
558.333	4377
558.807	4318
559.282	4361
559.757	4474
560.232	4502
560.708	4407
561.183	4395
561.658	4454
562.133	4455
562.608	4407
563.083	4522
563.559	4403
564.034	4418
564.509	4416
564.985	4436
565.46	4372
565.936	4444
566.411	4446
566.887	4370
567.362	4393
567.838	4367
568.313	4436
568.789	4385
569.265	4379
569.74	4396
570.216	4364
570.692	4435
571.168	4418
571.644	4408
572.12	4392
572.596	4431
573.071	4412
573.547	4500
574.024	4532
574.5	4541
574.976	4549
575.452	4619
575.928	4645
576.404	4661
576.881	4815
577.357	4739
577.833	4764
578.31	4884
578.786	4938
579.262	5026
579.739	4959
580.215	5091
580.692	5083
581.169	5049
581.645	5061
582.122	5190
582.598	5149
583.075	5149
583.552	5203
584.029	5210
584.506	5190
584.982	5144
585.459	5255
585.936	5178
586.413	5228
586.89	5293
587.367	5222
587.844	5292
588.321	5255
588.799	5263
589.276	5202
589.753	5274
590.23	5288
590.707	5275
591.185	5256
591.662	5230
592.139	5295
592.617	5366
593.094	5347
593.572	5377
594.049	5417
594.527	5467
595.004	5465
595.482	5587
595.96	5538
596.437	5521
596.915	5673
597.393	5573
597.871	5696
598.349	5620
598.826	5733
599.304	5754
599.782	5864
600.26	5765
600.738	5863
601.216	5819
601.694	5877
602.173	5938
602.651	5966
603.129	5908
603.607	5952
604.085	5989
604.564	5965
605.042	5989
605.52	5943
605.999	6079
606.477	5955
606.956	5948
607.434	5959.5
607.913	5971
608.391	5958
608.87	5960
609.348	5889
609.827	5907
610.306	5932
610.785	5918
611.263	5942
611.742	5919
612.221	5815
612.7	5877
613.179	5892
613.658	5827
614.137	5966
614.616	5998
615.095	5849
615.574	5901
616.053	5953
616.532	5913
617.011	5917
617.491	5921
617.97	5884
618.449	5958
618.928	6014
619.408	5987
619.887	6021
620.367	6021
620.846	6073
621.326	6069
621.805	6180
622.285	6148
622.764	6189
623.244	6197
623.724	6232
624.203	6275
624.683	6162
625.163	6279
625.643	6255
626.123	6203
626.602	6339
627.082	6179
627.562	6180
628.042	6310
628.522	6251
629.002	6257
629.482	6295
629.963	6262
630.443	6171
630.923	6191
631.403	6253
631.883	6228
632.364	6248
632.844	6181
633.324	6170
633.805	6176
634.285	6111
634.766	6091
635.246	6081
635.727	6083
636.207	6080
636.688	6093
637.168	6107
637.649	6028
638.13	5981
638.611	6006
639.091	6005
639.572	6013
640.053	5981
640.534	6012
641.015	5967
641.496	5874
641.977	5961
642.458	5878
642.939	5886
643.42	5884
643.901	5895
644.382	5924
644.863	5924
645.345	5925
645.826	5918
646.307	5895
646.788	5984
647.27	5883
647.751	5939
648.233	6002
648.714	5878
649.196	6024
649.677	5976
650.159	5992
650.64	5918
651.122	5998
651.603	5886
652.085	5933
652.567	5932
653.049	5874
653.53	5861
654.012	5937
654.494	5806
654.976	5827
655.458	5802
655.94	5794
656.422	5896
656.904	5839
657.386	5763
657.868	5750
658.35	5722
658.833	5801
659.315	5800
659.797	5713
660.279	5723
660.762	5741
661.244	5702
661.726	5657
662.209	5663
662.691	5662
663.174	5529
663.656	5558
664.139	5574
664.621	5528
665.104	5483
665.587	5513
666.069	5496
666.552	5470
667.035	5415
667.517	5429
668	5475
668.483	5449
668.966	5401
669.449	5360
669.932	5388
670.415	5475
670.898	5421
671.381	5429
671.864	5436
672.347	5380
672.83	5378
673.313	5404
673.797	5384
674.28	5452
674.763	5435
675.247	5423
675.73	5406
676.213	5470
676.697	5531
677.18	5516
677.664	5523
678.147	5510
678.631	5501
679.114	5543
679.598	5525
680.082	5567
680.565	5550
681.049	5533
681.533	5527
682.017	5601
682.5	5582
682.984	5620
683.468	5583
683.952	5469
684.436	5541
684.92	5481
685.404	5508
685.888	5542
686.372	5483
686.856	5497
687.341	5540
687.825	5473
688.309	5500
688.793	5495
689.278	5435
689.762	5484
690.246	5455
690.731	5473
691.215	5478
691.7	5320
692.184	5365
692.669	5359
693.153	5367
693.638	5287
694.122	5294
694.607	5325
695.092	5252
695.577	5306
696.061	5203
696.546	5205
697.031	5172
697.516	5219
698.001	5217
698.486	5161
698.971	5218
699.456	5119
699.941	5116
700.426	5123
700.911	5158
701.396	5096
701.881	5126
702.366	5083
702.852	5057
703.337	5071
703.822	5050
704.308	5047
704.793	5075
705.278	5072
705.764	5066
706.249	5025
706.735	5027
707.22	5076
707.706	4986
708.191	5077
708.677	5067
709.163	5018
709.648	5061
710.134	5098
710.62	5017
711.106	4995
711.592	5057
712.077	5042
712.563	4933
713.049	4924
713.535	5017
714.021	4970
714.507	4944
714.993	4894
715.479	4967
715.966	4898
716.452	4892
716.938	4908
717.424	4765
717.91	4871
718.397	4814
718.883	4780
719.369	4777
719.856	4752
720.342	4802
720.829	4719
721.315	4730
721.802	4708
722.288	4759
722.775	4592
723.262	4473
723.748	4664
724.235	4604
724.722	4660
725.208	4581
725.695	4582
726.182	4560
726.669	4490
727.156	4511
727.643	4457
728.13	4474
728.617	4444
729.104	4450
729.591	4402
730.078	4436
730.565	4431
731.052	4364
731.539	4390
732.027	4351
732.514	4276
733.001	4324
733.488	4299
733.976	4294
734.463	4284
734.951	4270
735.438	4316
735.926	4252
736.413	4257
736.901	4202
737.388	4236
737.876	4201
738.364	4149
738.851	4165
739.339	4148
739.827	4197
740.314	4080
740.802	4121
741.29	4150
741.778	4093
742.266	4099
742.754	4094
743.242	4121
743.73	4054
744.218	4056
744.706	3995
745.194	4042
745.682	4005
746.17	4046
746.659	4071
747.147	3962
747.635	3984
748.123	3966
748.612	3924
749.1	3883
749.589	3903
750.077	3857
750.566	3820
751.054	3847
751.543	3861
752.031	3784
752.52	3782
753.008	3695
753.497	3681
753.986	3675
754.474	3660
754.963	3686
755.452	3632
755.941	3601
756.43	3581
756.919	3560
757.408	3535
757.896	3553
758.385	3561
758.875	3527
759.364	3490
759.853	3482
760.342	3433
760.831	3515
761.32	3486
761.809	3440
762.299	3454
762.788	3451
763.277	3429
763.767	3361
764.256	3354
764.745	3298
765.235	3348
765.724	3261
766.214	3298
766.703	3270
767.193	3221
767.683	3222
768.172	3176
768.662	3210
769.152	3203
769.641	3205
770.131	3120
770.621	3145
771.111	3091
771.601	3101
772.09	3078
772.58	3049
773.07	3056
773.56	3088
774.05	3017
774.54	2996
775.031	2968
775.521	2939
776.011	2936
776.501	2959
776.991	2917
777.482	2960
777.972	2866
778.462	2862
778.953	2888
779.443	2871
779.933	2873
780.424	2818
780.914	2838
781.405	2839
781.895	2799
782.386	2800
782.877	2776
783.367	2722
783.858	2712
784.349	2719
784.839	2702
785.33	2717
785.821	2693
786.312	2664
786.803	2656
787.293	2657
787.784	2619
788.275	2583
788.766	2568
789.257	2609
789.748	2542
790.24	2517
790.731	2538
791.222	2510
791.713	2502
792.204	2511
792.696	2458
793.187	2478
793.678	2463
794.169	2403
794.661	2439
795.152	2409
795.644	2393
796.135	2373
796.627	2381
797.118	2341
797.61	2333
798.101	2318
798.593	2340
799.085	2295
799.576	2283
800.068	2254
800.56	2256
801.052	2207
801.544	2198
802.035	2215
802.527	2189
803.019	2170
803.511	2158
804.003	2140
804.495	2151
804.987	2123
805.479	2069
805.971	2089
806.464	2110
806.956	2058
807.448	2059
807.94	2040
808.433	2027
808.925	2018
809.417	2015
809.91	2005
810.402	1968
810.894	1989
811.387	1993
811.879	1958
812.372	1948
812.865	1921
813.357	1910
813.85	1898
814.342	1885
814.835	1889
815.328	1888
815.821	1866
816.313	1866
816.806	1861
817.299	1845
817.792	1867
818.285	1850
818.778	1881
819.271	1874
819.764	1838
820.257	1834
820.75	1834
821.243	1820
821.736	1801
822.229	1821
822.722	1822
823.216	1854
