Data from lamp3helium_zwak_Subt4__29__308.txt Node

Date: Fri Apr 04 11:06:31 CEST 2025
User: fys-lab-0081
Spectrometer: S04999
Trigger mode: 0
Resolution mode: 1024 pixels
Integration Time (sec): 1.000000E-1
Scans to average: 1
Nonlinearity correction enabled: false
Boxcar width: 0
Baseline correction enabled: true
XAxis mode: Wavelengths
Number of Pixels in Spectrum: 1024
>>>>>Begin Spectral Data<<<<<
336.42	1
336.877	3
337.334	9
337.792	7
338.249	7
338.706	10
339.164	6
339.621	7
340.079	10
340.536	9
340.994	9
341.452	11
341.909	9
342.367	10
342.825	14
343.283	14
343.741	16
344.198	6
344.656	12
345.114	16
345.572	12
346.03	12
346.488	13
346.947	16
347.405	19
347.863	15
348.321	15
348.779	23
349.238	18
349.696	27
350.154	20
350.613	21
351.071	21
351.53	22
351.988	22
352.447	25
352.905	26
353.364	27
353.823	35
354.282	25
354.74	31
355.199	35
355.658	30
356.117	36
356.576	35
357.035	37
357.494	34
357.953	34
358.412	38
358.871	42
359.33	44
359.789	40
360.249	44
360.708	50
361.167	38
361.626	49
362.086	47
362.545	50
363.005	46
363.464	55
363.924	53
364.383	56
364.843	59
365.303	56
365.762	66
366.222	70
366.682	60
367.142	67
367.601	70
368.061	68
368.521	71
368.981	66
369.441	73
369.901	63
370.361	70
370.821	75
371.282	71
371.742	76
372.202	73
372.662	77
373.123	80
373.583	83
374.043	89
374.504	80
374.964	89
375.425	92
375.885	95
376.346	95
376.806	92
377.267	102
377.728	98
378.188	100
378.649	101
379.11	100
379.571	103
380.032	110
380.493	108
380.954	118
381.414	119
381.876	128
382.337	124
382.798	125
383.259	136
383.72	138
384.181	146
384.642	149
385.104	154
385.565	154
386.026	158
386.488	170
386.949	167
387.411	174
387.872	177
388.334	178
388.795	179
389.257	183
389.719	190
390.181	191
390.642	202
391.104	203
391.566	204
392.028	212
392.49	215
392.952	221
393.414	229
393.876	230
394.338	234
394.8	237
395.262	243
395.724	253
396.186	251
396.648	258
397.111	255
397.573	262
398.035	259
398.498	270
398.96	271
399.423	275
399.885	279
400.348	278
400.81	293
401.273	290
401.736	289
402.198	306
402.661	314
403.124	320
403.587	325
404.049	335
404.512	345
404.975	353
405.438	344
405.901	346
406.364	346
406.827	357
407.29	351
407.754	356
408.217	341
408.68	348
409.143	354
409.607	356
410.07	353
410.533	365
410.997	369
411.46	378
411.924	373
412.387	374
412.851	392
413.314	407
413.778	402
414.242	416
414.705	422
415.169	421
415.633	427
416.097	427
416.561	429
417.024	439
417.488	429
417.952	438
418.416	424
418.88	436
419.344	429
419.809	429
420.273	440
420.737	426
421.201	437
421.665	443
422.13	442
422.594	452
423.059	461
423.523	471
423.987	476
424.452	490
424.916	498
425.381	519
425.846	522
426.31	520
426.775	531
427.24	542
427.704	527
428.169	534
428.634	539
429.099	527
429.564	530
430.029	532
430.494	535
430.959	530
431.424	526
431.889	543
432.354	547
432.819	539
433.284	560
433.75	560
434.215	584
434.68	584
435.146	600
435.611	622
436.077	640
436.542	651
437.008	668
437.473	673
437.939	678
438.404	696
438.87	702
439.336	680
439.801	692
440.267	699
440.733	707
441.199	710
441.665	708
442.131	728
442.596	704
443.062	736
443.529	748
443.995	759
444.461	774
444.927	799
445.393	800
445.859	839
446.325	844
446.792	898
447.258	890
447.724	917
448.191	951
448.657	965
449.124	993
449.59	981
450.057	1025
450.523	1041
450.99	1062
451.457	1057
451.923	1071
452.39	1055
452.857	1076
453.324	1065
453.791	1081
454.257	1087
454.724	1096
455.191	1086
455.658	1079
456.125	1122
456.592	1102
457.059	1117
457.527	1125
457.994	1163
458.461	1158
458.928	1179
459.396	1178
459.863	1212
460.33	1211
460.798	1215
461.265	1226
461.732	1217
462.2	1252
462.668	1242
463.135	1260
463.603	1225
464.07	1258
464.538	1210
465.006	1254
465.474	1218
465.941	1225
466.409	1241
466.877	1208
467.345	1239
467.813	1216
468.281	1229
468.749	1240
469.217	1236
469.685	1247
470.153	1259
470.621	1258
471.09	1256
471.558	1308
472.026	1300
472.494	1336
472.963	1354
473.431	1389
473.9	1415
474.368	1441
474.837	1461
475.305	1492
475.774	1525
476.242	1560
476.711	1565
477.18	1595
477.648	1582
478.117	1604
478.586	1582
479.055	1590
479.524	1596
479.993	1592
480.462	1588
480.93	1597
481.399	1596
481.869	1602
482.338	1573
482.807	1600
483.276	1589
483.745	1589
484.214	1625
484.684	1634
485.153	1629
485.622	1638
486.092	1685
486.561	1646
487.031	1696
487.5	1726
487.97	1724
488.439	1765
488.909	1798
489.378	1859
489.848	1864
490.318	1905
490.787	1974
491.257	2010
491.727	2031
492.197	2070
492.667	2060
493.137	2088
493.607	2092
494.077	2115
494.547	2093
495.017	2080
495.487	2121
495.957	2157
496.427	2109
496.897	2104
497.368	2131
497.838	2110
498.308	2135
498.779	2141
499.249	2144
499.719	2151
500.19	2163
500.66	2190
501.131	2191
501.602	2240
502.072	2232
502.543	2238
503.014	2314
503.484	2305
503.955	2368
504.426	2437
504.897	2440
505.368	2484
505.838	2521
506.309	2583
506.78	2664
507.251	2707
507.722	2747
508.194	2808
508.665	2850
509.136	2840
509.607	2925
510.078	2976
510.549	2999
511.021	3074
511.492	3066
511.964	3107
512.435	3131
512.906	3115
513.378	3134
513.849	3188
514.321	3187
514.793	3214
515.264	3231
515.736	3268
516.208	3322
516.679	3336
517.151	3375
517.623	3392
518.095	3425
518.567	3446
519.038	3508
519.51	3500
519.982	3551
520.454	3598
520.927	3609
521.399	3648
521.871	3673
522.343	3686
522.815	3741
523.287	3730
523.76	3757
524.232	3812
524.704	3841
525.177	3779
525.649	3797
526.122	3835
526.594	3747
527.067	3839
527.539	3879
528.012	3841
528.484	3830
528.957	3835
529.43	3827
529.903	3815
530.375	3935
530.848	3827
531.321	3881
531.794	3864
532.267	3940
532.74	3878
533.213	3858
533.686	3909
534.159	3889
534.632	3968
535.105	3968
535.578	4021
536.051	4026
536.525	4048
536.998	4037
537.471	4112
537.945	4048
538.418	4108
538.891	4126
539.365	4189
539.838	4206
540.312	4199
540.786	4235
541.259	4215
541.733	4272
542.206	4260
542.68	4191
543.154	4181
543.628	4167
544.101	4288
544.575	4260
545.049	4152
545.523	4222
545.997	4192
546.471	4222
546.945	4175
547.419	4241
547.893	4073
548.367	4127
548.842	4091
549.316	4102
549.79	4128
550.264	4080
550.739	4130
551.213	4127
551.687	4136
552.162	4162
552.636	4112
553.111	4094
553.585	4186
554.06	4120
554.534	4211
555.009	4165
555.484	4238
555.958	4269
556.433	4286
556.908	4326
557.383	4277
557.858	4385
558.333	4404
558.807	4342
559.282	4375
559.757	4493
560.232	4515
560.708	4433
561.183	4426
561.658	4471
562.133	4470
562.608	4432
563.083	4538
563.559	4414
564.034	4442
564.509	4445
564.985	4459
565.46	4388
565.936	4466
566.411	4475
566.887	4396
567.362	4418
567.838	4386
568.313	4459
568.789	4413
569.265	4399
569.74	4422
570.216	4388
570.692	4460
571.168	4443
571.644	4430
572.12	4425
572.596	4453
573.071	4431
573.547	4523
574.024	4551
574.5	4559
574.976	4586
575.452	4642
575.928	4682
576.404	4690
576.881	4836
577.357	4755
577.833	4789
578.31	4902
578.786	4962
579.262	5066
579.739	4977
580.215	5106
580.692	5112
581.169	5082
581.645	5088
582.122	5216
582.598	5180
583.075	5179
583.552	5221
584.029	5229
584.506	5204
584.982	5173
585.459	5282
585.936	5202
586.413	5263
586.89	5311
587.367	5241
587.844	5318
588.321	5274
588.799	5284
589.276	5231
589.753	5284
590.23	5309
590.707	5298
591.185	5290
591.662	5264
592.139	5334
592.617	5395
593.094	5363
593.572	5401
594.049	5448
594.527	5493
595.004	5495
595.482	5619
595.96	5562
596.437	5554
596.915	5694
597.393	5611
597.871	5733
598.349	5640
598.826	5774
599.304	5781
599.782	5895
600.26	5803
600.738	5887
601.216	5850
601.694	5902
602.173	5976
602.651	6017
603.129	5929
603.607	5976
604.085	6017
604.564	6016
605.042	6019
605.52	5973
605.999	6108
606.477	5983
606.956	5972
607.434	5980.5
607.913	5989
608.391	5993
608.87	6013
609.348	5924
609.827	5947
610.306	5952
610.785	5957
611.263	5982
611.742	5946
612.221	5840
612.7	5890
613.179	5924
613.658	5848
614.137	5974
614.616	6028
615.095	5880
615.574	5936
616.053	5982
616.532	5937
617.011	5942
617.491	5938
617.97	5913
618.449	5987
618.928	6041
619.408	6011
619.887	6054
620.367	6042
620.846	6112
621.326	6093
621.805	6210
622.285	6189
622.764	6224
623.244	6219
623.724	6249
624.203	6310
624.683	6202
625.163	6307
625.643	6275
626.123	6243
626.602	6374
627.082	6207
627.562	6207
628.042	6351
628.522	6290
629.002	6292
629.482	6329
629.963	6298
630.443	6201
630.923	6220
631.403	6280
631.883	6265
632.364	6281
632.844	6214
633.324	6193
633.805	6210
634.285	6136
634.766	6119
635.246	6105
635.727	6094
636.207	6116
636.688	6108
637.168	6131
637.649	6057
638.13	6001
638.611	6022
639.091	6043
639.572	6046
640.053	6001
640.534	6038
641.015	6008
641.496	5899
641.977	5981
642.458	5912
642.939	5909
643.42	5923
643.901	5930
644.382	5962
644.863	5950
645.345	5950
645.826	5949
646.307	5914
646.788	6009
647.27	5910
647.751	5957
648.233	6036
648.714	5898
649.196	6053
649.677	6009
650.159	6014
650.64	5955
651.122	6025
651.603	5916
652.085	5963
652.567	5965
653.049	5885
653.53	5891
654.012	5968
654.494	5836
654.976	5870
655.458	5833
655.94	5824
656.422	5932
656.904	5867
657.386	5791
657.868	5791
658.35	5758
658.833	5832
659.315	5832
659.797	5754
660.279	5747
660.762	5785
661.244	5743
661.726	5684
662.209	5697
662.691	5685
663.174	5562
663.656	5590
664.139	5596
664.621	5576
665.104	5503
665.587	5535
666.069	5516
666.552	5493
667.035	5445
667.517	5461
668	5494
668.483	5496
668.966	5442
669.449	5381
669.932	5424
670.415	5511
670.898	5455
671.381	5460
671.864	5460
672.347	5414
672.83	5423
673.313	5444
673.797	5409
674.28	5483
674.763	5467
675.247	5459
675.73	5448
676.213	5507
676.697	5562
677.18	5550
677.664	5562
678.147	5546
678.631	5542
679.114	5578
679.598	5570
680.082	5597
680.565	5595
681.049	5565
681.533	5563
682.017	5640
682.5	5625
682.984	5648
683.468	5610
683.952	5495
684.436	5572
684.92	5516
685.404	5546
685.888	5571
686.372	5527
686.856	5512
687.341	5583
687.825	5506
688.309	5543
688.793	5541
689.278	5468
689.762	5519
690.246	5494
690.731	5501
691.215	5501
691.7	5349
692.184	5395
692.669	5383
693.153	5404
693.638	5312
694.122	5317
694.607	5357
695.092	5281
695.577	5326
696.061	5228
696.546	5228
697.031	5207
697.516	5245
698.001	5254
698.486	5189
698.971	5255
699.456	5145
699.941	5151
700.426	5141
700.911	5199
701.396	5146
701.881	5152
702.366	5102
702.852	5077
703.337	5107
703.822	5095
704.308	5085
704.793	5105
705.278	5101
705.764	5091
706.249	5055
706.735	5052
707.22	5109
707.706	5024
708.191	5119
708.677	5110
709.163	5059
709.648	5088
710.134	5119
710.62	5054
711.106	5040
711.592	5091
712.077	5084
712.563	4954
713.049	4966
713.535	5058
714.021	5025
714.507	4983
714.993	4925
715.479	5000
715.966	4920
716.452	4927
716.938	4930
717.424	4794
717.91	4904
718.397	4860
718.883	4813
719.369	4817
719.856	4795
720.342	4840
720.829	4759
721.315	4777
721.802	4750
722.288	4796
722.775	4611
723.262	4503
723.748	4680
724.235	4643
724.722	4691
725.208	4596
725.695	4617
726.182	4598
726.669	4537
727.156	4552
727.643	4497
728.13	4499
728.617	4465
729.104	4481
729.591	4438
730.078	4472
730.565	4479
731.052	4412
731.539	4420
732.027	4377
732.514	4317
733.001	4362
733.488	4346
733.976	4337
734.463	4329
734.951	4318
735.438	4348
735.926	4295
736.413	4294
736.901	4218
737.388	4254
737.876	4229
738.364	4183
738.851	4192
739.339	4178
739.827	4218
740.314	4113
740.802	4151
741.29	4175
741.778	4119
742.266	4116
742.754	4121
743.242	4164
743.73	4091
744.218	4099
744.706	4028
745.194	4078
745.682	4056
746.17	4080
746.659	4102
747.147	4003
747.635	4007
748.123	3997
748.612	3954
749.1	3920
749.589	3944
750.077	3911
750.566	3862
751.054	3876
751.543	3893
752.031	3819
752.52	3806
753.008	3722
753.497	3709
753.986	3712
754.474	3695
754.963	3723
755.452	3672
755.941	3630
756.43	3609
756.919	3593
757.408	3566
757.896	3575
758.385	3588
758.875	3553
759.364	3524
759.853	3500
760.342	3455
760.831	3536
761.32	3525
761.809	3483
762.299	3497
762.788	3480
763.277	3452
763.767	3385
764.256	3385
764.745	3332
765.235	3378
765.724	3282
766.214	3322
766.703	3294
767.193	3248
767.683	3259
768.172	3195
768.662	3233
769.152	3240
769.641	3235
770.131	3148
770.621	3167
771.111	3127
771.601	3131
772.09	3104
772.58	3083
773.07	3089
773.56	3124
774.05	3050
774.54	3032
775.031	3006
775.521	2971
776.011	2979
776.501	3001
776.991	2951
777.482	2990
777.972	2899
778.462	2896
778.953	2926
779.443	2911
779.933	2895
780.424	2849
780.914	2873
781.405	2865
781.895	2827
782.386	2829
782.877	2799
783.367	2747
783.858	2738
784.349	2747
784.839	2731
785.33	2745
785.821	2726
786.312	2699
786.803	2690
787.293	2686
787.784	2648
788.275	2616
788.766	2589
789.257	2636
789.748	2573
790.24	2549
790.731	2560
791.222	2531
791.713	2521
792.204	2534
792.696	2475
793.187	2510
793.678	2499
794.169	2433
794.661	2470
795.152	2443
795.644	2419
796.135	2406
796.627	2416
797.118	2361
797.61	2367
798.101	2343
798.593	2368
799.085	2314
799.576	2310
800.068	2279
800.56	2283
801.052	2230
801.544	2221
802.035	2234
802.527	2214
803.019	2197
803.511	2198
804.003	2174
804.495	2178
804.987	2149
805.479	2097
805.971	2113
806.464	2128
806.956	2072
807.448	2073
807.94	2066
808.433	2060
808.925	2046
809.417	2041
809.91	2037
810.402	1995
810.894	2018
811.387	2017
811.879	1976
812.372	1968
812.865	1941
813.357	1932
813.85	1922
814.342	1912
814.835	1919
815.328	1914
815.821	1893
816.313	1889
816.806	1884
817.299	1868
817.792	1884
818.285	1868
818.778	1905
819.271	1905
819.764	1869
820.257	1858
820.75	1854
821.243	1840
821.736	1824
822.229	1849
822.722	1842
823.216	1878
