Data from lamp3helium_zwak_Subt4__17__296.txt Node

Date: Fri Apr 04 11:06:30 CEST 2025
User: fys-lab-0081
Spectrometer: S04999
Trigger mode: 0
Resolution mode: 1024 pixels
Integration Time (sec): 1.000000E-1
Scans to average: 1
Nonlinearity correction enabled: false
Boxcar width: 0
Baseline correction enabled: true
XAxis mode: Wavelengths
Number of Pixels in Spectrum: 1024
>>>>>Begin Spectral Data<<<<<
336.42	5
336.877	3
337.334	8
337.792	11
338.249	4
338.706	13
339.164	7
339.621	10
340.079	10
340.536	9
340.994	3
341.452	15
341.909	8
342.367	12
342.825	15
343.283	10
343.741	17
344.198	8
344.656	13
345.114	13
345.572	12
346.03	11
346.488	12
346.947	14
347.405	17
347.863	18
348.321	16
348.779	18
349.238	16
349.696	19
350.154	18
350.613	23
351.071	22
351.53	22
351.988	24
352.447	24
352.905	23
353.364	25
353.823	35
354.282	29
354.74	29
355.199	32
355.658	32
356.117	34
356.576	31
357.035	35
357.494	37
357.953	35
358.412	36
358.871	37
359.33	43
359.789	41
360.249	41
360.708	45
361.167	44
361.626	45
362.086	48
362.545	49
363.005	45
363.464	55
363.924	53
364.383	59
364.843	59
365.303	57
365.762	62
366.222	64
366.682	60
367.142	62
367.601	69
368.061	68
368.521	68
368.981	68
369.441	73
369.901	68
370.361	71
370.821	73
371.282	69
371.742	75
372.202	76
372.662	76
373.123	76
373.583	82
374.043	88
374.504	84
374.964	85
375.425	93
375.885	99
376.346	99
376.806	93
377.267	96
377.728	95
378.188	100
378.649	101
379.11	100
379.571	104
380.032	111
380.493	111
380.954	114
381.414	116
381.876	123
382.337	124
382.798	123
383.259	135
383.72	134
384.181	141
384.642	143
385.104	153
385.565	153
386.026	158
386.488	169
386.949	165
387.411	172
387.872	175
388.334	175
388.795	181
389.257	181
389.719	189
390.181	193
390.642	197
391.104	201
391.566	203
392.028	209
392.49	214
392.952	219
393.414	224
393.876	228
394.338	236
394.8	236
395.262	236
395.724	247
396.186	249
396.648	256
397.111	254
397.573	255
398.035	256
398.498	269
398.96	264
399.423	273
399.885	273
400.348	278
400.81	287
401.273	287
401.736	285
402.198	306
402.661	318
403.124	316
403.587	323
404.049	330.5
404.512	338
404.975	351
405.438	342
405.901	349
406.364	346
406.827	353
407.29	348
407.754	349
408.217	342
408.68	351
409.143	351
409.607	355
410.07	352
410.533	356
410.997	368
411.46	371
411.924	366
412.387	372
412.851	390
413.314	404
413.778	402
414.242	401
414.705	424
415.169	414
415.633	423
416.097	424
416.561	426
417.024	436
417.488	423
417.952	427
418.416	422
418.88	430
419.344	426
419.809	427
420.273	438
420.737	424
421.201	440
421.665	445
422.13	437
422.594	451
423.059	462
423.523	466
423.987	470
424.452	489
424.916	498
425.381	510
425.846	522
426.31	511
426.775	525
427.24	532
427.704	525
428.169	537
428.634	533
429.099	522
429.564	524
430.029	528
430.494	530
430.959	533
431.424	522
431.889	537
432.354	547
432.819	535
433.284	555
433.75	555
434.215	581
434.68	581
435.146	588
435.611	620
436.077	636
436.542	649
437.008	664
437.473	669
437.939	669
438.404	692
438.87	697
439.336	680
439.801	680
440.267	696
440.733	705
441.199	709
441.665	702
442.131	722
442.596	701
443.062	729
443.529	748
443.995	755
444.461	769
444.927	796
445.393	798
445.859	832
446.325	840
446.792	896
447.258	884
447.724	909
448.191	947
448.657	951
449.124	987
449.59	975
450.057	1021
450.523	1033
450.99	1050
451.457	1050
451.923	1069
452.39	1049
452.857	1072
453.324	1065
453.791	1081
454.257	1082
454.724	1093
455.191	1083
455.658	1076
456.125	1119
456.592	1089
457.059	1110
457.527	1126
457.994	1159
458.461	1147
458.928	1168
459.396	1169
459.863	1206
460.33	1206
460.798	1213
461.265	1221
461.732	1215
462.2	1240
462.668	1232
463.135	1250
463.603	1217
464.07	1252
464.538	1214
465.006	1245
465.474	1213
465.941	1227
466.409	1233
466.877	1205
467.345	1233
467.813	1216
468.281	1223
468.749	1238
469.217	1231
469.685	1245
470.153	1259
470.621	1250
471.09	1254
471.558	1303
472.026	1294
472.494	1326
472.963	1341
473.431	1384
473.9	1412
474.368	1437
474.837	1460
475.305	1487
475.774	1518
476.242	1558
476.711	1567
477.18	1596
477.648	1576
478.117	1600
478.586	1580
479.055	1589
479.524	1590
479.993	1585
480.462	1582
480.93	1583
481.399	1589
481.869	1593
482.338	1570
482.807	1591
483.276	1576
483.745	1580
484.214	1617
484.684	1628
485.153	1619
485.622	1629
486.092	1679
486.561	1640
487.031	1689
487.5	1724
487.97	1723
488.439	1750
488.909	1794
489.378	1857
489.848	1856
490.318	1896
490.787	1970
491.257	2004
491.727	2029
492.197	2058
492.667	2052
493.137	2083
493.607	2100
494.077	2107
494.547	2080
495.017	2073
495.487	2118
495.957	2159
496.427	2102
496.897	2102
497.368	2125
497.838	2104
498.308	2128
498.779	2133
499.249	2140
499.719	2146
500.19	2165
500.66	2180
501.131	2188
501.602	2224
502.072	2227
502.543	2227
503.014	2313
503.484	2295
503.955	2348
504.426	2421
504.897	2428
505.368	2476
505.838	2514
506.309	2577
506.78	2655
507.251	2691
507.722	2739
508.194	2799
508.665	2840
509.136	2835
509.607	2919
510.078	2964
510.549	2994
511.021	3062
511.492	3058
511.964	3088
512.435	3121
512.906	3102
513.378	3129
513.849	3171
514.321	3179
514.793	3212
515.264	3232
515.736	3259
516.208	3306
516.679	3332
517.151	3369
517.623	3378
518.095	3422
518.567	3448
519.038	3508
519.51	3490
519.982	3541
520.454	3583
520.927	3597
521.399	3629
521.871	3653
522.343	3673
522.815	3726
523.287	3720
523.76	3747
524.232	3804
524.704	3838
525.177	3765
525.649	3783
526.122	3828
526.594	3731
527.067	3831
527.539	3864
528.012	3834
528.484	3816
528.957	3824
529.43	3805
529.903	3793
530.375	3919
530.848	3815
531.321	3861
531.794	3863
532.267	3920
532.74	3863
533.213	3853
533.686	3905
534.159	3871
534.632	3957
535.105	3951
535.578	4008
536.051	4027
536.525	4049
536.998	4022
537.471	4100
537.945	4042
538.418	4088
538.891	4106
539.365	4175
539.838	4199
540.312	4193
540.786	4221
541.259	4214
541.733	4267
542.206	4251
542.68	4182
543.154	4177
543.628	4173
544.101	4274
544.575	4244
545.049	4149
545.523	4222
545.997	4186
546.471	4213
546.945	4166
547.419	4225
547.893	4068
548.367	4125
548.842	4083
549.316	4092
549.79	4116
550.264	4072
550.739	4118
551.213	4117
551.687	4119
552.162	4162
552.636	4096
553.111	4073
553.585	4173
554.06	4114
554.534	4210
555.009	4171
555.484	4215
555.958	4266
556.433	4279
556.908	4332
557.383	4271
557.858	4372
558.333	4386
558.807	4336
559.282	4370
559.757	4486
560.232	4518
560.708	4430
561.183	4405
561.658	4463
562.133	4465
562.608	4422
563.083	4544
563.559	4405
564.034	4432
564.509	4426
564.985	4445
565.46	4383
565.936	4464
566.411	4467
566.887	4391
567.362	4418
567.838	4387
568.313	4448
568.789	4397
569.265	4386
569.74	4418
570.216	4379
570.692	4453
571.168	4431
571.644	4421
572.12	4412
572.596	4455
573.071	4425
573.547	4518
574.024	4547
574.5	4559
574.976	4568
575.452	4644
575.928	4665
576.404	4685
576.881	4836
577.357	4757
577.833	4785
578.31	4892
578.786	4957
579.262	5054
579.739	4964
580.215	5106
580.692	5100
581.169	5086
581.645	5091
582.122	5206
582.598	5177
583.075	5170
583.552	5227
584.029	5229
584.506	5199
584.982	5160
585.459	5288
585.936	5206
586.413	5256
586.89	5304
587.367	5227
587.844	5311
588.321	5272
588.799	5273
589.276	5227
589.753	5283
590.23	5309
590.707	5294
591.185	5288
591.662	5260
592.139	5322
592.617	5385
593.094	5368
593.572	5407
594.049	5445
594.527	5490
595.004	5480
595.482	5611
595.96	5561
596.437	5549
596.915	5690
597.393	5612
597.871	5731
598.349	5648
598.826	5761
599.304	5785
599.782	5891
600.26	5807
600.738	5897
601.216	5850
601.694	5909
602.173	5966
602.651	5999
603.129	5930
603.607	5984
604.085	6020
604.564	6014
605.042	6019
605.52	5971
605.999	6096
606.477	5990
606.956	5986
607.434	5991.5
607.913	5997
608.391	5999
608.87	5998
609.348	5923
609.827	5943
610.306	5954
610.785	5952
611.263	5978
611.742	5936
612.221	5846
612.7	5900
613.179	5924
613.658	5855
614.137	5979
614.616	6022
615.095	5881
615.574	5939
616.053	5979
616.532	5927
617.011	5950
617.491	5945
617.97	5913
618.449	5981
618.928	6046
619.408	6015
619.887	6052
620.367	6043
620.846	6122
621.326	6105
621.805	6208
622.285	6199
622.764	6223
623.244	6227
623.724	6264
624.203	6310
624.683	6191
625.163	6303
625.643	6286
626.123	6229
626.602	6374
627.082	6222
627.562	6207
628.042	6346
628.522	6287
629.002	6300
629.482	6337
629.963	6289
630.443	6203
630.923	6235
631.403	6293
631.883	6265
632.364	6285
632.844	6215
633.324	6215
633.805	6206
634.285	6143
634.766	6124
635.246	6121
635.727	6112
636.207	6121
636.688	6130
637.168	6148
637.649	6067
638.13	6010
638.611	6034
639.091	6049
639.572	6053
640.053	6018
640.534	6052
641.015	6019
641.496	5898
641.977	5999
642.458	5913
642.939	5910
643.42	5913
643.901	5933
644.382	5969
644.863	5959
645.345	5959
645.826	5943
646.307	5920
646.788	6013
647.27	5914
647.751	5977
648.233	6048
648.714	5913
649.196	6056
649.677	6015
650.159	6031
650.64	5957
651.122	6042
651.603	5935
652.085	5973
652.567	5964
653.049	5911
653.53	5902
654.012	5976
654.494	5841
654.976	5875
655.458	5849
655.94	5844
656.422	5934
656.904	5876
657.386	5789
657.868	5796
658.35	5778
658.833	5842
659.315	5837
659.797	5769
660.279	5765
660.762	5790
661.244	5750
661.726	5697
662.209	5696
662.691	5695
663.174	5572
663.656	5595
664.139	5608
664.621	5580
665.104	5520
665.587	5541
666.069	5519
666.552	5506
667.035	5451
667.517	5478
668	5517
668.483	5507
668.966	5446
669.449	5404
669.932	5440
670.415	5516
670.898	5483
671.381	5479
671.864	5478
672.347	5443
672.83	5437
673.313	5459
673.797	5424
674.28	5499
674.763	5476
675.247	5471
675.73	5458
676.213	5521
676.697	5574
677.18	5561
677.664	5567
678.147	5554
678.631	5560
679.114	5592
679.598	5582
680.082	5613
680.565	5593
681.049	5590
681.533	5583
682.017	5658
682.5	5656
682.984	5684
683.468	5622
683.952	5517
684.436	5595
684.92	5532
685.404	5555
685.888	5595
686.372	5535
686.856	5541
687.341	5591
687.825	5520
688.309	5559
688.793	5549
689.278	5475
689.762	5547
690.246	5510
690.731	5518
691.215	5524
691.7	5373
692.184	5420
692.669	5416
693.153	5423
693.638	5340
694.122	5344
694.607	5378
695.092	5294
695.577	5340
696.061	5252
696.546	5260
697.031	5230
697.516	5282
698.001	5279
698.486	5226
698.971	5280
699.456	5170
699.941	5171
700.426	5171
700.911	5200
701.396	5165
701.881	5174
702.366	5131
702.852	5099
703.337	5121
703.822	5111
704.308	5094
704.793	5129
705.278	5117
705.764	5119
706.249	5077
706.735	5074
707.22	5128
707.706	5046
708.191	5129
708.677	5122
709.163	5088
709.648	5105
710.134	5154
710.62	5080
711.106	5061
711.592	5118
712.077	5099
712.563	4968
713.049	4981
713.535	5077
714.021	5034
714.507	4999
714.993	4943
715.479	5017
715.966	4939
716.452	4949
716.938	4949
717.424	4816
717.91	4916
718.397	4865
718.883	4830
719.369	4843
719.856	4806
720.342	4858
720.829	4774
721.315	4785
721.802	4762
722.288	4808
722.775	4638
723.262	4528
723.748	4704
724.235	4662
724.722	4707
725.208	4624
725.695	4642
726.182	4636
726.669	4561
727.156	4580
727.643	4534
728.13	4536
728.617	4508
729.104	4501
729.591	4463
730.078	4483
730.565	4499
731.052	4424
731.539	4443
732.027	4397
732.514	4339
733.001	4380
733.488	4367
733.976	4364
734.463	4351
734.951	4335
735.438	4382
735.926	4312
736.413	4318
736.901	4244
737.388	4287
737.876	4251
738.364	4200
738.851	4219
739.339	4208
739.827	4241
740.314	4133
740.802	4170
741.29	4202
741.778	4139
742.266	4145
742.754	4150
743.242	4187
743.73	4107
744.218	4100
744.706	4049
745.194	4092
745.682	4066
746.17	4100
746.659	4116
747.147	4008
747.635	4031
748.123	4025
748.612	3965
749.1	3940
749.589	3966
750.077	3922
750.566	3887
751.054	3906
751.543	3908
752.031	3831
752.52	3833
753.008	3755
753.497	3732
753.986	3730
754.474	3719
754.963	3753
755.452	3694
755.941	3654
756.43	3635
756.919	3623
757.408	3596
757.896	3597
758.385	3614
758.875	3572
759.364	3548
759.853	3533
760.342	3483
760.831	3565
761.32	3537
761.809	3500
762.299	3513
762.788	3508
763.277	3482
763.767	3414
764.256	3403
764.745	3350
765.235	3404
765.724	3312
766.214	3347
766.703	3324
767.193	3266
767.683	3283
768.172	3217
768.662	3254
769.152	3249
769.641	3261
770.131	3168
770.621	3197
771.111	3152
771.601	3144
772.09	3121
772.58	3096
773.07	3101
773.56	3146
774.05	3069
774.54	3039
775.031	3022
775.521	2995
776.011	2988
776.501	3004
776.991	2962
777.482	3007
777.972	2924
778.462	2916
778.953	2946
779.443	2924
779.933	2926
780.424	2872
780.914	2889
781.405	2887
781.895	2847
782.386	2839
782.877	2813
783.367	2764
783.858	2761
784.349	2763
784.839	2749
785.33	2760
785.821	2747
786.312	2727
786.803	2714
787.293	2706
787.784	2667
788.275	2634
788.766	2613
789.257	2663
789.748	2594
790.24	2566
790.731	2583
791.222	2544
791.713	2539
792.204	2547
792.696	2493
793.187	2526
793.678	2514
794.169	2455
794.661	2490
795.152	2447
795.644	2429
796.135	2426
796.627	2432
797.118	2375
797.61	2376
798.101	2352
798.593	2380
799.085	2338
799.576	2323
800.068	2289
800.56	2288
801.052	2250
801.544	2245
802.035	2252
802.527	2223
803.019	2213
803.511	2208
804.003	2193
804.495	2187
804.987	2157
805.479	2115
805.971	2119
806.464	2145
806.956	2091
807.448	2094
807.94	2088
808.433	2061
808.925	2056
809.417	2055
809.91	2048
810.402	2003
810.894	2030
811.387	2034
811.879	1996
812.372	1986
812.865	1954
813.357	1947
813.85	1939
814.342	1923
814.835	1928
815.328	1927
815.821	1905
816.313	1896
816.806	1898
817.299	1880
817.792	1900
818.285	1880
818.778	1921
819.271	1914
819.764	1886
820.257	1876
820.75	1874
821.243	1859
821.736	1838
822.229	1862
822.722	1852
823.216	1897
