Data from lamp3helium_zwak_Subt4__9__288.txt Node

Date: Fri Apr 04 11:06:29 CEST 2025
User: fys-lab-0081
Spectrometer: S04999
Trigger mode: 0
Resolution mode: 1024 pixels
Integration Time (sec): 1.000000E-1
Scans to average: 1
Nonlinearity correction enabled: false
Boxcar width: 0
Baseline correction enabled: true
XAxis mode: Wavelengths
Number of Pixels in Spectrum: 1024
>>>>>Begin Spectral Data<<<<<
336.42	3
336.877	3
337.334	5
337.792	11
338.249	11
338.706	9
339.164	11
339.621	8
340.079	10
340.536	10
340.994	7
341.452	10
341.909	7
342.367	10
342.825	16
343.283	11
343.741	14
344.198	13
344.656	10
345.114	13
345.572	8
346.03	16
346.488	15
346.947	14
347.405	14
347.863	19
348.321	14
348.779	19
349.238	21
349.696	19
350.154	21
350.613	22
351.071	22
351.53	20
351.988	28
352.447	26
352.905	24
353.364	25
353.823	29
354.282	27
354.74	32
355.199	34
355.658	32
356.117	37
356.576	30
357.035	36
357.494	35
357.953	36
358.412	34
358.871	37
359.33	45
359.789	41
360.249	40
360.708	45
361.167	41
361.626	52
362.086	51
362.545	46
363.005	45
363.464	59
363.924	50
364.383	52
364.843	57
365.303	56
365.762	62
366.222	63
366.682	59
367.142	64
367.601	67
368.061	69
368.521	68
368.981	70
369.441	70
369.901	67
370.361	72
370.821	76
371.282	68
371.742	73
372.202	77
372.662	75
373.123	76
373.583	80
374.043	87
374.504	83
374.964	86
375.425	92
375.885	93
376.346	96
376.806	88
377.267	99
377.728	94
378.188	101
378.649	105
379.11	100
379.571	100
380.032	111
380.493	112
380.954	117
381.414	120
381.876	124
382.337	124
382.798	132
383.259	138
383.72	130
384.181	143
384.642	147
385.104	152
385.565	149
386.026	158
386.488	167
386.949	166
387.411	172
387.872	174
388.334	174
388.795	182
389.257	187
389.719	188
390.181	192
390.642	199
391.104	201
391.566	202
392.028	215
392.49	211
392.952	215
393.414	223
393.876	230
394.338	237
394.8	235
395.262	239
395.724	246
396.186	252
396.648	254
397.111	249
397.573	258
398.035	256
398.498	269
398.96	267
399.423	270
399.885	278
400.348	277
400.81	290
401.273	292
401.736	287
402.198	306
402.661	317
403.124	318
403.587	325
404.049	330
404.512	335
404.975	345
405.438	337
405.901	347
406.364	344
406.827	351
407.29	344
407.754	352
408.217	340
408.68	347
409.143	358
409.607	355
410.07	351
410.533	357
410.997	368
411.46	371
411.924	370
412.387	370
412.851	387
413.314	402
413.778	396
414.242	409
414.705	429
415.169	415
415.633	428
416.097	423
416.561	433
417.024	440
417.488	424
417.952	432
418.416	423
418.88	436
419.344	429
419.809	423
420.273	437
420.737	422
421.201	436
421.665	445
422.13	440
422.594	449
423.059	462
423.523	471
423.987	472
424.452	486
424.916	495
425.381	510
425.846	517
426.31	511
426.775	526
427.24	538
427.704	525
428.169	536
428.634	535
429.099	527
429.564	520
430.029	532
430.494	532
430.959	531
431.424	524
431.889	542
432.354	545
432.819	539
433.284	556
433.75	558
434.215	583
434.68	588
435.146	598
435.611	621
436.077	636
436.542	646
437.008	666
437.473	669
437.939	672
438.404	690
438.87	695
439.336	680
439.801	683
440.267	698
440.733	700
441.199	707
441.665	703
442.131	721
442.596	708
443.062	730
443.529	745
443.995	752
444.461	773
444.927	793
445.393	800
445.859	832
446.325	844
446.792	893
447.258	886
447.724	910
448.191	948
448.657	955
449.124	988
449.59	978
450.057	1020
450.523	1032
450.99	1054
451.457	1054
451.923	1065
452.39	1048
452.857	1071
453.324	1063
453.791	1076
454.257	1078
454.724	1092
455.191	1086
455.658	1077
456.125	1118
456.592	1089
457.059	1111
457.527	1126
457.994	1152
458.461	1151
458.928	1172
459.396	1173
459.863	1210
460.33	1206
460.798	1210
461.265	1221
461.732	1211
462.2	1239
462.668	1232
463.135	1251
463.603	1217
464.07	1253
464.538	1212
465.006	1246
465.474	1212
465.941	1219
466.409	1232
466.877	1202
467.345	1233
467.813	1213
468.281	1219
468.749	1230
469.217	1232
469.685	1243
470.153	1252
470.621	1248
471.09	1254
471.558	1303
472.026	1291
472.494	1328
472.963	1346
473.431	1379
473.9	1402
474.368	1437
474.837	1454
475.305	1488
475.774	1514
476.242	1548
476.711	1559
477.18	1585
477.648	1574
478.117	1590
478.586	1578
479.055	1584
479.524	1591
479.993	1578
480.462	1580
480.93	1585
481.399	1583
481.869	1600
482.338	1568
482.807	1586
483.276	1578
483.745	1576
484.214	1616
484.684	1628
485.153	1620
485.622	1623
486.092	1672
486.561	1636
487.031	1687
487.5	1724
487.97	1714
488.439	1747
488.909	1789
489.378	1849
489.848	1852
490.318	1892
490.787	1968
491.257	1995
491.727	2020
492.197	2051
492.667	2048
493.137	2076
493.607	2092
494.077	2104
494.547	2082
495.017	2070
495.487	2111
495.957	2151
496.427	2099
496.897	2101
497.368	2119
497.838	2101
498.308	2119
498.779	2129
499.249	2138
499.719	2144
500.19	2154
500.66	2170
501.131	2175
501.602	2230
502.072	2217
502.543	2221
503.014	2301
503.484	2292
503.955	2348
504.426	2423
504.897	2421
505.368	2471
505.838	2503
506.309	2572
506.78	2648
507.251	2685
507.722	2734
508.194	2803
508.665	2822
509.136	2829
509.607	2919
510.078	2967
510.549	2979
511.021	3059
511.492	3056
511.964	3078
512.435	3116
512.906	3096
513.378	3115
513.849	3168
514.321	3165
514.793	3206
515.264	3220
515.736	3249
516.208	3298
516.679	3320
517.151	3354
517.623	3375
518.095	3418
518.567	3432
519.038	3494
519.51	3481
519.982	3527
520.454	3576
520.927	3590
521.399	3624
521.871	3654
522.343	3658
522.815	3723
523.287	3719
523.76	3740
524.232	3789
524.704	3828
525.177	3755
525.649	3783
526.122	3819
526.594	3724
527.067	3813
527.539	3858
528.012	3807
528.484	3804
528.957	3816
529.43	3802
529.903	3789
530.375	3917
530.848	3799
531.321	3844
531.794	3831
532.267	3917
532.74	3855
533.213	3838
533.686	3895
534.159	3869
534.632	3946
535.105	3933
535.578	3998
536.051	4008
536.525	4029
536.998	4014
537.471	4070
537.945	4032
538.418	4085
538.891	4094
539.365	4164
539.838	4177
540.312	4174
540.786	4202
541.259	4194
541.733	4248
542.206	4242
542.68	4170
543.154	4153
543.628	4151
544.101	4259
544.575	4236
545.049	4133
545.523	4200
545.997	4165
546.471	4196
546.945	4153
547.419	4212
547.893	4054
548.367	4102
548.842	4064
549.316	4076
549.79	4093
550.264	4055
550.739	4108
551.213	4113
551.687	4107
552.162	4136
552.636	4086
553.111	4068
553.585	4158
554.06	4089
554.534	4187
555.009	4154
555.484	4202
555.958	4252
556.433	4253
556.908	4305
557.383	4248
557.858	4365
558.333	4375
558.807	4324
559.282	4347
559.757	4475
560.232	4491
560.708	4411
561.183	4391
561.658	4448
562.133	4438
562.608	4402
563.083	4520
563.559	4396
564.034	4414
564.509	4417
564.985	4432
565.46	4369
565.936	4435
566.411	4446
566.887	4358
567.362	4387
567.838	4362
568.313	4434
568.789	4390
569.265	4377
569.74	4399
570.216	4356
570.692	4425
571.168	4408
571.644	4402
572.12	4388
572.596	4430
573.071	4396
573.547	4484
574.024	4533
574.5	4537
574.976	4555
575.452	4620
575.928	4640
576.404	4653
576.881	4808
577.357	4729
577.833	4765
578.31	4874
578.786	4933
579.262	5022
579.739	4961
580.215	5078
580.692	5070
581.169	5045
581.645	5063
582.122	5184
582.598	5137
583.075	5142
583.552	5197
584.029	5209
584.506	5173
584.982	5139
585.459	5250
585.936	5176
586.413	5231
586.89	5286
587.367	5214
587.844	5283
588.321	5241
588.799	5258
589.276	5196
589.753	5252
590.23	5289
590.707	5267
591.185	5271
591.662	5230
592.139	5288
592.617	5357
593.094	5340
593.572	5371
594.049	5416
594.527	5467
595.004	5451
595.482	5585
595.96	5520
596.437	5515
596.915	5665
597.393	5580
597.871	5699
598.349	5604
598.826	5726
599.304	5742
599.782	5843
600.26	5763
600.738	5860
601.216	5803
601.694	5873
602.173	5934
602.651	5958
603.129	5891
603.607	5942
604.085	5977
604.564	5971
605.042	5990
605.52	5935
605.999	6063
606.477	5947
606.956	5936
607.434	5944.5
607.913	5953
608.391	5954
608.87	5971
609.348	5895
609.827	5903
610.306	5915
610.785	5922
611.263	5946
611.742	5915
612.221	5816
612.7	5872
613.179	5885
613.658	5820
614.137	5937
614.616	5981
615.095	5841
615.574	5896
616.053	5945
616.532	5896
617.011	5907
617.491	5904
617.97	5877
618.449	5940
618.928	6003
619.408	5974
619.887	6020
620.367	6025
620.846	6068
621.326	6061
621.805	6172
622.285	6148
622.764	6178
623.244	6192
623.724	6223
624.203	6285
624.683	6147
625.163	6266
625.643	6246
626.123	6206
626.602	6341
627.082	6170
627.562	6160
628.042	6315
628.522	6251
629.002	6255
629.482	6265
629.963	6240
630.443	6160
630.923	6180
631.403	6244
631.883	6218
632.364	6228
632.844	6161
633.324	6163
633.805	6160
634.285	6106
634.766	6072
635.246	6074
635.727	6066
636.207	6080
636.688	6075
637.168	6100
637.649	6026
638.13	5964
638.611	5987
639.091	6008
639.572	5992
640.053	5964
640.534	6000
641.015	5978
641.496	5861
641.977	5951
642.458	5870
642.939	5869
643.42	5883
643.901	5889
644.382	5924
644.863	5926
645.345	5930
645.826	5913
646.307	5870
646.788	5952
647.27	5875
647.751	5921
648.233	5986
648.714	5870
649.196	6014
649.677	5979
650.159	5996
650.64	5919
651.122	6007
651.603	5891
652.085	5937
652.567	5927
653.049	5864
653.53	5855
654.012	5933
654.494	5794
654.976	5832
655.458	5790
655.94	5796
656.422	5900
656.904	5831
657.386	5758
657.868	5738
658.35	5719
658.833	5791
659.315	5789
659.797	5712
660.279	5701
660.762	5751
661.244	5708
661.726	5652
662.209	5659
662.691	5659
663.174	5535
663.656	5561
664.139	5554
664.621	5527
665.104	5478
665.587	5510
666.069	5495
666.552	5465
667.035	5414
667.517	5429
668	5471
668.483	5446
668.966	5391
669.449	5357
669.932	5393
670.415	5472
670.898	5434
671.381	5424
671.864	5431
672.347	5375
672.83	5378
673.313	5397
673.797	5389
674.28	5459
674.763	5436
675.247	5421
675.73	5420
676.213	5468
676.697	5514
677.18	5511
677.664	5510
678.147	5501
678.631	5502
679.114	5535
679.598	5521
680.082	5551
680.565	5550
681.049	5533
681.533	5529
682.017	5609
682.5	5605
682.984	5614
683.468	5577
683.952	5456
684.436	5547
684.92	5481
685.404	5500
685.888	5536
686.372	5483
686.856	5479
687.341	5538
687.825	5464
688.309	5506
688.793	5494
689.278	5425
689.762	5494
690.246	5460
690.731	5465
691.215	5476
691.7	5330
692.184	5378
692.669	5359
693.153	5377
693.638	5288
694.122	5293
694.607	5322
695.092	5248
695.577	5291
696.061	5212
696.546	5204
697.031	5167
697.516	5215
698.001	5221
698.486	5164
698.971	5223
699.456	5116
699.941	5113
700.426	5103
700.911	5151
701.396	5104
701.881	5129
702.366	5076
702.852	5051
703.337	5067
703.822	5053
704.308	5051
704.793	5078
705.278	5076
705.764	5069
706.249	5027
706.735	5035
707.22	5070
707.706	4997
708.191	5089
708.677	5073
709.163	5034
709.648	5049
710.134	5107
710.62	5022
711.106	4993
711.592	5049
712.077	5044
712.563	4933
713.049	4929
713.535	5029
714.021	4977
714.507	4947
714.993	4900
715.479	4960
715.966	4893
716.452	4888
716.938	4901
717.424	4764
717.91	4863
718.397	4816
718.883	4776
719.369	4780
719.856	4758
720.342	4795
720.829	4727
721.315	4729
721.802	4710
722.288	4758
722.775	4599
723.262	4478
723.748	4649
724.235	4606
724.722	4667
725.208	4585
725.695	4607
726.182	4583
726.669	4511
727.156	4522
727.643	4462
728.13	4472
728.617	4439
729.104	4449
729.591	4412
730.078	4446
730.565	4452
731.052	4387
731.539	4398
732.027	4350
732.514	4297
733.001	4338
733.488	4323
733.976	4298
734.463	4292
734.951	4284
735.438	4323
735.926	4271
736.413	4277
736.901	4207
737.388	4252
737.876	4212
738.364	4165
738.851	4166
739.339	4149
739.827	4199
740.314	4090
740.802	4135
741.29	4152
741.778	4094
742.266	4091
742.754	4099
743.242	4122
743.73	4061
744.218	4059
744.706	3993
745.194	4045
745.682	4013
746.17	4051
746.659	4067
747.147	3974
747.635	3986
748.123	3979
748.612	3924
749.1	3885
749.589	3913
750.077	3883
750.566	3832
751.054	3848
751.543	3869
752.031	3778
752.52	3788
753.008	3704
753.497	3683
753.986	3680
754.474	3662
754.963	3703
755.452	3643
755.941	3619
756.43	3603
756.919	3583
757.408	3545
757.896	3558
758.385	3566
758.875	3522
759.364	3499
759.853	3483
760.342	3441
760.831	3515
761.32	3495
761.809	3446
762.299	3472
762.788	3468
763.277	3445
763.767	3372
764.256	3363
764.745	3316
765.235	3359
765.724	3271
766.214	3303
766.703	3284
767.193	3232
767.683	3242
768.172	3179
768.662	3211
769.152	3209
769.641	3222
770.131	3129
770.621	3156
771.111	3108
771.601	3107
772.09	3093
772.58	3061
773.07	3073
773.56	3104
774.05	3031
774.54	3020
775.031	2989
775.521	2956
776.011	2951
776.501	2976
776.991	2923
777.482	2954
777.972	2879
778.462	2874
778.953	2905
779.443	2883
779.933	2872
780.424	2831
780.914	2853
781.405	2857
781.895	2807
782.386	2798
782.877	2781
783.367	2731
783.858	2727
784.349	2732
784.839	2711
785.33	2727
785.821	2711
786.312	2677
786.803	2672
787.293	2673
787.784	2623
788.275	2605
788.766	2571
789.257	2617
789.748	2548
790.24	2539
790.731	2556
791.222	2511
791.713	2508
792.204	2514
792.696	2456
793.187	2492
793.678	2475
794.169	2418
794.661	2452
795.152	2417
795.644	2397
796.135	2385
796.627	2396
797.118	2343
797.61	2344
798.101	2322
798.593	2345
799.085	2299
799.576	2291
800.068	2255
800.56	2257
801.052	2212
801.544	2215
802.035	2220
802.527	2200
803.019	2185
803.511	2170
804.003	2154
804.495	2164
804.987	2133
805.479	2081
805.971	2098
806.464	2118
806.956	2062
807.448	2065
807.94	2060
808.433	2041
808.925	2028
809.417	2024
809.91	2026
810.402	1982
810.894	2006
811.387	2012
811.879	1961
812.372	1951
812.865	1928
813.357	1923
813.85	1909
814.342	1898
814.835	1897
815.328	1903
815.821	1879
816.313	1870
816.806	1868
817.299	1861
817.792	1876
818.285	1865
818.778	1891
819.271	1892
819.764	1853
820.257	1848
820.75	1838
821.243	1829
821.736	1816
822.229	1843
822.722	1842
823.216	1880
