Data from lamp3helium_zwak_Subt4__1__280.txt Node

Date: Fri Apr 04 11:06:28 CEST 2025
User: fys-lab-0081
Spectrometer: S04999
Trigger mode: 0
Resolution mode: 1024 pixels
Integration Time (sec): 1.000000E-1
Scans to average: 1
Nonlinearity correction enabled: false
Boxcar width: 0
Baseline correction enabled: true
XAxis mode: Wavelengths
Number of Pixels in Spectrum: 1024
>>>>>Begin Spectral Data<<<<<
336.42	3
336.877	7
337.334	9
337.792	9
338.249	6
338.706	12
339.164	12
339.621	7
340.079	13
340.536	11
340.994	11
341.452	14
341.909	11
342.367	10
342.825	12
343.283	13
343.741	13
344.198	9
344.656	11
345.114	16
345.572	13
346.03	17
346.488	12
346.947	15
347.405	19
347.863	16
348.321	16
348.779	20
349.238	15
349.696	23
350.154	19
350.613	23
351.071	22
351.53	22
351.988	28
352.447	24
352.905	26
353.364	28
353.823	37
354.282	25
354.74	28
355.199	37
355.658	35
356.117	37
356.576	34
357.035	38
357.494	34
357.953	38
358.412	32
358.871	43
359.33	43
359.789	38
360.249	41
360.708	45
361.167	42
361.626	47
362.086	47
362.545	50
363.005	44
363.464	55
363.924	55
364.383	57
364.843	58
365.303	55
365.762	65
366.222	66
366.682	60
367.142	67
367.601	72
368.061	70
368.521	71
368.981	71
369.441	70
369.901	68
370.361	73
370.821	75
371.282	75
371.742	73
372.202	76
372.662	78
373.123	82
373.583	86
374.043	85
374.504	86
374.964	88
375.425	90
375.885	96
376.346	96
376.806	91
377.267	102
377.728	96
378.188	104
378.649	105
379.11	101
379.571	104
380.032	107
380.493	115
380.954	117
381.414	119
381.876	126
382.337	127
382.798	129
383.259	135
383.72	133
384.181	145
384.642	147
385.104	154
385.565	156
386.026	160
386.488	167
386.949	164
387.411	175
387.872	176
388.334	179
388.795	180
389.257	192
389.719	190
390.181	190
390.642	198
391.104	200
391.566	201
392.028	218
392.49	218
392.952	223
393.414	227
393.876	227
394.338	236
394.8	236
395.262	246
395.724	248
396.186	252
396.648	259
397.111	254
397.573	262
398.035	256
398.498	272
398.96	271
399.423	275
399.885	277
400.348	280
400.81	289
401.273	293
401.736	286
402.198	306
402.661	314
403.124	317
403.587	331
404.049	338
404.512	345
404.975	348
405.438	340
405.901	348
406.364	351
406.827	360
407.29	349
407.754	356
408.217	348
408.68	350
409.143	356
409.607	356
410.07	355
410.533	362
410.997	375
411.46	370
411.924	370
412.387	375
412.851	394
413.314	408
413.778	404
414.242	411
414.705	428
415.169	421
415.633	424
416.097	431
416.561	429
417.024	441
417.488	426
417.952	435
418.416	425
418.88	436
419.344	429
419.809	428
420.273	441
420.737	428
421.201	438
421.665	448
422.13	441
422.594	459
423.059	468
423.523	472
423.987	471
424.452	493
424.916	501
425.381	517
425.846	529
426.31	520
426.775	527
427.24	536
427.704	535
428.169	541
428.634	541
429.099	527
429.564	527
430.029	539
430.494	528
430.959	536
431.424	528
431.889	545
432.354	550
432.819	539
433.284	559
433.75	563
434.215	590
434.68	586
435.146	599
435.611	626
436.077	641
436.542	655
437.008	669
437.473	673
437.939	674
438.404	699
438.87	702
439.336	684
439.801	687
440.267	706
440.733	711
441.199	712
441.665	709
442.131	724
442.596	709
443.062	736
443.529	753
443.995	762
444.461	773
444.927	799
445.393	805
445.859	844
446.325	843
446.792	899
447.258	894
447.724	911
448.191	960
448.657	966
449.124	995
449.59	984
450.057	1037
450.523	1041
450.99	1064
451.457	1058
451.923	1078
452.39	1059
452.857	1082
453.324	1077
453.791	1084
454.257	1088
454.724	1099
455.191	1099
455.658	1088
456.125	1133
456.592	1098
457.059	1119
457.527	1136
457.994	1170
458.461	1157
458.928	1179
459.396	1178
459.863	1223
460.33	1212
460.798	1219
461.265	1231
461.732	1216
462.2	1253
462.668	1253
463.135	1262
463.603	1228
464.07	1260
464.538	1221
465.006	1258
465.474	1217
465.941	1232
466.409	1239
466.877	1214
467.345	1246
467.813	1226
468.281	1232
468.749	1243
469.217	1240
469.685	1256
470.153	1267
470.621	1262
471.09	1260
471.558	1318
472.026	1307
472.494	1340
472.963	1357
473.431	1398
473.9	1419
474.368	1452
474.837	1472
475.305	1496
475.774	1529
476.242	1559
476.711	1570
477.18	1599
477.648	1584
478.117	1610
478.586	1591
479.055	1598
479.524	1603
479.993	1592
480.462	1599
480.93	1603
481.399	1594
481.869	1611
482.338	1590
482.807	1603
483.276	1595
483.745	1595
484.214	1628
484.684	1646
485.153	1636
485.622	1640
486.092	1684
486.561	1652
487.031	1708
487.5	1741
487.97	1738
488.439	1767
488.909	1799
489.378	1872
489.848	1869
490.318	1909
490.787	1978
491.257	2017
491.727	2041
492.197	2069
492.667	2063
493.137	2099
493.607	2106
494.077	2118
494.547	2103
495.017	2089
495.487	2123
495.957	2168
496.427	2115
496.897	2107
497.368	2143
497.838	2124
498.308	2141
498.779	2153
499.249	2155
499.719	2162
500.19	2177
500.66	2192
501.131	2200
501.602	2246
502.072	2243
502.543	2245
503.014	2327
503.484	2315
503.955	2374
504.426	2440
504.897	2443
505.368	2498
505.838	2531
506.309	2600
506.78	2681
507.251	2706
507.722	2760
508.194	2827
508.665	2857
509.136	2855
509.607	2945
510.078	2991
510.549	3016
511.021	3080
511.492	3071
511.964	3107
512.435	3132
512.906	3123
513.378	3155
513.849	3198
514.321	3200
514.793	3231
515.264	3252
515.736	3281
516.208	3331
516.679	3345
517.151	3391
517.623	3404
518.095	3439
518.567	3463
519.038	3528
519.51	3521
519.982	3569
520.454	3614
520.927	3616
521.399	3659
521.871	3695
522.343	3703
522.815	3743
523.287	3748
523.76	3774
524.232	3834
524.704	3848
525.177	3792
525.649	3817
526.122	3852
526.594	3760
527.067	3863
527.539	3895
528.012	3859
528.484	3846
528.957	3842
529.43	3841
529.903	3824
530.375	3945
530.848	3851
531.321	3893
531.794	3882
532.267	3956
532.74	3884
533.213	3881
533.686	3930
534.159	3905
534.632	3996
535.105	3985
535.578	4036
536.051	4050
536.525	4064
536.998	4053
537.471	4127
537.945	4063
538.418	4128
538.891	4140
539.365	4190
539.838	4222
540.312	4222
540.786	4249
541.259	4236
541.733	4291
542.206	4285
542.68	4222
543.154	4205
543.628	4203
544.101	4307
544.575	4273
545.049	4176
545.523	4248
545.997	4206
546.471	4243
546.945	4198
547.419	4261
547.893	4094
548.367	4158
548.842	4112
549.316	4124
549.79	4142
550.264	4113
550.739	4155
551.213	4144
551.687	4146
552.162	4177
552.636	4128
553.111	4112
553.585	4217
554.06	4139
554.534	4233
555.009	4185
555.484	4248
555.958	4287
556.433	4305
556.908	4353
557.383	4291
557.858	4405
558.333	4413
558.807	4363
559.282	4398
559.757	4517
560.232	4548
560.708	4457
561.183	4438
561.658	4499
562.133	4496
562.608	4463
563.083	4576
563.559	4453
564.034	4467
564.509	4467
564.985	4476
565.46	4412
565.936	4483
566.411	4494
566.887	4427
567.362	4445
567.838	4414
568.313	4481
568.789	4432
569.265	4423
569.74	4440
570.216	4410
570.692	4488
571.168	4474
571.644	4455
572.12	4432
572.596	4474
573.071	4456
573.547	4549
574.024	4578
574.5	4593
574.976	4612
575.452	4668
575.928	4702
576.404	4709
576.881	4866
577.357	4784
577.833	4822
578.31	4933
578.786	5001
579.262	5092
579.739	5005
580.215	5135
580.692	5125
581.169	5102
581.645	5130
582.122	5243
582.598	5201
583.075	5197
583.552	5264
584.029	5273
584.506	5238
584.982	5202
585.459	5309
585.936	5244
586.413	5286
586.89	5344
587.367	5269
587.844	5344
588.321	5317
588.799	5323
589.276	5257
589.753	5322
590.23	5349
590.707	5328
591.185	5324
591.662	5301
592.139	5371
592.617	5429
593.094	5406
593.572	5453
594.049	5487
594.527	5534
595.004	5531
595.482	5648
595.96	5594
596.437	5586
596.915	5723
597.393	5649
597.871	5776
598.349	5674
598.826	5785
599.304	5810
599.782	5934
600.26	5843
600.738	5939
601.216	5889
601.694	5945
602.173	6009
602.651	6040
603.129	5968
603.607	6009
604.085	6047
604.564	6051
605.042	6057
605.52	6006
605.999	6144
606.477	6030
606.956	6023
607.434	6028.5
607.913	6034
608.391	6029
608.87	6038
609.348	5962
609.827	5982
610.306	5997
610.785	5985
611.263	6030
611.742	5980
612.221	5887
612.7	5933
613.179	5956
613.658	5906
614.137	6033
614.616	6077
615.095	5926
615.574	5988
616.053	6027
616.532	5968
617.011	5980
617.491	5977
617.97	5954
618.449	6034
618.928	6094
619.408	6061
619.887	6093
620.367	6091
620.846	6141
621.326	6132
621.805	6251
622.285	6222
622.764	6264
623.244	6261
623.724	6306
624.203	6342
624.683	6238
625.163	6344
625.643	6329
626.123	6283
626.602	6413
627.082	6261
627.562	6245
628.042	6401
628.522	6334
629.002	6342
629.482	6370
629.963	6329
630.443	6239
630.923	6263
631.403	6325
631.883	6303
632.364	6318
632.844	6251
633.324	6243
633.805	6241
634.285	6191
634.766	6155
635.246	6153
635.727	6146
636.207	6144
636.688	6168
637.168	6181
637.649	6093
638.13	6046
638.611	6076
639.091	6096
639.572	6097
640.053	6046
640.534	6086
641.015	6043
641.496	5951
641.977	6033
642.458	5958
642.939	5958
643.42	5959
643.901	5977
644.382	6008
644.863	5995
645.345	5997
645.826	5981
646.307	5975
646.788	6068
647.27	5964
647.751	5998
648.233	6080
648.714	5955
649.196	6101
649.677	6048
650.159	6066
650.64	5993
651.122	6079
651.603	5962
652.085	6012
652.567	6001
653.049	5948
653.53	5936
654.012	6010
654.494	5891
654.976	5911
655.458	5884
655.94	5868
656.422	5974
656.904	5915
657.386	5831
657.868	5827
658.35	5798
658.833	5871
659.315	5875
659.797	5791
660.279	5796
660.762	5828
661.244	5784
661.726	5724
662.209	5743
662.691	5728
663.174	5610
663.656	5634
664.139	5639
664.621	5602
665.104	5554
665.587	5574
666.069	5560
666.552	5535
667.035	5470
667.517	5502
668	5549
668.483	5537
668.966	5472
669.449	5418
669.932	5451
670.415	5549
670.898	5504
671.381	5501
671.864	5507
672.347	5452
672.83	5460
673.313	5474
673.797	5447
674.28	5519
674.763	5502
675.247	5491
675.73	5491
676.213	5549
676.697	5595
677.18	5591
677.664	5603
678.147	5590
678.631	5573
679.114	5602
679.598	5600
680.082	5632
680.565	5635
681.049	5617
681.533	5617
682.017	5684
682.5	5669
682.984	5691
683.468	5656
683.952	5530
684.436	5619
684.92	5548
685.404	5584
685.888	5623
686.372	5583
686.856	5576
687.341	5627
687.825	5549
688.309	5574
688.793	5569
689.278	5510
689.762	5573
690.246	5542
690.731	5543
691.215	5546
691.7	5400
692.184	5452
692.669	5416
693.153	5437
693.638	5348
694.122	5367
694.607	5391
695.092	5316
695.577	5360
696.061	5275
696.546	5271
697.031	5238
697.516	5279
698.001	5293
698.486	5247
698.971	5306
699.456	5188
699.941	5187
700.426	5173
700.911	5218
701.396	5170
701.881	5195
702.366	5144
702.852	5122
703.337	5140
703.822	5129
704.308	5113
704.793	5137
705.278	5131
705.764	5132
706.249	5107
706.735	5097
707.22	5140
707.706	5064
708.191	5150
708.677	5136
709.163	5102
709.648	5135
710.134	5177
710.62	5103
711.106	5083
711.592	5134
712.077	5112
712.563	4993
713.049	4997
713.535	5089
714.021	5055
714.507	5025
714.993	4960
715.479	5042
715.966	4968
716.452	4963
716.938	4974
717.424	4837
717.91	4946
718.397	4881
718.883	4840
719.369	4842
719.856	4818
720.342	4870
720.829	4793
721.315	4793
721.802	4766
722.288	4819
722.775	4655
723.262	4539
723.748	4710
724.235	4668
724.722	4723
725.208	4630
725.695	4641
726.182	4631
726.669	4563
727.156	4576
727.643	4523
728.13	4524
728.617	4504
729.104	4509
729.591	4463
730.078	4497
730.565	4504
731.052	4437
731.539	4436
732.027	4399
732.514	4340
733.001	4382
733.488	4366
733.976	4370
734.463	4345
734.951	4323
735.438	4375
735.926	4314
736.413	4324
736.901	4259
737.388	4300
737.876	4266
738.364	4207
738.851	4218
739.339	4196
739.827	4249
740.314	4133
740.802	4192
741.29	4220
741.778	4166
742.266	4162
742.754	4165
743.242	4197
743.73	4112
744.218	4115
744.706	4057
745.194	4095
745.682	4071
746.17	4104
746.659	4121
747.147	4009
747.635	4020
748.123	4016
748.612	3979
749.1	3931
749.589	3959
750.077	3925
750.566	3884
751.054	3911
751.543	3919
752.031	3839
752.52	3832
753.008	3753
753.497	3733
753.986	3731
754.474	3715
754.963	3744
755.452	3689
755.941	3651
756.43	3630
756.919	3609
757.408	3579
757.896	3601
758.385	3620
758.875	3572
759.364	3545
759.853	3532
760.342	3484
760.831	3568
761.32	3547
761.809	3494
762.299	3515
762.788	3503
763.277	3484
763.767	3413
764.256	3396
764.745	3343
765.235	3394
765.724	3313
766.214	3347
766.703	3317
767.193	3260
767.683	3271
768.172	3225
768.662	3269
769.152	3255
769.641	3268
770.131	3172
770.621	3194
771.111	3144
771.601	3147
772.09	3125
772.58	3100
773.07	3097
773.56	3137
774.05	3061
774.54	3044
775.031	3027
775.521	2998
776.011	2988
776.501	3014
776.991	2966
777.482	3000
777.972	2914
778.462	2912
778.953	2955
779.443	2926
779.933	2922
780.424	2871
780.914	2876
781.405	2876
781.895	2837
782.386	2840
782.877	2816
783.367	2776
783.858	2759
784.349	2759
784.839	2747
785.33	2764
785.821	2739
786.312	2710
786.803	2707
787.293	2696
787.784	2656
788.275	2632
788.766	2601
789.257	2650
789.748	2583
790.24	2566
790.731	2584
791.222	2545
791.713	2528
792.204	2545
792.696	2483
793.187	2520
793.678	2508
794.169	2448
794.661	2477
795.152	2444
795.644	2431
796.135	2419
796.627	2435
797.118	2381
797.61	2375
798.101	2356
798.593	2376
799.085	2332
799.576	2318
800.068	2289
800.56	2293
801.052	2239
801.544	2235
802.035	2245
802.527	2221
803.019	2201
803.511	2199
804.003	2179
804.495	2176
804.987	2153
805.479	2106
805.971	2115
806.464	2137
806.956	2087
807.448	2079
807.94	2078
808.433	2062
808.925	2053
809.417	2046
809.91	2035
810.402	1993
810.894	2022
811.387	2028
811.879	1993
812.372	1978
812.865	1956
813.357	1943
813.85	1937
814.342	1924
814.835	1920
815.328	1928
815.821	1902
816.313	1891
816.806	1896
817.299	1875
817.792	1896
818.285	1880
818.778	1905
819.271	1914
819.764	1879
820.257	1866
820.75	1862
821.243	1851
821.736	1837
822.229	1855
822.722	1848
823.216	1892
