Data from lamp3helium_zwak_Subt4__30__309.txt Node

Date: Fri Apr 04 11:06:32 CEST 2025
User: fys-lab-0081
Spectrometer: S04999
Trigger mode: 0
Resolution mode: 1024 pixels
Integration Time (sec): 1.000000E-1
Scans to average: 1
Nonlinearity correction enabled: false
Boxcar width: 0
Baseline correction enabled: true
XAxis mode: Wavelengths
Number of Pixels in Spectrum: 1024
>>>>>Begin Spectral Data<<<<<
336.42	5
336.877	6
337.334	11
337.792	12
338.249	7
338.706	10
339.164	10
339.621	9
340.079	7
340.536	7
340.994	4
341.452	13
341.909	11
342.367	10
342.825	13
343.283	15
343.741	15
344.198	12
344.656	8
345.114	12
345.572	8
346.03	15
346.488	14
346.947	16
347.405	16
347.863	20
348.321	18
348.779	20
349.238	19
349.696	22
350.154	20
350.613	23
351.071	21
351.53	27
351.988	25
352.447	26
352.905	31
353.364	28
353.823	35
354.282	26
354.74	29
355.199	33
355.658	31
356.117	37
356.576	31
357.035	35
357.494	38
357.953	31
358.412	34
358.871	38
359.33	40
359.789	44
360.249	42
360.708	44
361.167	38
361.626	48
362.086	47
362.545	46
363.005	45
363.464	58
363.924	52
364.383	57
364.843	62
365.303	54
365.762	61
366.222	67
366.682	60
367.142	64
367.601	68
368.061	67
368.521	74
368.981	72
369.441	73
369.901	67
370.361	75
370.821	78
371.282	75
371.742	70
372.202	72
372.662	82
373.123	79
373.583	81
374.043	85
374.504	84
374.964	85
375.425	88
375.885	99
376.346	94
376.806	94
377.267	98
377.728	96
378.188	101
378.649	106
379.11	101
379.571	104
380.032	114
380.493	109
380.954	120
381.414	119
381.876	126
382.337	130
382.798	131
383.259	137
383.72	136
384.181	147
384.642	149
385.104	154
385.565	157
386.026	161
386.488	171
386.949	166
387.411	173
387.872	177
388.334	175
388.795	182
389.257	188
389.719	190
390.181	195
390.642	205
391.104	203
391.566	205
392.028	213
392.49	217
392.952	219
393.414	231
393.876	234
394.338	245
394.8	236
395.262	247
395.724	250
396.186	254
396.648	260
397.111	256
397.573	260
398.035	257
398.498	271
398.96	268
399.423	275
399.885	277
400.348	282
400.81	297
401.273	299
401.736	294
402.198	308
402.661	321
403.124	324
403.587	330
404.049	339
404.512	348
404.975	354
405.438	349
405.901	352
406.364	352
406.827	362
407.29	353
407.754	352
408.217	348
408.68	356
409.143	360
409.607	364
410.07	361
410.533	366
410.997	373
411.46	377
411.924	373
412.387	377
412.851	398
413.314	410
413.778	408
414.242	412
414.705	431
415.169	421
415.633	431
416.097	429
416.561	434
417.024	441
417.488	428
417.952	438
418.416	429
418.88	437
419.344	432
419.809	437
420.273	446
420.737	432
421.201	444
421.665	452
422.13	447
422.594	456
423.059	469
423.523	476
423.987	477
424.452	495
424.916	504
425.381	520
425.846	525
426.31	522
426.775	530
427.24	545
427.704	538
428.169	547
428.634	543
429.099	531
429.564	533
430.029	536
430.494	539
430.959	540
431.424	530
431.889	551
432.354	553
432.819	545
433.284	566
433.75	561
434.215	588
434.68	594
435.146	600
435.611	627
436.077	645
436.542	659
437.008	678
437.473	679
437.939	686
438.404	706
438.87	709
439.336	690
439.801	696
440.267	708
440.733	718
441.199	715
441.665	714
442.131	731
442.596	719
443.062	739
443.529	759
443.995	768
444.461	781
444.927	808
445.393	812
445.859	844
446.325	848
446.792	904
447.258	899
447.724	930
448.191	969
448.657	973
449.124	1003
449.59	996
450.057	1043
450.523	1053
450.99	1075
451.457	1064
451.923	1083
452.39	1067
452.857	1089
453.324	1082
453.791	1095
454.257	1095
454.724	1113
455.191	1101
455.658	1098
456.125	1140
456.592	1111
457.059	1131
457.527	1137
457.994	1175
458.461	1174
458.928	1193
459.396	1184
459.863	1228
460.33	1225
460.798	1234
461.265	1243
461.732	1230
462.2	1264
462.668	1256
463.135	1271
463.603	1235
464.07	1278
464.538	1233
465.006	1269
465.474	1234
465.941	1238
466.409	1255
466.877	1223
467.345	1258
467.813	1234
468.281	1242
468.749	1259
469.217	1253
469.685	1265
470.153	1280
470.621	1271
471.09	1269
471.558	1334
472.026	1314
472.494	1351
472.963	1368
473.431	1414
473.9	1430
474.368	1463
474.837	1487
475.305	1507
475.774	1540
476.242	1581
476.711	1589
477.18	1620
477.648	1598
478.117	1622
478.586	1611
479.055	1607
479.524	1619
479.993	1607
480.462	1604
480.93	1615
481.399	1615
481.869	1623
482.338	1598
482.807	1617
483.276	1608
483.745	1600
484.214	1646
484.684	1656
485.153	1652
485.622	1659
486.092	1709
486.561	1670
487.031	1721
487.5	1754
487.97	1749
488.439	1778
488.909	1822
489.378	1890
489.848	1888
490.318	1923
490.787	2001
491.257	2039
491.727	2057
492.197	2098
492.667	2081
493.137	2121
493.607	2129
494.077	2142
494.547	2120
495.017	2108
495.487	2145
495.957	2194
496.427	2131
496.897	2139
497.368	2157
497.838	2140
498.308	2168
498.779	2174
499.249	2177
499.719	2183
500.19	2194
500.66	2218
501.131	2223
501.602	2268
502.072	2267
502.543	2272
503.014	2351
503.484	2337
503.955	2394
504.426	2466
504.897	2469
505.368	2522
505.838	2562
506.309	2616
506.78	2708
507.251	2744
507.722	2787
508.194	2858
508.665	2885
509.136	2876
509.607	2971
510.078	3018
510.549	3034
511.021	3121
511.492	3117
511.964	3144
512.435	3180
512.906	3165
513.378	3190
513.849	3224
514.321	3232
514.793	3265
515.264	3288
515.736	3314
516.208	3367
516.679	3382
517.151	3424
517.623	3440
518.095	3491
518.567	3515
519.038	3557
519.51	3551
519.982	3606
520.454	3650
520.927	3661
521.399	3700
521.871	3729
522.343	3737
522.815	3794
523.287	3795
523.76	3812
524.232	3867
524.704	3895
525.177	3838
525.649	3858
526.122	3891
526.594	3804
527.067	3898
527.539	3939
528.012	3906
528.484	3883
528.957	3882
529.43	3883
529.903	3872
530.375	3995
530.848	3889
531.321	3930
531.794	3928
532.267	4002
532.74	3938
533.213	3914
533.686	3987
534.159	3945
534.632	4040
535.105	4025
535.578	4081
536.051	4094
536.525	4116
536.998	4098
537.471	4170
537.945	4113
538.418	4172
538.891	4185
539.365	4252
539.838	4284
540.312	4267
540.786	4298
541.259	4290
541.733	4339
542.206	4339
542.68	4258
543.154	4245
543.628	4245
544.101	4356
544.575	4326
545.049	4218
545.523	4298
545.997	4260
546.471	4294
546.945	4249
547.419	4296
547.893	4132
548.367	4203
548.842	4160
549.316	4171
549.79	4199
550.264	4155
550.739	4203
551.213	4195
551.687	4208
552.162	4230
552.636	4180
553.111	4157
553.585	4261
554.06	4180
554.534	4278
555.009	4236
555.484	4295
555.958	4349
556.433	4362
556.908	4413
557.383	4350
557.858	4463
558.333	4482
558.807	4422
559.282	4457
559.757	4568
560.232	4599
560.708	4507
561.183	4490
561.658	4553
562.133	4546
562.608	4502
563.083	4629
563.559	4501
564.034	4513
564.509	4515
564.985	4533
565.46	4467
565.936	4538
566.411	4551
566.887	4477
567.362	4497
567.838	4466
568.313	4538
568.789	4494
569.265	4475
569.74	4501
570.216	4461
570.692	4530
571.168	4517
571.644	4512
572.12	4493
572.596	4532
573.071	4508
573.547	4603
574.024	4642
574.5	4648
574.976	4664
575.452	4734
575.928	4750
576.404	4764
576.881	4928
577.357	4845
577.833	4881
578.31	4988
578.786	5055
579.262	5153
579.739	5078
580.215	5199
580.692	5197
581.169	5178
581.645	5188
582.122	5308
582.598	5266
583.075	5278
583.552	5337
584.029	5343
584.506	5293
584.982	5262
585.459	5385
585.936	5301
586.413	5365
586.89	5415
587.367	5331
587.844	5417
588.321	5373
588.799	5381
589.276	5323
589.753	5398
590.23	5427
590.707	5392
591.185	5386
591.662	5375
592.139	5424
592.617	5494
593.094	5477
593.572	5521
594.049	5551
594.527	5614
595.004	5592
595.482	5725
595.96	5669
596.437	5654
596.915	5800
597.393	5717
597.871	5840
598.349	5754
598.826	5873
599.304	5895
599.782	6007
600.26	5910
600.738	6014
601.216	5966
601.694	6025
602.173	6085
602.651	6129
603.129	6033
603.607	6085
604.085	6129
604.564	6120
605.042	6135
605.52	6085
605.999	6227
606.477	6105
606.956	6100
607.434	6106
607.913	6112
608.391	6115
608.87	6129
609.348	6040
609.827	6059
610.306	6089
610.785	6076
611.263	6101
611.742	6061
612.221	5959
612.7	6025
613.179	6060
613.658	5985
614.137	6107
614.616	6148
615.095	6004
615.574	6062
616.053	6105
616.532	6049
617.011	6073
617.491	6062
617.97	6045
618.449	6105
618.928	6169
619.408	6129
619.887	6174
620.367	6185
620.846	6237
621.326	6215
621.805	6341
622.285	6321
622.764	6346
623.244	6345
623.724	6389
624.203	6435
624.683	6312
625.163	6448
625.643	6410
626.123	6357
626.602	6500
627.082	6328
627.562	6332
628.042	6480
628.522	6427
629.002	6425
629.482	6463
629.963	6416
630.443	6320
630.923	6351
631.403	6406
631.883	6388
632.364	6397
632.844	6333
633.324	6327
633.805	6329
634.285	6263
634.766	6250
635.246	6232
635.727	6240
636.207	6242
636.688	6244
637.168	6267
637.649	6190
638.13	6137
638.611	6163
639.091	6178
639.572	6185
640.053	6143
640.534	6189
641.015	6144
641.496	6041
641.977	6127
642.458	6048
642.939	6031
643.42	6046
643.901	6053
644.382	6097
644.863	6089
645.345	6090
645.826	6071
646.307	6052
646.788	6136
647.27	6037
647.751	6097
648.233	6167
648.714	6037
649.196	6200
649.677	6155
650.159	6166
650.64	6083
651.122	6167
651.603	6055
652.085	6093
652.567	6095
653.049	6026
653.53	6033
654.012	6107
654.494	5973
654.976	5994
655.458	5959
655.94	5960
656.422	6063
656.904	5999
657.386	5914
657.868	5913
658.35	5895
658.833	5964
659.315	5967
659.797	5887
660.279	5886
660.762	5923
661.244	5872
661.726	5824
662.209	5822
662.691	5825
663.174	5707
663.656	5726
664.139	5734
664.621	5693
665.104	5641
665.587	5659
666.069	5656
666.552	5626
667.035	5571
667.517	5595
668	5642
668.483	5621
668.966	5550
669.449	5511
669.932	5556
670.415	5643
670.898	5590
671.381	5580
671.864	5605
672.347	5540
672.83	5554
673.313	5577
673.797	5533
674.28	5607
674.763	5592
675.247	5587
675.73	5581
676.213	5638
676.697	5683
677.18	5683
677.664	5680
678.147	5658
678.631	5667
679.114	5707
679.598	5701
680.082	5732
680.565	5725
681.049	5705
681.533	5709
682.017	5780
682.5	5768
682.984	5781
683.468	5752
683.952	5628
684.436	5720
684.92	5646
685.404	5677
685.888	5706
686.372	5662
686.856	5653
687.341	5715
687.825	5635
688.309	5665
688.793	5669
689.278	5615
689.762	5663
690.246	5632
690.731	5640
691.215	5646
691.7	5486
692.184	5545
692.669	5518
693.153	5542
693.638	5460
694.122	5466
694.607	5492
695.092	5408
695.577	5461
696.061	5365
696.546	5360
697.031	5336
697.516	5378
698.001	5375
698.486	5327
698.971	5395
699.456	5277
699.941	5280
700.426	5288
700.911	5322
701.396	5267
701.881	5282
702.366	5251
702.852	5209
703.337	5237
703.822	5221
704.308	5215
704.793	5230
705.278	5225
705.764	5226
706.249	5178
706.735	5186
707.22	5225
707.706	5155
708.191	5238
708.677	5227
709.163	5194
709.648	5219
710.134	5275
710.62	5191
711.106	5166
711.592	5218
712.077	5212
712.563	5098
713.049	5095
713.535	5183
714.021	5151
714.507	5115
714.993	5049
715.479	5133
715.966	5054
716.452	5045
716.938	5058
717.424	4916
717.91	5021
718.397	4977
718.883	4946
719.369	4945
719.856	4917
720.342	4961
720.829	4870
721.315	4880
721.802	4866
722.288	4913
722.775	4750
723.262	4630
723.748	4808
724.235	4755
724.722	4812
725.208	4727
725.695	4745
726.182	4730
726.669	4647
727.156	4659
727.643	4614
728.13	4623
728.617	4600
729.104	4587
729.591	4552
730.078	4580
730.565	4594
731.052	4523
731.539	4538
732.027	4504
732.514	4437
733.001	4477
733.488	4466
733.976	4448
734.463	4439
734.951	4422
735.438	4462
735.926	4410
736.413	4418
736.901	4346
737.388	4381
737.876	4347
738.364	4292
738.851	4298
739.339	4290
739.827	4328
740.314	4227
740.802	4271
741.29	4302
741.778	4229
742.266	4232
742.754	4237
743.242	4275
743.73	4193
744.218	4194
744.706	4135
745.194	4179
745.682	4159
746.17	4189
746.659	4215
747.147	4105
747.635	4119
748.123	4110
748.612	4060
749.1	4035
749.589	4038
750.077	4003
750.566	3952
751.054	3990
751.543	3994
752.031	3916
752.52	3905
753.008	3819
753.497	3811
753.986	3817
754.474	3795
754.963	3825
755.452	3770
755.941	3729
756.43	3715
756.919	3699
757.408	3669
757.896	3665
758.385	3687
758.875	3647
759.364	3621
759.853	3607
760.342	3558
760.831	3630
761.32	3618
761.809	3575
762.299	3593
762.788	3583
763.277	3549
763.767	3487
764.256	3477
764.745	3419
765.235	3471
765.724	3382
766.214	3423
766.703	3391
767.193	3333
767.683	3342
768.172	3285
768.662	3321
769.152	3326
769.641	3334
770.131	3238
770.621	3261
771.111	3211
771.601	3209
772.09	3180
772.58	3161
773.07	3174
773.56	3213
774.05	3133
774.54	3108
775.031	3078
775.521	3052
776.011	3055
776.501	3077
776.991	3030
777.482	3068
777.972	2984
778.462	2980
778.953	3007
779.443	2985
779.933	2987
780.424	2936
780.914	2942
781.405	2933
781.895	2901
782.386	2892
782.877	2879
783.367	2826
783.858	2810
784.349	2822
784.839	2813
785.33	2830
785.821	2798
786.312	2777
786.803	2759
787.293	2755
787.784	2717
788.275	2677
788.766	2662
789.257	2709
789.748	2648
790.24	2623
790.731	2639
791.222	2603
791.713	2592
792.204	2606
792.696	2540
793.187	2587
793.678	2566
794.169	2504
794.661	2530
795.152	2501
795.644	2481
796.135	2461
796.627	2473
797.118	2430
797.61	2420
798.101	2401
798.593	2425
799.085	2384
799.576	2370
800.068	2337
800.56	2347
801.052	2288
801.544	2287
802.035	2297
802.527	2275
803.019	2258
803.511	2249
804.003	2228
804.495	2233
804.987	2206
805.479	2157
805.971	2168
806.464	2182
806.956	2130
807.448	2126
807.94	2125
808.433	2111
808.925	2096
809.417	2098
809.91	2097
810.402	2042
810.894	2067
811.387	2071
811.879	2033
812.372	2020
812.865	1994
813.357	1985
813.85	1983
814.342	1962
814.835	1969
815.328	1974
815.821	1937
816.313	1932
816.806	1927
817.299	1919
817.792	1942
818.285	1916
818.778	1958
819.271	1957
819.764	1915
820.257	1917
820.75	1898
821.243	1888
821.736	1867
822.229	1897
822.722	1892
823.216	1927
