Data from lamp4bck_Subt2__67__567.txt Node

Date: Wed Apr 09 11:16:24 CEST 2025
User: fys-lab-0081
Spectrometer: S04999
Trigger mode: 0
Resolution mode: 1024 pixels
Integration Time (sec): 1.000000E-1
Scans to average: 1
Nonlinearity correction enabled: false
Boxcar width: 0
Baseline correction enabled: true
XAxis mode: Wavelengths
Number of Pixels in Spectrum: 1024
>>>>>Begin Spectral Data<<<<<
336.42	-3
336.877	3
337.334	1
337.792	3
338.249	4
338.706	4
339.164	-1
339.621	6
340.079	7
340.536	3
340.994	4
341.452	6
341.909	9
342.367	4
342.825	0
343.283	2
343.741	3
344.198	3
344.656	2
345.114	0
345.572	7
346.03	2
346.488	2
346.947	1
347.405	7
347.863	3
348.321	3
348.779	9
349.238	4
349.696	7
350.154	3
350.613	4
351.071	5
351.53	12
351.988	5
352.447	0
352.905	1
353.364	10
353.823	6
354.282	4
354.74	0
355.199	8
355.658	10
356.117	6
356.576	6
357.035	0
357.494	5
357.953	5
358.412	10
358.871	9
359.33	5
359.789	2
360.249	7
360.708	9
361.167	11
361.626	9
362.086	11
362.545	9
363.005	10
363.464	11
363.924	11
364.383	12
364.843	11
365.303	14
365.762	13
366.222	12
366.682	11
367.142	11
367.601	14
368.061	10
368.521	15
368.981	12
369.441	19
369.901	19
370.361	14
370.821	15
371.282	14
371.742	16
372.202	15
372.662	17
373.123	14
373.583	20
374.043	20
374.504	19
374.964	15
375.425	18
375.885	20
376.346	20
376.806	23
377.267	19
377.728	22
378.188	25
378.649	22
379.11	28
379.571	19
380.032	27
380.493	27
380.954	28
381.414	26
381.876	25
382.337	25
382.798	30
383.259	33
383.72	37
384.181	31
384.642	31
385.104	36
385.565	42
386.026	37
386.488	39
386.949	39
387.411	41
387.872	46
388.334	43
388.795	46
389.257	48
389.719	49
390.181	47
390.642	45
391.104	48
391.566	50
392.028	57
392.49	59
392.952	60
393.414	56
393.876	65
394.338	57
394.8	60
395.262	56
395.724	67
396.186	65
396.648	66
397.111	65
397.573	70
398.035	69
398.498	74
398.96	73
399.423	69
399.885	73
400.348	76
400.81	78
401.273	79
401.736	78
402.198	89
402.661	85
403.124	81
403.587	92
404.049	95
404.512	98
404.975	94
405.438	93
405.901	102
406.364	102
406.827	99
407.29	100
407.754	95
408.217	99
408.68	96
409.143	108
409.607	111
410.07	109
410.533	108
410.997	110
411.46	112
411.924	118
412.387	115
412.851	114
413.314	116
413.778	122
414.242	123
414.705	132
415.169	129
415.633	125
416.097	126
416.561	129
417.024	131
417.488	130
417.952	131
418.416	129
418.88	132
419.344	132
419.809	139
420.273	135
420.737	135
421.201	143
421.665	144
422.13	147
422.594	147
423.059	157
423.523	159
423.987	156
424.452	161
424.916	167
425.381	166
425.846	170
426.31	179
426.775	175
427.24	179
427.704	180
428.169	184
428.634	186
429.099	185
429.564	184
430.029	180
430.494	180
430.959	187
431.424	188
431.889	193
432.354	199
432.819	189
433.284	203
433.75	203
434.215	214
434.68	214
435.146	214
435.611	223
436.077	234
436.542	234
437.008	247
437.473	242
437.939	244
438.404	251
438.87	253
439.336	252
439.801	249
440.267	258
440.733	265
441.199	264
441.665	263
442.131	272
442.596	270
443.062	279
443.529	292
443.995	295
444.461	298
444.927	310
445.393	313
445.859	321
446.325	335
446.792	357
447.258	350
447.724	364
448.191	378
448.657	383
449.124	382
449.59	381
450.057	408
450.523	419
450.99	423
451.457	420
451.923	429
452.39	424
452.857	437
453.324	430
453.791	440
454.257	445
454.724	451
455.191	447
455.658	452
456.125	463
456.592	460
457.059	463
457.527	476
457.994	487
458.461	488
458.928	498
459.396	493
459.863	509
460.33	506
460.798	510
461.265	522
461.732	518
462.2	530
462.668	527
463.135	533
463.603	520
464.07	544
464.538	520
465.006	541
465.474	531
465.941	530
466.409	538
466.877	527
467.345	541
467.813	531
468.281	543
468.749	552
469.217	551
469.685	560
470.153	571
470.621	570
471.09	571
471.558	600
472.026	604
472.494	622
472.963	621
473.431	636
473.9	655
474.368	677
474.837	682
475.305	687
475.774	699
476.242	714
476.711	716
477.18	743
477.648	736
478.117	736
478.586	746
479.055	747
479.524	747
479.993	752
480.462	754
480.93	756
481.399	753
481.869	760
482.338	747
482.807	770
483.276	761
483.745	755
484.214	780
484.684	793
485.153	799
485.622	809
486.092	829
486.561	814
487.031	854
487.5	856
487.97	871
488.439	892
488.909	916
489.378	951
489.848	951
490.318	972
490.787	1015
491.257	1021
491.727	1027
492.197	1042
492.667	1045
493.137	1052
493.607	1063
494.077	1072
494.547	1068
495.017	1055
495.487	1081
495.957	1103
496.427	1085
496.897	1080
497.368	1102
497.838	1094
498.308	1108
498.779	1117
499.249	1127
499.719	1137
500.19	1151
500.66	1152
501.131	1165
501.602	1192
502.072	1194
502.543	1217
503.014	1256
503.484	1265
503.955	1295
504.426	1346
504.897	1342
505.368	1374
505.838	1403
506.309	1432
506.78	1472
507.251	1506
507.722	1530
508.194	1576
508.665	1595
509.136	1592
509.607	1642
510.078	1651
510.549	1648
511.021	1699
511.492	1699
511.964	1726
512.435	1757
512.906	1753
513.378	1766
513.849	1800
514.321	1800
514.793	1822
515.264	1854
515.736	1871
516.208	1913
516.679	1929
517.151	1944
517.623	1957
518.095	1993
518.567	2004
519.038	2043
519.51	2037
519.982	2055
520.454	2077
520.927	2112
521.399	2151
521.871	2170
522.343	2179
522.815	2199
523.287	2211
523.76	2239
524.232	2259
524.704	2282
525.177	2249
525.649	2257
526.122	2281
526.594	2237
527.067	2295
527.539	2322
528.012	2305
528.484	2304
528.957	2321
529.43	2308
529.903	2300
530.375	2368
530.848	2315
531.321	2357
531.794	2360
532.267	2429
532.74	2391
533.213	2384
533.686	2420
534.159	2416
534.632	2478
535.105	2506
535.578	2561
536.051	2562
536.525	2560
536.998	2564
537.471	2618
537.945	2573
538.418	2612
538.891	2598
539.365	2654
539.838	2677
540.312	2664
540.786	2674
541.259	2674
541.733	2726
542.206	2743
542.68	2700
543.154	2700
543.628	2725
544.101	2784
544.575	2751
545.049	2682
545.523	2725
545.997	2743
546.471	2751
546.945	2721
547.419	2764
547.893	2668
548.367	2723
548.842	2689
549.316	2718
549.79	2738
550.264	2711
550.739	2747
551.213	2730
551.687	2745
552.162	2767
552.636	2767
553.111	2759
553.585	2860
554.06	2824
554.534	2880
555.009	2858
555.484	2908
555.958	2940
556.433	2925
556.908	2968
557.383	2951
557.858	3041
558.333	3044
558.807	3029
559.282	3053
559.757	3132
560.232	3129
560.708	3081
561.183	3061
561.658	3115
562.133	3094
562.608	3068
563.083	3146
563.559	3095
564.034	3107
564.509	3099
564.985	3101
565.46	3061
565.936	3133
566.411	3135
566.887	3099
567.362	3134
567.838	3131
568.313	3171
568.789	3117
569.265	3111
569.74	3141
570.216	3124
570.692	3177
571.168	3176
571.644	3181
572.12	3194
572.596	3240
573.071	3234
573.547	3339
574.024	3381
574.5	3396
574.976	3400
575.452	3453
575.928	3475
576.404	3496
576.881	3612
577.357	3556
577.833	3575
578.31	3662
578.786	3705
579.262	3745
579.739	3687
580.215	3809
580.692	3811
581.169	3780
581.645	3788
582.122	3894
582.598	3913
583.075	3928
583.552	3963
584.029	3933
584.506	3885
584.982	3879
585.459	3979
585.936	3906
586.413	3957
586.89	4036
587.367	3977
587.844	4032
588.321	3991
588.799	4028
589.276	3998
589.753	4061
590.23	4075
590.707	4052
591.185	4065
591.662	4086
592.139	4119
592.617	4177
593.094	4143
593.572	4197
594.049	4254
594.527	4308
595.004	4310
595.482	4441
595.96	4436
596.437	4447
596.915	4525
597.393	4444
597.871	4540
598.349	4520
598.826	4611
599.304	4613
599.782	4702
600.26	4650
600.738	4753
601.216	4733
601.694	4751
602.173	4764
602.651	4783
603.129	4723
603.607	4759
604.085	4785
604.564	4785
605.042	4794
605.52	4762
605.999	4887
606.477	4752
606.956	4736
607.434	4796.5
607.913	4857
608.391	4846
608.87	4831
609.348	4754
609.827	4757
610.306	4793
610.785	4841
611.263	4848
611.742	4805
612.221	4753
612.7	4831
613.179	4846
613.658	4794
614.137	4878
614.616	4901
615.095	4814
615.574	4880
616.053	4893
616.532	4855
617.011	4880
617.491	4917
617.97	4889
618.449	4926
618.928	4952
619.408	4925
619.887	4986
620.367	4997
620.846	5059
621.326	5022
621.805	5140
622.285	5130
622.764	5171
623.244	5173
623.724	5188
624.203	5236
624.683	5193
625.163	5301
625.643	5306
626.123	5289
626.602	5409
627.082	5304
627.562	5280
628.042	5367
628.522	5304
629.002	5211
629.482	5267
629.963	5288
630.443	5250
630.923	5298
631.403	5305
631.883	5247
632.364	5272
632.844	5238
633.324	5273
633.805	5307
634.285	5215
634.766	5173
635.246	5159
635.727	5148
636.207	5142
636.688	5157
637.168	5146
637.649	5080
638.13	5049
638.611	5113
639.091	5124
639.572	5139
640.053	5135
640.534	5196
641.015	5210
641.496	5123
641.977	5191
642.458	5130
642.939	5161
643.42	5169
643.901	5158
644.382	5194
644.863	5147
645.345	5134
645.826	5131
646.307	5110
646.788	5220
647.27	5126
647.751	5107
648.233	5135
648.714	5007
649.196	5165
649.677	5120
650.159	5107
650.64	5072
651.122	5147
651.603	5065
652.085	5110
652.567	5135
653.049	5081
653.53	5084
654.012	5159
654.494	5086
654.976	5186
655.458	5178
655.94	5159
656.422	5243
656.904	5149
657.386	5083
657.868	5118
658.35	5103
658.833	5150
659.315	5158
659.797	5074
660.279	5030
660.762	5050
661.244	5003
661.726	4935
662.209	4928
662.691	4919
663.174	4841
663.656	4882
664.139	4865
664.621	4790
665.104	4748
665.587	4771
666.069	4820
666.552	4812
667.035	4748
667.517	4746
668	4801
668.483	4782
668.966	4745
669.449	4735
669.932	4745
670.415	4819
670.898	4787
671.381	4798
671.864	4809
672.347	4765
672.83	4781
673.313	4786
673.797	4769
674.28	4867
674.763	4892
675.247	4889
675.73	4860
676.213	4878
676.697	4906
677.18	4918
677.664	4938
678.147	4902
678.631	4939
679.114	4951
679.598	4935
680.082	4954
680.565	4917
681.049	4884
681.533	4886
682.017	4919
682.5	4922
682.984	4930
683.468	4921
683.952	4826
684.436	4916
684.92	4826
685.404	4841
685.888	4882
686.372	4847
686.856	4868
687.341	4926
687.825	4864
688.309	4909
688.793	4943
689.278	4852
689.762	4869
690.246	4855
690.731	4871
691.215	4914
691.7	4822
692.184	4877
692.669	4853
693.153	4861
693.638	4758
694.122	4756
694.607	4816
695.092	4757
695.577	4800
696.061	4704
696.546	4697
697.031	4645
697.516	4669
698.001	4643
698.486	4605
698.971	4615
699.456	4531
699.941	4549
700.426	4543
700.911	4604
701.396	4556
701.881	4570
702.366	4495
702.852	4460
703.337	4486
703.822	4497
704.308	4513
704.793	4552
705.278	4572
705.764	4599
706.249	4572
706.735	4545
707.22	4595
707.706	4549
708.191	4630
708.677	4613
709.163	4554
709.648	4569
710.134	4654
710.62	4605
711.106	4617
711.592	4680
712.077	4643
712.563	4546
713.049	4549
713.535	4633
714.021	4598
714.507	4564
714.993	4508
715.479	4538
715.966	4472
716.452	4464
716.938	4468
717.424	4318
717.91	4404
718.397	4362
718.883	4317
719.369	4323
719.856	4293
720.342	4369
720.829	4308
721.315	4330
721.802	4302
722.288	4331
722.775	4172
723.262	4067
723.748	4238
724.235	4197
724.722	4247
725.208	4142
725.695	4127
726.182	4125
726.669	4086
727.156	4109
727.643	4039
728.13	4039
728.617	4031
729.104	4060
729.591	4017
730.078	4058
730.565	4070
731.052	4032
731.539	4039
732.027	3996
732.514	3922
733.001	3961
733.488	3925
733.976	3937
734.463	3909
734.951	3892
735.438	3909
735.926	3857
736.413	3882
736.901	3860
737.388	3903
737.876	3876
738.364	3839
738.851	3844
739.339	3847
739.827	3885
740.314	3767
740.802	3776
741.29	3784
741.778	3738
742.266	3751
742.754	3750
743.242	3782
743.73	3724
744.218	3730
744.706	3684
745.194	3698
745.682	3648
746.17	3644
746.659	3643
747.147	3557
747.635	3591
748.123	3588
748.612	3528
749.1	3509
749.589	3550
750.077	3542
750.566	3546
751.054	3576
751.543	3581
752.031	3499
752.52	3480
753.008	3417
753.497	3422
753.986	3401
754.474	3381
754.963	3399
755.452	3341
755.941	3332
756.43	3340
756.919	3330
757.408	3272
757.896	3270
758.385	3274
758.875	3236
759.364	3213
759.853	3182
760.342	3130
760.831	3218
761.32	3168
761.809	3118
762.299	3130
762.788	3114
763.277	3101
763.767	3047
764.256	3053
764.745	3030
765.235	3087
765.724	2992
766.214	3028
766.703	2981
767.193	2910
767.683	2912
768.172	2869
768.662	2899
769.152	2873
769.641	2870
770.131	2802
770.621	2855
771.111	2814
771.601	2807
772.09	2798
772.58	2762
773.07	2778
773.56	2786
774.05	2736
774.54	2719
775.031	2711
775.521	2707
776.011	2713
776.501	2736
776.991	2667
777.482	2676
777.972	2609
778.462	2611
778.953	2621
779.443	2598
779.933	2586
780.424	2555
780.914	2574
781.405	2575
781.895	2565
782.386	2569
782.877	2548
783.367	2492
783.858	2473
784.349	2483
784.839	2461
785.33	2467
785.821	2433
786.312	2413
786.803	2416
787.293	2412
787.784	2366
788.275	2322
788.766	2283
789.257	2313
789.748	2268
790.24	2247
790.731	2260
791.222	2224
791.713	2215
792.204	2227
792.696	2172
793.187	2209
793.678	2191
794.169	2118
794.661	2142
795.152	2111
795.644	2095
796.135	2103
796.627	2106
797.118	2066
797.61	2037
798.101	2008
798.593	2041
799.085	2005
799.576	2016
800.068	1984
800.56	1996
801.052	1953
801.544	1949
802.035	1947
802.527	1910
803.019	1893
803.511	1880
804.003	1855
804.495	1863
804.987	1854
805.479	1821
805.971	1818
806.464	1833
806.956	1791
807.448	1782
807.94	1771
808.433	1765
808.925	1756
809.417	1736
809.91	1719
810.402	1666
810.894	1677
811.387	1681
811.879	1660
812.372	1671
812.865	1654
813.357	1651
813.85	1633
814.342	1617
814.835	1620
815.328	1615
815.821	1596
816.313	1593
816.806	1588
817.299	1577
817.792	1595
818.285	1558
818.778	1587
819.271	1588
819.764	1566
820.257	1572
820.75	1566
821.243	1563
821.736	1548
822.229	1552
822.722	1558
823.216	1591
