Data from lamp4bck_Subt4__11__73.txt Node

Date: Wed Apr 09 09:37:17 CEST 2025
User: fys-lab-0081
Spectrometer: S04999
Trigger mode: 0
Resolution mode: 1024 pixels
Integration Time (sec): 1.000000E-1
Scans to average: 1
Nonlinearity correction enabled: false
Boxcar width: 0
Baseline correction enabled: true
XAxis mode: Wavelengths
Number of Pixels in Spectrum: 1024
>>>>>Begin Spectral Data<<<<<
336.42	4
336.877	4
337.334	8
337.792	1
338.249	6
338.706	3
339.164	3
339.621	3
340.079	4
340.536	8
340.994	8
341.452	0
341.909	3
342.367	2
342.825	3
343.283	5
343.741	3
344.198	5
344.656	6
345.114	3
345.572	5
346.03	6
346.488	10
346.947	4
347.405	7
347.863	6
348.321	13
348.779	11
349.238	8
349.696	8
350.154	10
350.613	4
351.071	10
351.53	12
351.988	10
352.447	6
352.905	11
353.364	11
353.823	13
354.282	15
354.74	8
355.199	10
355.658	16
356.117	14
356.576	18
357.035	11
357.494	15
357.953	20
358.412	13
358.871	10
359.33	14
359.789	14
360.249	11
360.708	18
361.167	15
361.626	23
362.086	15
362.545	23
363.005	24
363.464	15
363.924	19
364.383	24
364.843	20
365.303	21
365.762	25
366.222	19
366.682	21
367.142	27
367.601	27
368.061	25
368.521	31
368.981	27
369.441	30
369.901	33
370.361	24
370.821	25
371.282	28
371.742	34
372.202	33
372.662	31
373.123	31
373.583	34
374.043	34
374.504	28
374.964	34
375.425	33
375.885	40
376.346	39
376.806	40
377.267	40
377.728	46
378.188	38
378.649	45
379.11	42
379.571	44
380.032	42
380.493	45
380.954	50
381.414	51
381.876	51
382.337	53
382.798	60
383.259	63
383.72	58
384.181	62
384.642	63
385.104	72
385.565	80
386.026	74
386.488	74
386.949	76
387.411	80
387.872	77
388.334	81
388.795	77
389.257	86
389.719	87
390.181	83
390.642	92
391.104	90
391.566	92
392.028	102
392.49	96
392.952	101
393.414	109
393.876	109
394.338	112
394.8	108
395.262	112
395.724	118
396.186	121
396.648	122
397.111	121
397.573	130
398.035	127
398.498	128
398.96	128
399.423	135
399.885	140
400.348	142
400.81	148
401.273	146
401.736	148
402.198	156
402.661	158
403.124	158
403.587	161
404.049	168
404.512	175
404.975	178
405.438	169
405.901	179
406.364	185
406.827	180
407.29	182
407.754	181
408.217	184
408.68	179
409.143	180
409.607	191
410.07	189
410.533	191
410.997	200
411.46	191
411.924	200
412.387	202
412.851	208
413.314	220
413.778	221
414.242	221
414.705	235
415.169	232
415.633	230
416.097	234
416.561	235
417.024	244
417.488	239
417.952	241
418.416	241
418.88	243
419.344	241
419.809	244
420.273	246
420.737	244
421.201	243
421.665	259
422.13	257
422.594	266
423.059	271
423.523	274
423.987	284
424.452	287
424.916	296
425.381	304
425.846	309
426.31	306
426.775	312
427.24	323
427.704	307
428.169	326
428.634	323
429.099	315
429.564	320
430.029	326
430.494	324
430.959	327
431.424	318
431.889	334
432.354	338
432.819	335
433.284	343
433.75	346
434.215	364
434.68	371
435.146	377
435.611	392
436.077	402
436.542	411
437.008	421
437.473	430
437.939	433
438.404	443
438.87	450
439.336	440
439.801	442
440.267	443
440.733	458
441.199	458
441.665	451
442.131	479
442.596	463
443.062	479
443.529	495
443.995	500
444.461	512
444.927	534
445.393	540
445.859	561
446.325	565
446.792	606
447.258	600
447.724	616
448.191	640
448.657	648
449.124	671
449.59	666
450.057	699
450.523	702
450.99	715
451.457	715
451.923	721
452.39	715
452.857	736
453.324	725
453.791	745
454.257	743
454.724	750
455.191	758
455.658	751
456.125	777
456.592	763
457.059	780
457.527	803
457.994	827
458.461	822
458.928	841
459.396	841
459.863	862
460.33	864
460.798	870
461.265	876
461.732	863
462.2	886
462.668	884
463.135	901
463.603	875
464.07	890
464.538	873
465.006	907
465.474	886
465.941	890
466.409	906
466.877	888
467.345	915
467.813	908
468.281	913
468.749	915
469.217	914
469.685	920
470.153	934
470.621	939
471.09	939
471.558	978
472.026	981
472.494	1011
472.963	1022
473.431	1057
473.9	1081
474.368	1111
474.837	1132
475.305	1149
475.774	1166
476.242	1192
476.711	1194
477.18	1221
477.648	1214
478.117	1231
478.586	1213
479.055	1219
479.524	1227
479.993	1223
480.462	1214
480.93	1230
481.399	1238
481.869	1242
482.338	1235
482.807	1254
483.276	1249
483.745	1255
484.214	1289
484.684	1299
485.153	1293
485.622	1302
486.092	1341
486.561	1314
487.031	1350
487.5	1381
487.97	1395
488.439	1434
488.909	1475
489.378	1528
489.848	1524
490.318	1569
490.787	1632
491.257	1665
491.727	1670
492.197	1715
492.667	1708
493.137	1733
493.607	1747
494.077	1760
494.547	1721
495.017	1728
495.487	1750
495.957	1771
496.427	1734
496.897	1750
497.368	1780
497.838	1758
498.308	1787
498.779	1799
499.249	1806
499.719	1829
500.19	1854
500.66	1870
501.131	1889
501.602	1938
502.072	1947
502.543	1964
503.014	2026
503.484	2015
503.955	2073
504.426	2139
504.897	2154
505.368	2191
505.838	2216
506.309	2278
506.78	2345
507.251	2385
507.722	2416
508.194	2494
508.665	2539
509.136	2529
509.607	2615
510.078	2661
510.549	2665
511.021	2726
511.492	2741
511.964	2782
512.435	2820
512.906	2793
513.378	2837
513.849	2877
514.321	2873
514.793	2901
515.264	2929
515.736	2963
516.208	2999
516.679	3019
517.151	3066
517.623	3077
518.095	3122
518.567	3164
519.038	3223
519.51	3214
519.982	3271
520.454	3325
520.927	3363
521.399	3404
521.871	3441
522.343	3472
522.815	3521
523.287	3500
523.76	3520
524.232	3566
524.704	3584
525.177	3528
525.649	3560
526.122	3612
526.594	3521
527.067	3601
527.539	3657
528.012	3630
528.484	3615
528.957	3653
529.43	3657
529.903	3638
530.375	3746
530.848	3667
531.321	3717
531.794	3729
532.267	3806
532.74	3751
533.213	3772
533.686	3833
534.159	3794
534.632	3865
535.105	3866
535.578	3940
536.051	3940
536.525	3948
536.998	3968
537.471	4059
537.945	3997
538.418	4053
538.891	4092
539.365	4129
539.838	4154
540.312	4165
540.786	4199
541.259	4172
541.733	4221
542.206	4231
542.68	4192
543.154	4201
543.628	4169
544.101	4289
544.575	4283
545.049	4201
545.523	4262
545.997	4222
546.471	4282
546.945	4246
547.419	4309
547.893	4135
548.367	4217
548.842	4187
549.316	4198
549.79	4207
550.264	4186
550.739	4245
551.213	4236
551.687	4227
552.162	4302
552.636	4282
553.111	4241
553.585	4347
554.06	4292
554.534	4384
555.009	4342
555.484	4405
555.958	4448
556.433	4482
556.908	4545
557.383	4487
557.858	4618
558.333	4650
558.807	4615
559.282	4614
559.757	4738
560.232	4768
560.708	4704
561.183	4688
561.658	4746
562.133	4735
562.608	4719
563.083	4833
563.559	4705
564.034	4746
564.509	4755
564.985	4771
565.46	4703
565.936	4765
566.411	4770
566.887	4715
567.362	4767
567.838	4755
568.313	4817
568.789	4773
569.265	4754
569.74	4765
570.216	4723
570.692	4846
571.168	4884
571.644	4851
572.12	4823
572.596	4865
573.071	4874
573.547	4979
574.024	4981
574.5	5036
574.976	5067
575.452	5143
575.928	5182
576.404	5216
576.881	5399
577.357	5329
577.833	5361
578.31	5456
578.786	5506
579.262	5641
579.739	5591
580.215	5710
580.692	5697
581.169	5664
581.645	5729
582.122	5896
582.598	5861
583.075	5825
583.552	5898
584.029	5923
584.506	5899
584.982	5839
585.459	5962
585.936	5915
586.413	5973
586.89	6031
587.367	5927
587.844	6030
588.321	6026
588.799	6031
589.276	5938
589.753	5979
590.23	6034
590.707	6026
591.185	6010
591.662	5977
592.139	6012
592.617	6129
593.094	6181
593.572	6227
594.049	6258
594.527	6269
595.004	6315
595.482	6527
595.96	6468
596.437	6466
596.915	6646
597.393	6611
597.871	6813
598.349	6685
598.826	6809
599.304	6832
599.782	6950
600.26	6873
600.738	6975
601.216	6898
601.694	6972
602.173	7034
602.651	7061
603.129	6962
603.607	7020
604.085	7049
604.564	7066
605.042	7045
605.52	6989
605.999	7167
606.477	7012
606.956	7048
607.434	7087.5
607.913	7127
608.391	7118
608.87	7147
609.348	7094
609.827	7137
610.306	7155
610.785	7154
611.263	7191
611.742	7214
612.221	7122
612.7	7194
613.179	7217
613.658	7146
614.137	7296
614.616	7343
615.095	7163
615.574	7204
616.053	7273
616.532	7263
617.011	7320
617.491	7313
617.97	7273
618.449	7325
618.928	7368
619.408	7290
619.887	7360
620.367	7373
620.846	7467
621.326	7423
621.805	7604
622.285	7561
622.764	7572
623.244	7537
623.724	7605
624.203	7656
624.683	7553
625.163	7723
625.643	7730
626.123	7713
626.602	7942
627.082	7776
627.562	7737
628.042	7913
628.522	7866
629.002	7849
629.482	7883
629.963	7869
630.443	7804
630.923	7828
631.403	7851
631.883	7803
632.364	7797
632.844	7713
633.324	7698
633.805	7697
634.285	7619
634.766	7585
635.246	7605
635.727	7568
636.207	7566
636.688	7569
637.168	7582
637.649	7520
638.13	7485
638.611	7564
639.091	7615
639.572	7614
640.053	7560
640.534	7590
641.015	7548
641.496	7429
641.977	7635
642.458	7622
642.939	7666
643.42	7701
643.901	7706
644.382	7749
644.863	7734
645.345	7735
645.826	7734
646.307	7708
646.788	7774
647.27	7652
647.751	7716
648.233	7820
648.714	7625
649.196	7798
649.677	7732
650.159	7718
650.64	7622
651.122	7758
651.603	7626
652.085	7679
652.567	7661
653.049	7601
653.53	7629
654.012	7745
654.494	7584
654.976	7655
655.458	7630
655.94	7642
656.422	7804
656.904	7744
657.386	7655
657.868	7645
658.35	7638
658.833	7720
659.315	7770
659.797	7672
660.279	7674
660.762	7784
661.244	7721
661.726	7596
662.209	7581
662.691	7539
663.174	7356
663.656	7411
664.139	7436
664.621	7380
665.104	7330
665.587	7388
666.069	7395
666.552	7361
667.035	7274
667.517	7305
668	7339
668.483	7290
668.966	7190
669.449	7163
669.932	7191
670.415	7261
670.898	7173
671.381	7186
671.864	7215
672.347	7161
672.83	7208
673.313	7276
673.797	7281
674.28	7396
674.763	7381
675.247	7413
675.73	7379
676.213	7466
676.697	7537
677.18	7537
677.664	7582
678.147	7622
678.631	7665
679.114	7730
679.598	7706
680.082	7697
680.565	7656
681.049	7623
681.533	7641
682.017	7774
682.5	7800
682.984	7831
683.468	7779
683.952	7578
684.436	7667
684.92	7564
685.404	7549
685.888	7559
686.372	7478
686.856	7505
687.341	7599
687.825	7519
688.309	7567
688.793	7580
689.278	7491
689.762	7578
690.246	7552
690.731	7582
691.215	7574
691.7	7358
692.184	7490
692.669	7516
693.153	7588
693.638	7504
694.122	7525
694.607	7578
695.092	7478
695.577	7583
696.061	7464
696.546	7492
697.031	7512
697.516	7577
698.001	7598
698.486	7569
698.971	7670
699.456	7520
699.941	7489
700.426	7444
700.911	7467
701.396	7372
701.881	7388
702.366	7340
702.852	7338
703.337	7378
703.822	7311
704.308	7264
704.793	7277
705.278	7275
705.764	7301
706.249	7270
706.735	7272
707.22	7380
707.706	7245
708.191	7343
708.677	7336
709.163	7309
709.648	7386
710.134	7466
710.62	7366
711.106	7397
711.592	7490
712.077	7501
712.563	7356
713.049	7365
713.535	7516
714.021	7450
714.507	7423
714.993	7353
715.479	7453
715.966	7382
716.452	7396
716.938	7417
717.424	7199
717.91	7348
718.397	7276
718.883	7227
719.369	7233
719.856	7166
720.342	7233
720.829	7131
721.315	7132
721.802	7116
722.288	7215
722.775	6968
723.262	6760
723.748	6993
724.235	6926
724.722	7026
725.208	6920
725.695	6922
726.182	6919
726.669	6819
727.156	6813
727.643	6687
728.13	6666
728.617	6642
729.104	6688
729.591	6668
730.078	6757
730.565	6809
731.052	6685
731.539	6696
732.027	6654
732.514	6583
733.001	6639
733.488	6625
733.976	6651
734.463	6651
734.951	6638
735.438	6733
735.926	6680
736.413	6742
736.901	6705
737.388	6797
737.876	6764
738.364	6705
738.851	6728
739.339	6663
739.827	6698
740.314	6490
740.802	6572
741.29	6626
741.778	6537
742.266	6528
742.754	6499
743.242	6553
743.73	6422
744.218	6430
744.706	6331
745.194	6363
745.682	6309
746.17	6312
746.659	6342
747.147	6173
747.635	6217
748.123	6216
748.612	6182
749.1	6150
749.589	6192
750.077	6135
750.566	6104
751.054	6139
751.543	6164
752.031	6065
752.52	6078
753.008	5969
753.497	5977
753.986	5968
754.474	5966
754.963	6025
755.452	5925
755.941	5899
756.43	5893
756.919	5879
757.408	5875
757.896	5912
758.385	5941
758.875	5877
759.364	5817
759.853	5773
760.342	5665
760.831	5765
761.32	5689
761.809	5597
762.299	5642
762.788	5629
763.277	5602
763.767	5495
764.256	5493
764.745	5418
765.235	5530
765.724	5383
766.214	5461
766.703	5413
767.193	5334
767.683	5360
768.172	5263
768.662	5335
769.152	5311
769.641	5305
770.131	5156
770.621	5221
771.111	5163
771.601	5158
772.09	5113
772.58	5039
773.07	5051
773.56	5098
774.05	4991
774.54	4965
775.031	4929
775.521	4924
776.011	4958
776.501	5043
776.991	4956
777.482	5004
777.972	4876
778.462	4872
778.953	4912
779.443	4873
779.933	4849
780.424	4788
780.914	4825
781.405	4848
781.895	4817
782.386	4808
782.877	4792
783.367	4704
783.858	4677
784.349	4682
784.839	4668
785.33	4663
785.821	4599
786.312	4540
786.803	4534
787.293	4545
787.784	4464
788.275	4443
788.766	4411
789.257	4484
789.748	4401
790.24	4353
790.731	4406
791.222	4334
791.713	4306
792.204	4293
792.696	4171
793.187	4221
793.678	4188
794.169	4058
794.661	4139
795.152	4089
795.644	4062
796.135	4034
796.627	4060
797.118	3996
797.61	3963
798.101	3914
798.593	3964
799.085	3905
799.576	3917
800.068	3852
800.56	3867
801.052	3789
801.544	3793
802.035	3801
802.527	3729
803.019	3685
803.511	3658
804.003	3636
804.495	3658
804.987	3623
805.479	3530
805.971	3568
806.464	3579
806.956	3494
807.448	3512
807.94	3535
808.433	3515
808.925	3487
809.417	3447
809.91	3441
810.402	3363
810.894	3408
811.387	3434
811.879	3375
812.372	3399
812.865	3353
813.357	3366
813.85	3340
814.342	3329
814.835	3323
815.328	3323
815.821	3277
816.313	3273
816.806	3277
817.299	3233
817.792	3259
818.285	3239
818.778	3290
819.271	3288
819.764	3222
820.257	3208
820.75	3186
821.243	3169
821.736	3148
822.229	3180
822.722	3182
823.216	3255
