Data from lamp4bck_Subt2__51__551.txt Node

Date: Wed Apr 09 11:16:22 CEST 2025
User: fys-lab-0081
Spectrometer: S04999
Trigger mode: 0
Resolution mode: 1024 pixels
Integration Time (sec): 1.000000E-1
Scans to average: 1
Nonlinearity correction enabled: false
Boxcar width: 0
Baseline correction enabled: true
XAxis mode: Wavelengths
Number of Pixels in Spectrum: 1024
>>>>>Begin Spectral Data<<<<<
336.42	1
336.877	5
337.334	1
337.792	7
338.249	4
338.706	4
339.164	1
339.621	3
340.079	1
340.536	6
340.994	3
341.452	5
341.909	7
342.367	2
342.825	0
343.283	8
343.741	3
344.198	2
344.656	-1
345.114	3
345.572	6
346.03	-1
346.488	3
346.947	3
347.405	7
347.863	5
348.321	0
348.779	8
349.238	5
349.696	4
350.154	3
350.613	1
351.071	5
351.53	7
351.988	7
352.447	5
352.905	0
353.364	5
353.823	11
354.282	7
354.74	1
355.199	6
355.658	14
356.117	6
356.576	6
357.035	4
357.494	8
357.953	2
358.412	11
358.871	11
359.33	9
359.789	2
360.249	11
360.708	7
361.167	10
361.626	7
362.086	5
362.545	8
363.005	12
363.464	13
363.924	9
364.383	10
364.843	14
365.303	14
365.762	16
366.222	14
366.682	12
367.142	14
367.601	9
368.061	7
368.521	15
368.981	14
369.441	17
369.901	15
370.361	12
370.821	11
371.282	16
371.742	16
372.202	16
372.662	18
373.123	13
373.583	17
374.043	24
374.504	17
374.964	16
375.425	19
375.885	17
376.346	24
376.806	24
377.267	17
377.728	27
378.188	24
378.649	17
379.11	22
379.571	21
380.032	29
380.493	24
380.954	29
381.414	29
381.876	26
382.337	26
382.798	29
383.259	30
383.72	32
384.181	28
384.642	38
385.104	36
385.565	42
386.026	38
386.488	41
386.949	40
387.411	42
387.872	43
388.334	43
388.795	47
389.257	49
389.719	52
390.181	49
390.642	44
391.104	51
391.566	55
392.028	54
392.49	56
392.952	57
393.414	58
393.876	63
394.338	57
394.8	55
395.262	56
395.724	69
396.186	63
396.648	64
397.111	66
397.573	73
398.035	66
398.498	68
398.96	75
399.423	72
399.885	75
400.348	76
400.81	75
401.273	75
401.736	75
402.198	87
402.661	88
403.124	86
403.587	94
404.049	94.5
404.512	95
404.975	93
405.438	99
405.901	102
406.364	101
406.827	97
407.29	101
407.754	99
408.217	102
408.68	102
409.143	105
409.607	109
410.07	106
410.533	105
410.997	110
411.46	111
411.924	114
412.387	116
412.851	116
413.314	118
413.778	120
414.242	121
414.705	130
415.169	126
415.633	128
416.097	124
416.561	131
417.024	133
417.488	134
417.952	135
418.416	129
418.88	130
419.344	134
419.809	135
420.273	140
420.737	134
421.201	140
421.665	144
422.13	148
422.594	151
423.059	153
423.523	156
423.987	153
424.452	162
424.916	161
425.381	167
425.846	169
426.31	179
426.775	177
427.24	182
427.704	178
428.169	182
428.634	185
429.099	184
429.564	184
430.029	179
430.494	182
430.959	185
431.424	184
431.889	195
432.354	195
432.819	190
433.284	201
433.75	203
434.215	216
434.68	209
435.146	214
435.611	219
436.077	234
436.542	228
437.008	238
437.473	240
437.939	247
438.404	249
438.87	253
439.336	246
439.801	250
440.267	258
440.733	263
441.199	256
441.665	265
442.131	275
442.596	267
443.062	276
443.529	291
443.995	294
444.461	295
444.927	307
445.393	317
445.859	325
446.325	330
446.792	353
447.258	352
447.724	362
448.191	375
448.657	379
449.124	386
449.59	382
450.057	411
450.523	410
450.99	424
451.457	412
451.923	424
452.39	427
452.857	440
453.324	439
453.791	440
454.257	445
454.724	452
455.191	448
455.658	450
456.125	461
456.592	457
457.059	466
457.527	469
457.994	484
458.461	484
458.928	495
459.396	491
459.863	511
460.33	506
460.798	511
461.265	521
461.732	511
462.2	531
462.668	519
463.135	535
463.603	521
464.07	542
464.538	523
465.006	538
465.474	529
465.941	534
466.409	538
466.877	526
467.345	543
467.813	533
468.281	544
468.749	545
469.217	545
469.685	556
470.153	572
470.621	572
471.09	573
471.558	601
472.026	603
472.494	614
472.963	619
473.431	640
473.9	655
474.368	671
474.837	680
475.305	688
475.774	697
476.242	713
476.711	716
477.18	737
477.648	737
478.117	735
478.586	743
479.055	742
479.524	754
479.993	747
480.462	751
480.93	753
481.399	747
481.869	756
482.338	753
482.807	771
483.276	760
483.745	760
484.214	779
484.684	793
485.153	801
485.622	810
486.092	826
486.561	815
487.031	853
487.5	858
487.97	869
488.439	894
488.909	917
489.378	953
489.848	950
490.318	965
490.787	1013
491.257	1016
491.727	1018
492.197	1038
492.667	1043
493.137	1058
493.607	1063
494.077	1072
494.547	1066
495.017	1052
495.487	1075
495.957	1107
496.427	1086
496.897	1080
497.368	1102
497.838	1095
498.308	1106
498.779	1126
499.249	1121
499.719	1138
500.19	1150
500.66	1150
501.131	1165
501.602	1189
502.072	1187
502.543	1216
503.014	1257
503.484	1257
503.955	1287
504.426	1337
504.897	1351
505.368	1372
505.838	1406
506.309	1428
506.78	1480
507.251	1505
507.722	1531
508.194	1572
508.665	1590
509.136	1584
509.607	1640
510.078	1645
510.549	1650
511.021	1697
511.492	1700
511.964	1723
512.435	1749
512.906	1746
513.378	1767
513.849	1800
514.321	1804
514.793	1819
515.264	1847
515.736	1872
516.208	1908
516.679	1924
517.151	1942
517.623	1954
518.095	1991
518.567	1998
519.038	2038
519.51	2037
519.982	2051
520.454	2073
520.927	2110
521.399	2153
521.871	2169
522.343	2172
522.815	2199
523.287	2207
523.76	2236
524.232	2269
524.704	2275
525.177	2243
525.649	2252
526.122	2273
526.594	2235
527.067	2286
527.539	2319
528.012	2304
528.484	2298
528.957	2321
529.43	2306
529.903	2293
530.375	2367
530.848	2311
531.321	2357
531.794	2365
532.267	2426
532.74	2392
533.213	2375
533.686	2416
534.159	2410
534.632	2475
535.105	2498
535.578	2553
536.051	2570
536.525	2567
536.998	2555
537.471	2615
537.945	2570
538.418	2600
538.891	2597
539.365	2652
539.838	2671
540.312	2666
540.786	2674
541.259	2675
541.733	2722
542.206	2744
542.68	2700
543.154	2703
543.628	2719
544.101	2782
544.575	2747
545.049	2674
545.523	2725
545.997	2732
546.471	2747
546.945	2721
547.419	2762
547.893	2661
548.367	2713
548.842	2693
549.316	2716
549.79	2734
550.264	2713
550.739	2746
551.213	2737
551.687	2735
552.162	2769
552.636	2758
553.111	2755
553.585	2858
554.06	2822
554.534	2874
555.009	2853
555.484	2886
555.958	2920
556.433	2918
556.908	2963
557.383	2954
557.858	3037
558.333	3043
558.807	3028
559.282	3056
559.757	3135
560.232	3121
560.708	3077
561.183	3065
561.658	3104
562.133	3094
562.608	3059
563.083	3137
563.559	3086
564.034	3099
564.509	3102
564.985	3098
565.46	3062
565.936	3116
566.411	3126
566.887	3092
567.362	3124
567.838	3133
568.313	3165
568.789	3116
569.265	3117
569.74	3137
570.216	3120
570.692	3169
571.168	3167
571.644	3175
572.12	3194
572.596	3232
573.071	3231
573.547	3334
574.024	3374
574.5	3393
574.976	3392
575.452	3443
575.928	3464
576.404	3494
576.881	3603
577.357	3554
577.833	3565
578.31	3667
578.786	3701
579.262	3741
579.739	3682
580.215	3798
580.692	3813
581.169	3777
581.645	3788
582.122	3899
582.598	3905
583.075	3927
583.552	3956
584.029	3931
584.506	3888
584.982	3865
585.459	3958
585.936	3901
586.413	3952
586.89	4024
587.367	3976
587.844	4030
588.321	3992
588.799	4019
589.276	3998
589.753	4060
590.23	4072
590.707	4055
591.185	4058
591.662	4069
592.139	4115
592.617	4162
593.094	4143
593.572	4182
594.049	4248
594.527	4306
595.004	4305
595.482	4424
595.96	4435
596.437	4430
596.915	4525
597.393	4442
597.871	4539
598.349	4518
598.826	4608
599.304	4604
599.782	4697
600.26	4639
600.738	4748
601.216	4721
601.694	4737
602.173	4764
602.651	4774
603.129	4710
603.607	4748
604.085	4775
604.564	4779
605.042	4784
605.52	4762
605.999	4878
606.477	4738
606.956	4735
607.434	4796
607.913	4857
608.391	4838
608.87	4831
609.348	4747
609.827	4751
610.306	4795
610.785	4831
611.263	4846
611.742	4806
612.221	4759
612.7	4823
613.179	4840
613.658	4790
614.137	4862
614.616	4897
615.095	4808
615.574	4865
616.053	4898
616.532	4847
617.011	4879
617.491	4916
617.97	4875
618.449	4930
618.928	4949
619.408	4936
619.887	4975
620.367	5000
620.846	5060
621.326	5019
621.805	5140
622.285	5130
622.764	5163
623.244	5167
623.724	5182
624.203	5237
624.683	5188
625.163	5296
625.643	5293
626.123	5279
626.602	5411
627.082	5302
627.562	5272
628.042	5367
628.522	5292
629.002	5208
629.482	5250
629.963	5293
630.443	5242
630.923	5294
631.403	5304
631.883	5237
632.364	5273
632.844	5232
633.324	5268
633.805	5296
634.285	5214
634.766	5161
635.246	5159
635.727	5139
636.207	5139
636.688	5153
637.168	5136
637.649	5072
638.13	5044
638.611	5103
639.091	5119
639.572	5125
640.053	5138
640.534	5206
641.015	5199
641.496	5119
641.977	5188
642.458	5125
642.939	5151
643.42	5158
643.901	5152
644.382	5189
644.863	5145
645.345	5135
645.826	5123
646.307	5118
646.788	5210
647.27	5115
647.751	5100
648.233	5125
648.714	5002
649.196	5133
649.677	5110
650.159	5117
650.64	5060
651.122	5143
651.603	5068
652.085	5104
652.567	5133
653.049	5084
653.53	5072
654.012	5155
654.494	5086
654.976	5189
655.458	5174
655.94	5150
656.422	5239
656.904	5138
657.386	5074
657.868	5111
658.35	5098
658.833	5149
659.315	5157
659.797	5058
660.279	5021
660.762	5042
661.244	4991
661.726	4928
662.209	4917
662.691	4913
663.174	4836
663.656	4869
664.139	4857
664.621	4797
665.104	4749
665.587	4779
666.069	4808
666.552	4806
667.035	4736
667.517	4755
668	4802
668.483	4788
668.966	4744
669.449	4732
669.932	4739
670.415	4811
670.898	4773
671.381	4788
671.864	4803
672.347	4759
672.83	4783
673.313	4778
673.797	4754
674.28	4864
674.763	4880
675.247	4884
675.73	4845
676.213	4865
676.697	4902
677.18	4910
677.664	4924
678.147	4902
678.631	4924
679.114	4948
679.598	4933
680.082	4952
680.565	4921
681.049	4888
681.533	4876
682.017	4922
682.5	4911
682.984	4919
683.468	4919
683.952	4824
684.436	4924
684.92	4821
685.404	4832
685.888	4869
686.372	4834
686.856	4858
687.341	4923
687.825	4857
688.309	4912
688.793	4940
689.278	4846
689.762	4872
690.246	4847
690.731	4851
691.215	4893
691.7	4813
692.184	4875
692.669	4845
693.153	4846
693.638	4761
694.122	4761
694.607	4811
695.092	4745
695.577	4786
696.061	4698
696.546	4698
697.031	4647
697.516	4661
698.001	4632
698.486	4603
698.971	4621
699.456	4525
699.941	4530
700.426	4536
700.911	4594
701.396	4568
701.881	4564
702.366	4491
702.852	4459
703.337	4485
703.822	4488
704.308	4513
704.793	4546
705.278	4559
705.764	4589
706.249	4556
706.735	4542
707.22	4584
707.706	4530
708.191	4624
708.677	4614
709.163	4549
709.648	4576
710.134	4646
710.62	4598
711.106	4622
711.592	4678
712.077	4647
712.563	4538
713.049	4541
713.535	4628
714.021	4604
714.507	4559
714.993	4501
715.479	4522
715.966	4457
716.452	4458
716.938	4470
717.424	4318
717.91	4393
718.397	4349
718.883	4312
719.369	4321
719.856	4276
720.342	4359
720.829	4306
721.315	4334
721.802	4291
722.288	4324
722.775	4166
723.262	4065
723.748	4235
724.235	4196
724.722	4240
725.208	4135
725.695	4122
726.182	4117
726.669	4077
727.156	4093
727.643	4040
728.13	4031
728.617	4021
729.104	4051
729.591	4005
730.078	4063
730.565	4077
731.052	4028
731.539	4036
732.027	3985
732.514	3913
733.001	3949
733.488	3921
733.976	3932
734.463	3901
734.951	3883
735.438	3899
735.926	3860
736.413	3882
736.901	3860
737.388	3898
737.876	3870
738.364	3832
738.851	3847
739.339	3844
739.827	3882
740.314	3764
740.802	3773
741.29	3778
741.778	3738
742.266	3740
742.754	3745
743.242	3773
743.73	3718
744.218	3727
744.706	3678
745.194	3697
745.682	3640
746.17	3645
746.659	3648
747.147	3560
747.635	3591
748.123	3574
748.612	3523
749.1	3501
749.589	3548
750.077	3549
750.566	3539
751.054	3578
751.543	3582
752.031	3492
752.52	3484
753.008	3417
753.497	3415
753.986	3405
754.474	3374
754.963	3388
755.452	3332
755.941	3335
756.43	3339
756.919	3320
757.408	3260
757.896	3267
758.385	3273
758.875	3233
759.364	3217
759.853	3171
760.342	3125
760.831	3205
761.32	3168
761.809	3112
762.299	3124
762.788	3113
763.277	3105
763.767	3050
764.256	3047
764.745	3021
765.235	3091
765.724	2988
766.214	3023
766.703	2976
767.193	2908
767.683	2907
768.172	2867
768.662	2891
769.152	2866
769.641	2871
770.131	2803
770.621	2850
771.111	2805
771.601	2807
772.09	2795
772.58	2760
773.07	2777
773.56	2791
774.05	2721
774.54	2711
775.031	2699
775.521	2706
776.011	2710
776.501	2741
776.991	2664
777.482	2670
777.972	2603
778.462	2602
778.953	2625
779.443	2601
779.933	2583
780.424	2551
780.914	2581
781.405	2576
781.895	2553
782.386	2566
782.877	2550
783.367	2488
783.858	2465
784.349	2471
784.839	2461
785.33	2464
785.821	2431
786.312	2413
786.803	2413
787.293	2399
787.784	2360
788.275	2321
788.766	2277
789.257	2305
789.748	2263
790.24	2244
790.731	2253
791.222	2221
791.713	2212
792.204	2223
792.696	2182
793.187	2200
793.678	2191
794.169	2108
794.661	2146
795.152	2113
795.644	2090
796.135	2101
796.627	2104
797.118	2067
797.61	2040
798.101	2007
798.593	2034
799.085	2001
799.576	2006
800.068	1990
800.56	1989
801.052	1944
801.544	1948
802.035	1947
802.527	1917
803.019	1890
803.511	1870
804.003	1857
804.495	1866
804.987	1852
805.479	1813
805.971	1823
806.464	1835
806.956	1788
807.448	1780
807.94	1768
808.433	1761
808.925	1759
809.417	1729
809.91	1715
810.402	1668
810.894	1681
811.387	1681
811.879	1653
812.372	1676
812.865	1659
813.357	1645
813.85	1631
814.342	1618
814.835	1623
815.328	1617
815.821	1592
816.313	1585
816.806	1588
817.299	1579
817.792	1587
818.285	1557
818.778	1581
819.271	1586
819.764	1569
820.257	1571
820.75	1559
821.243	1557
821.736	1537
822.229	1560
822.722	1550
823.216	1588
