Data from lamp4bck_Subt4__15__77.txt Node

Date: Wed Apr 09 09:37:17 CEST 2025
User: fys-lab-0081
Spectrometer: S04999
Trigger mode: 0
Resolution mode: 1024 pixels
Integration Time (sec): 1.000000E-1
Scans to average: 1
Nonlinearity correction enabled: false
Boxcar width: 0
Baseline correction enabled: true
XAxis mode: Wavelengths
Number of Pixels in Spectrum: 1024
>>>>>Begin Spectral Data<<<<<
336.42	2
336.877	2
337.334	3
337.792	-1
338.249	9
338.706	7
339.164	4
339.621	5
340.079	6
340.536	4
340.994	7
341.452	-1
341.909	5
342.367	1
342.825	1
343.283	4
343.741	2
344.198	5
344.656	2
345.114	6
345.572	9
346.03	13
346.488	11
346.947	5
347.405	8
347.863	7
348.321	11
348.779	5
349.238	11
349.696	7
350.154	7
350.613	7
351.071	9
351.53	11
351.988	9
352.447	8
352.905	8
353.364	7
353.823	8
354.282	13
354.74	11
355.199	11
355.658	14
356.117	17
356.576	15
357.035	15
357.494	15
357.953	15
358.412	14
358.871	10
359.33	13
359.789	15
360.249	12
360.708	18
361.167	16
361.626	19
362.086	17
362.545	18
363.005	24
363.464	15
363.924	19
364.383	25
364.843	23
365.303	23
365.762	24
366.222	21
366.682	23
367.142	27
367.601	27
368.061	23
368.521	29
368.981	27
369.441	30
369.901	32
370.361	28
370.821	27
371.282	31
371.742	34
372.202	36
372.662	34
373.123	32
373.583	31
374.043	35
374.504	32
374.964	36
375.425	36
375.885	37
376.346	39
376.806	40
377.267	37
377.728	42
378.188	42
378.649	43
379.11	46
379.571	41
380.032	44
380.493	45
380.954	49
381.414	52
381.876	56
382.337	54
382.798	58
383.259	67
383.72	62
384.181	62
384.642	59
385.104	70
385.565	78
386.026	70
386.488	72
386.949	70
387.411	80
387.872	77
388.334	80
388.795	76
389.257	89
389.719	87
390.181	85
390.642	92
391.104	85
391.566	94
392.028	105
392.49	97
392.952	104
393.414	106
393.876	109
394.338	113
394.8	108
395.262	112
395.724	118
396.186	120
396.648	124
397.111	123
397.573	126
398.035	127
398.498	131
398.96	129
399.423	133
399.885	135
400.348	135
400.81	152
401.273	142
401.736	149
402.198	152
402.661	158
403.124	152
403.587	164
404.049	167.5
404.512	171
404.975	175
405.438	174
405.901	178
406.364	180
406.827	177
407.29	182
407.754	186
408.217	184
408.68	176
409.143	184
409.607	193
410.07	190
410.533	191
410.997	198
411.46	198
411.924	202
412.387	202
412.851	212
413.314	220
413.778	219
414.242	222
414.705	230
415.169	230
415.633	231
416.097	233
416.561	232
417.024	244
417.488	237
417.952	241
418.416	244
418.88	243
419.344	243
419.809	238
420.273	247
420.737	241
421.201	239
421.665	258
422.13	259
422.594	265
423.059	268
423.523	274
423.987	280
424.452	289
424.916	296
425.381	303
425.846	308
426.31	301
426.775	315
427.24	322
427.704	309
428.169	323
428.634	322
429.099	314
429.564	320
430.029	326
430.494	324
430.959	329
431.424	323
431.889	329
432.354	337
432.819	332
433.284	346
433.75	347
434.215	368
434.68	369
435.146	375
435.611	397
436.077	402
436.542	412
437.008	423
437.473	425
437.939	435
438.404	443
438.87	447
439.336	438
439.801	441
440.267	441
440.733	457
441.199	461
441.665	454
442.131	472
442.596	466
443.062	476
443.529	495
443.995	499
444.461	505
444.927	538
445.393	538
445.859	559
446.325	563
446.792	608
447.258	599
447.724	620
448.191	639
448.657	642
449.124	678
449.59	665
450.057	700
450.523	702
450.99	718
451.457	715
451.923	726
452.39	716
452.857	738
453.324	720
453.791	744
454.257	744
454.724	755
455.191	753
455.658	749
456.125	778
456.592	765
457.059	778
457.527	796
457.994	827
458.461	825
458.928	838
459.396	832
459.863	864
460.33	859
460.798	866
461.265	876
461.732	864
462.2	886
462.668	880
463.135	904
463.603	868
464.07	888
464.538	873
465.006	907
465.474	889
465.941	890
466.409	900
466.877	882
467.345	914
467.813	909
468.281	905
468.749	913
469.217	912
469.685	920
470.153	936
470.621	935
471.09	938
471.558	984
472.026	973
472.494	1007
472.963	1022
473.431	1055
473.9	1084
474.368	1106
474.837	1127
475.305	1145
475.774	1168
476.242	1194
476.711	1193
477.18	1223
477.648	1212
478.117	1229
478.586	1216
479.055	1210
479.524	1225
479.993	1221
480.462	1226
480.93	1231
481.399	1230
481.869	1246
482.338	1235
482.807	1254
483.276	1248
483.745	1248
484.214	1288
484.684	1299
485.153	1294
485.622	1298
486.092	1342
486.561	1314
487.031	1347
487.5	1376
487.97	1395
488.439	1431
488.909	1472
489.378	1526
489.848	1515
490.318	1568
490.787	1629
491.257	1657
491.727	1670
492.197	1711
492.667	1705
493.137	1730
493.607	1744
494.077	1751
494.547	1726
495.017	1720
495.487	1750
495.957	1772
496.427	1734
496.897	1754
497.368	1782
497.838	1754
498.308	1791
498.779	1799
499.249	1810
499.719	1827
500.19	1851
500.66	1865
501.131	1886
501.602	1935
502.072	1944
502.543	1960
503.014	2019
503.484	2012
503.955	2074
504.426	2136
504.897	2151
505.368	2183
505.838	2217
506.309	2272
506.78	2350
507.251	2381
507.722	2415
508.194	2500
508.665	2535
509.136	2525
509.607	2612
510.078	2653
510.549	2658
511.021	2720
511.492	2741
511.964	2778
512.435	2815
512.906	2806
513.378	2822
513.849	2875
514.321	2877
514.793	2900
515.264	2930
515.736	2951
516.208	2989
516.679	3015
517.151	3059
517.623	3075
518.095	3127
518.567	3156
519.038	3225
519.51	3213
519.982	3267
520.454	3322
520.927	3359
521.399	3404
521.871	3438
522.343	3466
522.815	3519
523.287	3506
523.76	3524
524.232	3566
524.704	3581
525.177	3530
525.649	3558
526.122	3610
526.594	3513
527.067	3600
527.539	3650
528.012	3625
528.484	3613
528.957	3639
529.43	3659
529.903	3632
530.375	3749
530.848	3658
531.321	3716
531.794	3727
532.267	3806
532.74	3763
533.213	3764
533.686	3833
534.159	3783
534.632	3853
535.105	3862
535.578	3941
536.051	3939
536.525	3954
536.998	3970
537.471	4057
537.945	3985
538.418	4055
538.891	4083
539.365	4136
539.838	4149
540.312	4149
540.786	4204
541.259	4176
541.733	4217
542.206	4224
542.68	4193
543.154	4190
543.628	4172
544.101	4295
544.575	4278
545.049	4195
545.523	4249
545.997	4212
546.471	4280
546.945	4237
547.419	4302
547.893	4139
548.367	4209
548.842	4181
549.316	4191
549.79	4199
550.264	4186
550.739	4244
551.213	4223
551.687	4229
552.162	4299
552.636	4271
553.111	4243
553.585	4335
554.06	4287
554.534	4378
555.009	4345
555.484	4398
555.958	4442
556.433	4482
556.908	4538
557.383	4486
557.858	4609
558.333	4655
558.807	4617
559.282	4619
559.757	4722
560.232	4764
560.708	4702
561.183	4683
561.658	4740
562.133	4732
562.608	4706
563.083	4833
563.559	4690
564.034	4737
564.509	4753
564.985	4770
565.46	4693
565.936	4762
566.411	4767
566.887	4718
567.362	4746
567.838	4749
568.313	4823
568.789	4762
569.265	4741
569.74	4765
570.216	4722
570.692	4842
571.168	4883
571.644	4861
572.12	4830
572.596	4864
573.071	4861
573.547	4970
574.024	4977
574.5	5023
574.976	5069
575.452	5145
575.928	5177
576.404	5218
576.881	5389
577.357	5329
577.833	5363
578.31	5459
578.786	5502
579.262	5632
579.739	5595
580.215	5714
580.692	5679
581.169	5669
581.645	5717
582.122	5892
582.598	5849
583.075	5821
583.552	5893
584.029	5928
584.506	5882
584.982	5839
585.459	5961
585.936	5908
586.413	5968
586.89	6031
587.367	5938
587.844	6031
588.321	6013
588.799	6024
589.276	5922
589.753	5984
590.23	6033
590.707	6023
591.185	6009
591.662	5972
592.139	6008
592.617	6122
593.094	6172
593.572	6214
594.049	6242
594.527	6263
595.004	6314
595.482	6519
595.96	6462
596.437	6449
596.915	6644
597.393	6603
597.871	6810
598.349	6702
598.826	6795
599.304	6819
599.782	6951
600.26	6879
600.738	6982
601.216	6901
601.694	6963
602.173	7032
602.651	7064
603.129	6954
603.607	7008
604.085	7042
604.564	7058
605.042	7052
605.52	6989
605.999	7165
606.477	7010
606.956	7029
607.434	7080
607.913	7131
608.391	7118
608.87	7139
609.348	7085
609.827	7125
610.306	7159
610.785	7158
611.263	7196
611.742	7214
612.221	7104
612.7	7182
613.179	7223
613.658	7135
614.137	7286
614.616	7339
615.095	7153
615.574	7206
616.053	7263
616.532	7256
617.011	7314
617.491	7309
617.97	7263
618.449	7314
618.928	7367
619.408	7302
619.887	7327
620.367	7372
620.846	7465
621.326	7423
621.805	7603
622.285	7563
622.764	7561
623.244	7535
623.724	7592
624.203	7660
624.683	7538
625.163	7725
625.643	7735
626.123	7699
626.602	7934
627.082	7769
627.562	7734
628.042	7903
628.522	7862
629.002	7839
629.482	7884
629.963	7860
630.443	7786
630.923	7818
631.403	7850
631.883	7787
632.364	7792
632.844	7724
633.324	7702
633.805	7693
634.285	7616
634.766	7584
635.246	7599
635.727	7569
636.207	7564
636.688	7565
637.168	7567
637.649	7519
638.13	7481
638.611	7559
639.091	7616
639.572	7606
640.053	7547
640.534	7574
641.015	7539
641.496	7425
641.977	7631
642.458	7618
642.939	7653
643.42	7703
643.901	7693
644.382	7741
644.863	7720
645.345	7719
645.826	7726
646.307	7707
646.788	7785
647.27	7638
647.751	7712
648.233	7803
648.714	7601
649.196	7782
649.677	7725
650.159	7718
650.64	7631
651.122	7750
651.603	7623
652.085	7659
652.567	7658
653.049	7604
653.53	7623
654.012	7741
654.494	7575
654.976	7646
655.458	7628
655.94	7632
656.422	7795
656.904	7728
657.386	7663
657.868	7656
658.35	7626
658.833	7712
659.315	7759
659.797	7676
660.279	7670
660.762	7761
661.244	7720
661.726	7593
662.209	7568
662.691	7531
663.174	7357
663.656	7403
664.139	7434
664.621	7389
665.104	7337
665.587	7385
666.069	7394
666.552	7351
667.035	7267
667.517	7293
668	7328
668.483	7289
668.966	7181
669.449	7157
669.932	7171
670.415	7259
670.898	7172
671.381	7189
671.864	7217
672.347	7159
672.83	7200
673.313	7267
673.797	7275
674.28	7391
674.763	7392
675.247	7401
675.73	7367
676.213	7458
676.697	7523
677.18	7527
677.664	7572
678.147	7618
678.631	7665
679.114	7712
679.598	7685
680.082	7689
680.565	7656
681.049	7616
681.533	7640
682.017	7779
682.5	7793
682.984	7826
683.468	7773
683.952	7571
684.436	7665
684.92	7548
685.404	7560
685.888	7562
686.372	7490
686.856	7503
687.341	7602
687.825	7509
688.309	7564
688.793	7580
689.278	7478
689.762	7579
690.246	7555
690.731	7580
691.215	7567
691.7	7350
692.184	7481
692.669	7515
693.153	7595
693.638	7493
694.122	7503
694.607	7578
695.092	7473
695.577	7570
696.061	7463
696.546	7490
697.031	7497
697.516	7564
698.001	7590
698.486	7562
698.971	7666
699.456	7516
699.941	7490
700.426	7455
700.911	7474
701.396	7358
701.881	7391
702.366	7336
702.852	7329
703.337	7364
703.822	7311
704.308	7258
704.793	7269
705.278	7271
705.764	7300
706.249	7256
706.735	7278
707.22	7379
707.706	7242
708.191	7339
708.677	7342
709.163	7301
709.648	7375
710.134	7455
710.62	7365
711.106	7385
711.592	7498
712.077	7492
712.563	7356
713.049	7363
713.535	7497
714.021	7447
714.507	7411
714.993	7344
715.479	7446
715.966	7380
716.452	7398
716.938	7416
717.424	7207
717.91	7346
718.397	7286
718.883	7216
719.369	7232
719.856	7147
720.342	7228
720.829	7119
721.315	7132
721.802	7112
722.288	7214
722.775	6973
723.262	6750
723.748	6983
724.235	6920
724.722	7026
725.208	6919
725.695	6934
726.182	6914
726.669	6820
727.156	6789
727.643	6688
728.13	6666
728.617	6646
729.104	6685
729.591	6644
730.078	6740
730.565	6787
731.052	6679
731.539	6705
732.027	6645
732.514	6562
733.001	6647
733.488	6627
733.976	6642
734.463	6646
734.951	6633
735.438	6723
735.926	6670
736.413	6736
736.901	6700
737.388	6793
737.876	6766
738.364	6705
738.851	6728
739.339	6667
739.827	6697
740.314	6480
740.802	6570
741.29	6610
741.778	6523
742.266	6528
742.754	6494
743.242	6538
743.73	6414
744.218	6422
744.706	6324
745.194	6362
745.682	6300
746.17	6314
746.659	6337
747.147	6167
747.635	6199
748.123	6221
748.612	6170
749.1	6142
749.589	6187
750.077	6127
750.566	6102
751.054	6141
751.543	6167
752.031	6072
752.52	6086
753.008	5965
753.497	5974
753.986	5968
754.474	5954
754.963	6018
755.452	5920
755.941	5894
756.43	5886
756.919	5876
757.408	5870
757.896	5903
758.385	5935
758.875	5873
759.364	5813
759.853	5772
760.342	5666
760.831	5766
761.32	5687
761.809	5584
762.299	5632
762.788	5629
763.277	5596
763.767	5500
764.256	5498
764.745	5420
765.235	5525
765.724	5381
766.214	5451
766.703	5407
767.193	5332
767.683	5349
768.172	5264
768.662	5330
769.152	5303
769.641	5300
770.131	5157
770.621	5220
771.111	5150
771.601	5144
772.09	5101
772.58	5029
773.07	5045
773.56	5081
774.05	4978
774.54	4954
775.031	4931
775.521	4921
776.011	4955
776.501	5028
776.991	4954
777.482	5004
777.972	4873
778.462	4882
778.953	4916
779.443	4867
779.933	4843
780.424	4787
780.914	4820
781.405	4844
781.895	4800
782.386	4811
782.877	4793
783.367	4707
783.858	4662
784.349	4688
784.839	4660
785.33	4664
785.821	4611
786.312	4533
786.803	4535
787.293	4549
787.784	4467
788.275	4436
788.766	4406
789.257	4489
789.748	4394
790.24	4354
790.731	4397
791.222	4330
791.713	4305
792.204	4298
792.696	4170
793.187	4219
793.678	4173
794.169	4054
794.661	4121
795.152	4089
795.644	4056
796.135	4036
796.627	4055
797.118	3988
797.61	3967
798.101	3911
798.593	3954
799.085	3906
799.576	3914
800.068	3849
800.56	3871
801.052	3779
801.544	3785
802.035	3805
802.527	3729
803.019	3688
803.511	3657
804.003	3636
804.495	3661
804.987	3621
805.479	3531
805.971	3567
806.464	3576
806.956	3498
807.448	3513
807.94	3543
808.433	3518
808.925	3480
809.417	3437
809.91	3438
810.402	3360
810.894	3397
811.387	3432
811.879	3359
812.372	3390
812.865	3347
813.357	3359
813.85	3334
814.342	3321
814.835	3318
815.328	3314
815.821	3274
816.313	3267
816.806	3275
817.299	3232
817.792	3263
818.285	3235
818.778	3298
819.271	3284
819.764	3223
820.257	3209
820.75	3186
821.243	3167
821.736	3146
822.229	3186
822.722	3191
823.216	3253
