Data from lamp4bck_Subt4__29__91.txt Node

Date: Wed Apr 09 09:37:19 CEST 2025
User: fys-lab-0081
Spectrometer: S04999
Trigger mode: 0
Resolution mode: 1024 pixels
Integration Time (sec): 1.000000E-1
Scans to average: 1
Nonlinearity correction enabled: false
Boxcar width: 0
Baseline correction enabled: true
XAxis mode: Wavelengths
Number of Pixels in Spectrum: 1024
>>>>>Begin Spectral Data<<<<<
336.42	2
336.877	4
337.334	5
337.792	2
338.249	6
338.706	2
339.164	1
339.621	6
340.079	8
340.536	6
340.994	12
341.452	-2
341.909	4
342.367	4
342.825	4
343.283	5
343.741	5
344.198	5
344.656	5
345.114	3
345.572	6
346.03	9
346.488	12
346.947	3
347.405	10
347.863	5
348.321	11
348.779	8
349.238	8
349.696	11
350.154	8
350.613	11
351.071	9
351.53	11
351.988	13
352.447	10
352.905	9
353.364	5
353.823	8
354.282	9
354.74	8
355.199	13
355.658	11
356.117	14
356.576	17
357.035	17
357.494	17
357.953	19
358.412	14
358.871	11
359.33	15
359.789	17
360.249	13
360.708	13
361.167	18
361.626	19
362.086	15
362.545	17
363.005	25
363.464	17
363.924	19
364.383	25
364.843	21
365.303	26
365.762	23
366.222	21
366.682	26
367.142	26
367.601	25
368.061	27
368.521	30
368.981	25
369.441	32
369.901	31
370.361	26
370.821	26
371.282	27
371.742	33
372.202	27
372.662	33
373.123	30
373.583	34
374.043	35
374.504	32
374.964	35
375.425	37
375.885	37
376.346	38
376.806	40
377.267	42
377.728	42
378.188	43
378.649	41
379.11	45
379.571	45
380.032	42
380.493	46
380.954	52
381.414	50
381.876	51
382.337	55
382.798	58
383.259	61
383.72	59
384.181	68
384.642	64
385.104	70
385.565	78
386.026	72
386.488	73
386.949	75
387.411	80
387.872	75
388.334	82
388.795	83
389.257	88
389.719	92
390.181	85
390.642	91
391.104	85
391.566	89
392.028	104
392.49	101
392.952	107
393.414	111
393.876	106
394.338	108
394.8	107
395.262	118
395.724	120
396.186	123
396.648	123
397.111	125
397.573	128
398.035	125
398.498	131
398.96	127
399.423	134
399.885	138
400.348	137
400.81	149
401.273	138
401.736	148
402.198	154
402.661	160
403.124	157
403.587	165
404.049	169.5
404.512	174
404.975	176
405.438	172
405.901	179
406.364	176
406.827	182
407.29	183
407.754	180
408.217	185
408.68	176
409.143	186
409.607	191
410.07	187
410.533	195
410.997	198
411.46	196
411.924	199
412.387	206
412.851	208
413.314	221
413.778	217
414.242	224
414.705	232
415.169	232
415.633	229
416.097	234
416.561	238
417.024	243
417.488	243
417.952	242
418.416	243
418.88	243
419.344	242
419.809	238
420.273	248
420.737	245
421.201	244
421.665	256
422.13	256
422.594	263
423.059	271
423.523	275
423.987	281
424.452	286
424.916	301
425.381	302
425.846	305
426.31	307
426.775	310
427.24	317
427.704	312
428.169	324
428.634	322
429.099	315
429.564	320
430.029	327
430.494	324
430.959	327
431.424	320
431.889	328
432.354	335
432.819	334
433.284	345
433.75	348
434.215	364
434.68	370
435.146	374
435.611	392
436.077	404
436.542	413
437.008	421
437.473	426
437.939	437
438.404	446
438.87	451
439.336	438
439.801	436
440.267	445
440.733	459
441.199	459
441.665	453
442.131	475
442.596	463
443.062	476
443.529	492
443.995	503
444.461	509
444.927	538
445.393	529
445.859	563
446.325	571
446.792	603
447.258	598
447.724	620
448.191	646
448.657	650
449.124	669
449.59	664
450.057	704
450.523	707
450.99	719
451.457	715
451.923	721
452.39	717
452.857	735
453.324	726
453.791	741
454.257	741
454.724	755
455.191	758
455.658	752
456.125	781
456.592	763
457.059	781
457.527	796
457.994	827
458.461	827
458.928	840
459.396	837
459.863	864
460.33	864
460.798	869
461.265	871
461.732	863
462.2	886
462.668	879
463.135	903
463.603	874
464.07	897
464.538	876
465.006	907
465.474	891
465.941	890
466.409	904
466.877	889
467.345	914
467.813	907
468.281	916
468.749	911
469.217	916
469.685	919
470.153	941
470.621	934
471.09	939
471.558	977
472.026	975
472.494	1011
472.963	1021
473.431	1055
473.9	1081
474.368	1109
474.837	1133
475.305	1144
475.774	1167
476.242	1199
476.711	1192
477.18	1225
477.648	1210
478.117	1228
478.586	1216
479.055	1215
479.524	1228
479.993	1212
480.462	1217
480.93	1235
481.399	1233
481.869	1239
482.338	1233
482.807	1258
483.276	1250
483.745	1250
484.214	1281
484.684	1299
485.153	1291
485.622	1300
486.092	1340
486.561	1315
487.031	1355
487.5	1384
487.97	1396
488.439	1427
488.909	1476
489.378	1520
489.848	1523
490.318	1564
490.787	1627
491.257	1661
491.727	1672
492.197	1718
492.667	1709
493.137	1732
493.607	1743
494.077	1755
494.547	1721
495.017	1725
495.487	1744
495.957	1771
496.427	1730
496.897	1755
497.368	1774
497.838	1764
498.308	1790
498.779	1797
499.249	1814
499.719	1829
500.19	1852
500.66	1867
501.131	1883
501.602	1942
502.072	1942
502.543	1963
503.014	2024
503.484	2019
503.955	2080
504.426	2141
504.897	2154
505.368	2191
505.838	2215
506.309	2280
506.78	2349
507.251	2380
507.722	2414
508.194	2493
508.665	2539
509.136	2525
509.607	2612
510.078	2655
510.549	2662
511.021	2713
511.492	2742
511.964	2777
512.435	2819
512.906	2796
513.378	2828
513.849	2872
514.321	2871
514.793	2894
515.264	2933
515.736	2952
516.208	2989
516.679	3019
517.151	3058
517.623	3089
518.095	3119
518.567	3156
519.038	3224
519.51	3216
519.982	3272
520.454	3323
520.927	3350
521.399	3403
521.871	3441
522.343	3466
522.815	3515
523.287	3499
523.76	3519
524.232	3567
524.704	3583
525.177	3523
525.649	3558
526.122	3613
526.594	3519
527.067	3594
527.539	3658
528.012	3620
528.484	3620
528.957	3645
529.43	3648
529.903	3637
530.375	3747
530.848	3653
531.321	3721
531.794	3724
532.267	3810
532.74	3758
533.213	3769
533.686	3835
534.159	3789
534.632	3867
535.105	3861
535.578	3938
536.051	3941
536.525	3948
536.998	3979
537.471	4064
537.945	3991
538.418	4050
538.891	4082
539.365	4135
539.838	4155
540.312	4162
540.786	4198
541.259	4169
541.733	4219
542.206	4226
542.68	4195
543.154	4191
543.628	4176
544.101	4302
544.575	4290
545.049	4194
545.523	4250
545.997	4224
546.471	4279
546.945	4242
547.419	4303
547.893	4138
548.367	4200
548.842	4192
549.316	4190
549.79	4213
550.264	4188
550.739	4240
551.213	4223
551.687	4227
552.162	4299
552.636	4279
553.111	4230
553.585	4343
554.06	4286
554.534	4383
555.009	4341
555.484	4402
555.958	4447
556.433	4482
556.908	4548
557.383	4481
557.858	4612
558.333	4656
558.807	4617
559.282	4625
559.757	4736
560.232	4776
560.708	4699
561.183	4686
561.658	4739
562.133	4743
562.608	4712
563.083	4834
563.559	4702
564.034	4745
564.509	4749
564.985	4763
565.46	4702
565.936	4756
566.411	4767
566.887	4705
567.362	4757
567.838	4749
568.313	4821
568.789	4762
569.265	4753
569.74	4761
570.216	4718
570.692	4836
571.168	4884
571.644	4861
572.12	4828
572.596	4858
573.071	4873
573.547	4976
574.024	4982
574.5	5029
574.976	5066
575.452	5145
575.928	5185
576.404	5213
576.881	5388
577.357	5321
577.833	5356
578.31	5455
578.786	5502
579.262	5641
579.739	5596
580.215	5719
580.692	5694
581.169	5665
581.645	5713
582.122	5898
582.598	5851
583.075	5817
583.552	5897
584.029	5920
584.506	5890
584.982	5837
585.459	5959
585.936	5900
586.413	5971
586.89	6032
587.367	5927
587.844	6041
588.321	6021
588.799	6028
589.276	5937
589.753	5987
590.23	6029
590.707	6026
591.185	6007
591.662	5982
592.139	6003
592.617	6132
593.094	6172
593.572	6213
594.049	6258
594.527	6270
595.004	6314
595.482	6531
595.96	6464
596.437	6457
596.915	6643
597.393	6607
597.871	6821
598.349	6694
598.826	6797
599.304	6826
599.782	6962
600.26	6878
600.738	6977
601.216	6892
601.694	6960
602.173	7023
602.651	7061
603.129	6956
603.607	7013
604.085	7049
604.564	7051
605.042	7049
605.52	6989
605.999	7164
606.477	7011
606.956	7021
607.434	7077.5
607.913	7134
608.391	7113
608.87	7141
609.348	7092
609.827	7133
610.306	7160
610.785	7151
611.263	7193
611.742	7213
612.221	7123
612.7	7185
613.179	7226
613.658	7141
614.137	7296
614.616	7327
615.095	7159
615.574	7203
616.053	7273
616.532	7262
617.011	7316
617.491	7315
617.97	7259
618.449	7319
618.928	7361
619.408	7289
619.887	7352
620.367	7363
620.846	7461
621.326	7429
621.805	7603
622.285	7563
622.764	7556
623.244	7544
623.724	7592
624.203	7656
624.683	7549
625.163	7726
625.643	7735
626.123	7704
626.602	7937
627.082	7781
627.562	7738
628.042	7902
628.522	7872
629.002	7841
629.482	7881
629.963	7865
630.443	7795
630.923	7819
631.403	7847
631.883	7797
632.364	7801
632.844	7698
633.324	7689
633.805	7697
634.285	7611
634.766	7575
635.246	7594
635.727	7573
636.207	7567
636.688	7575
637.168	7569
637.649	7522
638.13	7478
638.611	7572
639.091	7629
639.572	7598
640.053	7560
640.534	7583
641.015	7540
641.496	7425
641.977	7635
642.458	7627
642.939	7666
643.42	7697
643.901	7695
644.382	7744
644.863	7727
645.345	7729
645.826	7724
646.307	7703
646.788	7776
647.27	7648
647.751	7718
648.233	7814
648.714	7626
649.196	7780
649.677	7728
650.159	7718
650.64	7639
651.122	7745
651.603	7630
652.085	7669
652.567	7661
653.049	7596
653.53	7625
654.012	7728
654.494	7584
654.976	7648
655.458	7631
655.94	7651
656.422	7800
656.904	7727
657.386	7645
657.868	7645
658.35	7631
658.833	7718
659.315	7765
659.797	7678
660.279	7669
660.762	7769
661.244	7715
661.726	7603
662.209	7566
662.691	7536
663.174	7354
663.656	7413
664.139	7444
664.621	7375
665.104	7334
665.587	7388
666.069	7386
666.552	7350
667.035	7273
667.517	7305
668	7329
668.483	7289
668.966	7192
669.449	7156
669.932	7190
670.415	7252
670.898	7175
671.381	7198
671.864	7217
672.347	7168
672.83	7204
673.313	7272
673.797	7274
674.28	7396
674.763	7388
675.247	7405
675.73	7358
676.213	7463
676.697	7511
677.18	7544
677.664	7586
678.147	7618
678.631	7664
679.114	7717
679.598	7690
680.082	7702
680.565	7657
681.049	7617
681.533	7642
682.017	7777
682.5	7791
682.984	7832
683.468	7781
683.952	7583
684.436	7669
684.92	7548
685.404	7561
685.888	7561
686.372	7475
686.856	7501
687.341	7603
687.825	7513
688.309	7565
688.793	7589
689.278	7486
689.762	7576
690.246	7566
690.731	7571
691.215	7577
691.7	7362
692.184	7484
692.669	7524
693.153	7601
693.638	7506
694.122	7511
694.607	7568
695.092	7469
695.577	7573
696.061	7462
696.546	7492
697.031	7500
697.516	7566
698.001	7592
698.486	7567
698.971	7662
699.456	7513
699.941	7492
700.426	7459
700.911	7475
701.396	7365
701.881	7376
702.366	7346
702.852	7332
703.337	7364
703.822	7318
704.308	7262
704.793	7260
705.278	7272
705.764	7300
706.249	7262
706.735	7283
707.22	7371
707.706	7249
708.191	7353
708.677	7341
709.163	7298
709.648	7375
710.134	7457
710.62	7379
711.106	7386
711.592	7493
712.077	7503
712.563	7364
713.049	7371
713.535	7501
714.021	7447
714.507	7418
714.993	7353
715.479	7449
715.966	7376
716.452	7403
716.938	7406
717.424	7205
717.91	7350
718.397	7279
718.883	7222
719.369	7234
719.856	7166
720.342	7241
720.829	7131
721.315	7131
721.802	7114
722.288	7218
722.775	6969
723.262	6747
723.748	6994
724.235	6934
724.722	7022
725.208	6922
725.695	6939
726.182	6914
726.669	6817
727.156	6817
727.643	6687
728.13	6665
728.617	6640
729.104	6682
729.591	6669
730.078	6762
730.565	6792
731.052	6680
731.539	6692
732.027	6644
732.514	6574
733.001	6645
733.488	6626
733.976	6646
734.463	6658
734.951	6631
735.438	6728
735.926	6677
736.413	6734
736.901	6711
737.388	6796
737.876	6766
738.364	6708
738.851	6723
739.339	6673
739.827	6700
740.314	6490
740.802	6566
741.29	6608
741.778	6527
742.266	6515
742.754	6486
743.242	6544
743.73	6422
744.218	6429
744.706	6326
745.194	6369
745.682	6311
746.17	6322
746.659	6339
747.147	6174
747.635	6211
748.123	6219
748.612	6174
749.1	6154
749.589	6189
750.077	6124
750.566	6099
751.054	6132
751.543	6173
752.031	6069
752.52	6076
753.008	5961
753.497	5973
753.986	5967
754.474	5963
754.963	6022
755.452	5931
755.941	5895
756.43	5889
756.919	5882
757.408	5877
757.896	5904
758.385	5944
758.875	5874
759.364	5804
759.853	5766
760.342	5665
760.831	5761
761.32	5694
761.809	5600
762.299	5637
762.788	5646
763.277	5600
763.767	5495
764.256	5486
764.745	5424
765.235	5529
765.724	5380
766.214	5450
766.703	5409
767.193	5337
767.683	5346
768.172	5262
768.662	5333
769.152	5308
769.641	5309
770.131	5158
770.621	5213
771.111	5156
771.601	5149
772.09	5107
772.58	5039
773.07	5052
773.56	5094
774.05	4983
774.54	4959
775.031	4930
775.521	4925
776.011	4949
776.501	5046
776.991	4953
777.482	5014
777.972	4875
778.462	4876
778.953	4905
779.443	4872
779.933	4845
780.424	4780
780.914	4835
781.405	4846
781.895	4803
782.386	4818
782.877	4789
783.367	4699
783.858	4672
784.349	4694
784.839	4650
785.33	4668
785.821	4606
786.312	4528
786.803	4533
787.293	4550
787.784	4473
788.275	4429
788.766	4398
789.257	4488
789.748	4403
790.24	4361
790.731	4406
791.222	4328
791.713	4308
792.204	4288
792.696	4171
793.187	4229
793.678	4177
794.169	4064
794.661	4125
795.152	4090
795.644	4063
796.135	4040
796.627	4063
797.118	3999
797.61	3960
798.101	3914
798.593	3960
799.085	3911
799.576	3913
800.068	3856
800.56	3871
801.052	3792
801.544	3793
802.035	3803
802.527	3736
803.019	3688
803.511	3659
804.003	3634
804.495	3657
804.987	3623
805.479	3529
805.971	3562
806.464	3576
806.956	3506
807.448	3519
807.94	3538
808.433	3516
808.925	3488
809.417	3443
809.91	3444
810.402	3365
810.894	3394
811.387	3429
811.879	3360
812.372	3400
812.865	3352
813.357	3366
813.85	3338
814.342	3325
814.835	3329
815.328	3322
815.821	3279
816.313	3271
816.806	3275
817.299	3236
817.792	3261
818.285	3242
818.778	3293
819.271	3290
819.764	3225
820.257	3212
820.75	3184
821.243	3172
821.736	3146
822.229	3183
822.722	3187
823.216	3249
