Data from lamp4bck_Subt2__68__568.txt Node

Date: Wed Apr 09 11:16:24 CEST 2025
User: fys-lab-0081
Spectrometer: S04999
Trigger mode: 0
Resolution mode: 1024 pixels
Integration Time (sec): 1.000000E-1
Scans to average: 1
Nonlinearity correction enabled: false
Boxcar width: 0
Baseline correction enabled: true
XAxis mode: Wavelengths
Number of Pixels in Spectrum: 1024
>>>>>Begin Spectral Data<<<<<
336.42	-3
336.877	3
337.334	4
337.792	4
338.249	4
338.706	1
339.164	6
339.621	1
340.079	5
340.536	6
340.994	4
341.452	6
341.909	9
342.367	3
342.825	3
343.283	9
343.741	3
344.198	2
344.656	0
345.114	-3
345.572	6
346.03	4
346.488	7
346.947	5
347.405	6
347.863	2
348.321	1
348.779	4
349.238	0
349.696	5
350.154	6
350.613	3
351.071	5
351.53	11
351.988	8
352.447	8
352.905	4
353.364	3
353.823	8
354.282	8
354.74	2
355.199	8
355.658	9
356.117	7
356.576	7
357.035	5
357.494	4
357.953	4
358.412	7
358.871	8
359.33	9
359.789	5
360.249	6
360.708	9
361.167	8
361.626	10
362.086	4
362.545	11
363.005	8
363.464	9
363.924	11
364.383	11
364.843	14
365.303	12
365.762	15
366.222	12
366.682	11
367.142	12
367.601	12
368.061	12
368.521	13
368.981	11
369.441	21
369.901	19
370.361	14
370.821	13
371.282	15
371.742	18
372.202	18
372.662	17
373.123	12
373.583	16
374.043	21
374.504	18
374.964	15
375.425	16
375.885	18
376.346	23
376.806	24
377.267	21
377.728	26
378.188	24
378.649	24
379.11	25
379.571	19
380.032	25
380.493	27
380.954	30
381.414	24
381.876	30
382.337	23
382.798	32
383.259	38
383.72	33
384.181	28
384.642	32
385.104	38
385.565	40
386.026	38
386.488	36
386.949	43
387.411	40
387.872	45
388.334	43
388.795	48
389.257	48
389.719	47
390.181	50
390.642	48
391.104	55
391.566	52
392.028	55
392.49	56
392.952	58
393.414	59
393.876	63
394.338	59
394.8	55
395.262	60
395.724	65
396.186	66
396.648	67
397.111	66
397.573	73
398.035	68
398.498	70
398.96	70
399.423	74
399.885	78
400.348	79
400.81	75
401.273	83
401.736	77
402.198	86
402.661	90
403.124	84
403.587	92
404.049	91
404.512	90
404.975	95
405.438	96
405.901	102
406.364	98
406.827	99
407.29	98
407.754	99
408.217	101
408.68	100
409.143	102
409.607	112
410.07	106
410.533	108
410.997	108
411.46	106
411.924	119
412.387	120
412.851	116
413.314	114
413.778	119
414.242	123
414.705	125
415.169	127
415.633	126
416.097	127
416.561	133
417.024	134
417.488	127
417.952	135
418.416	127
418.88	125
419.344	131
419.809	136
420.273	144
420.737	139
421.201	139
421.665	148
422.13	147
422.594	154
423.059	152
423.523	162
423.987	158
424.452	165
424.916	168
425.381	167
425.846	169
426.31	176
426.775	180
427.24	182
427.704	180
428.169	181
428.634	182
429.099	184
429.564	184
430.029	181
430.494	184
430.959	182
431.424	184
431.889	195
432.354	198
432.819	190
433.284	203
433.75	201
434.215	209
434.68	213
435.146	210
435.611	219
436.077	231
436.542	231
437.008	242
437.473	240
437.939	243
438.404	253
438.87	258
439.336	250
439.801	248
440.267	257
440.733	264
441.199	264
441.665	266
442.131	273
442.596	269
443.062	276
443.529	289
443.995	292
444.461	297
444.927	312
445.393	311
445.859	323
446.325	330
446.792	357
447.258	351
447.724	362
448.191	379
448.657	378
449.124	387
449.59	386
450.057	411
450.523	416
450.99	421
451.457	419
451.923	425
452.39	424
452.857	439
453.324	433
453.791	437
454.257	441
454.724	449
455.191	451
455.658	450
456.125	462
456.592	458
457.059	469
457.527	469
457.994	485
458.461	490
458.928	501
459.396	497
459.863	514
460.33	509
460.798	508
461.265	524
461.732	518
462.2	536
462.668	523
463.135	535
463.603	515
464.07	545
464.538	522
465.006	538
465.474	530
465.941	544
466.409	530
466.877	530
467.345	542
467.813	534
468.281	538
468.749	549
469.217	545
469.685	558
470.153	571
470.621	572
471.09	570
471.558	599
472.026	602
472.494	621
472.963	626
473.431	642
473.9	652
474.368	669
474.837	682
475.305	684
475.774	695
476.242	713
476.711	721
477.18	739
477.648	738
478.117	741
478.586	744
479.055	741
479.524	750
479.993	752
480.462	752
480.93	755
481.399	756
481.869	761
482.338	748
482.807	770
483.276	762
483.745	763
484.214	781
484.684	800
485.153	798
485.622	807
486.092	833
486.561	816
487.031	851
487.5	858
487.97	868
488.439	899
488.909	920
489.378	952
489.848	953
490.318	976
490.787	1017
491.257	1014
491.727	1025
492.197	1033
492.667	1044
493.137	1057
493.607	1066
494.077	1074
494.547	1061
495.017	1063
495.487	1079
495.957	1111
496.427	1080
496.897	1082
497.368	1102
497.838	1091
498.308	1104
498.779	1117
499.249	1128
499.719	1142
500.19	1153
500.66	1152
501.131	1170
501.602	1187
502.072	1188
502.543	1215
503.014	1254
503.484	1259
503.955	1295
504.426	1343
504.897	1348
505.368	1377
505.838	1408
506.309	1433
506.78	1479
507.251	1506
507.722	1534
508.194	1579
508.665	1597
509.136	1584
509.607	1643
510.078	1657
510.549	1652
511.021	1700
511.492	1706
511.964	1728
512.435	1755
512.906	1746
513.378	1766
513.849	1802
514.321	1806
514.793	1824
515.264	1852
515.736	1864
516.208	1911
516.679	1930
517.151	1950
517.623	1954
518.095	1989
518.567	2005
519.038	2047
519.51	2045
519.982	2055
520.454	2068
520.927	2109
521.399	2159
521.871	2176
522.343	2167
522.815	2200
523.287	2206
523.76	2241
524.232	2265
524.704	2275
525.177	2247
525.649	2255
526.122	2285
526.594	2232
527.067	2286
527.539	2324
528.012	2313
528.484	2300
528.957	2322
529.43	2310
529.903	2299
530.375	2371
530.848	2319
531.321	2354
531.794	2361
532.267	2419
532.74	2394
533.213	2377
533.686	2417
534.159	2411
534.632	2476
535.105	2503
535.578	2565
536.051	2567
536.525	2564
536.998	2559
537.471	2619
537.945	2573
538.418	2606
538.891	2600
539.365	2659
539.838	2674
540.312	2672
540.786	2679
541.259	2672
541.733	2728
542.206	2750
542.68	2697
543.154	2707
543.628	2720
544.101	2786
544.575	2748
545.049	2680
545.523	2732
545.997	2740
546.471	2757
546.945	2728
547.419	2762
547.893	2670
548.367	2710
548.842	2692
549.316	2721
549.79	2737
550.264	2715
550.739	2754
551.213	2740
551.687	2745
552.162	2774
552.636	2759
553.111	2759
553.585	2854
554.06	2823
554.534	2882
555.009	2861
555.484	2906
555.958	2937
556.433	2926
556.908	2973
557.383	2955
557.858	3039
558.333	3045
558.807	3037
559.282	3054
559.757	3141
560.232	3136
560.708	3079
561.183	3063
561.658	3110
562.133	3092
562.608	3060
563.083	3145
563.559	3093
564.034	3106
564.509	3110
564.985	3104
565.46	3062
565.936	3128
566.411	3134
566.887	3103
567.362	3132
567.838	3143
568.313	3173
568.789	3115
569.265	3108
569.74	3147
570.216	3125
570.692	3179
571.168	3168
571.644	3178
572.12	3194
572.596	3236
573.071	3243
573.547	3341
574.024	3384
574.5	3394
574.976	3396
575.452	3442
575.928	3478
576.404	3497
576.881	3611
577.357	3557
577.833	3570
578.31	3669
578.786	3706
579.262	3749
579.739	3688
580.215	3803
580.692	3813
581.169	3781
581.645	3792
582.122	3900
582.598	3907
583.075	3931
583.552	3961
584.029	3943
584.506	3892
584.982	3870
585.459	3974
585.936	3914
586.413	3962
586.89	4030
587.367	3983
587.844	4039
588.321	3998
588.799	4031
589.276	4007
589.753	4068
590.23	4080
590.707	4058
591.185	4060
591.662	4079
592.139	4116
592.617	4166
593.094	4151
593.572	4195
594.049	4262
594.527	4304
595.004	4317
595.482	4430
595.96	4439
596.437	4439
596.915	4526
597.393	4445
597.871	4551
598.349	4514
598.826	4611
599.304	4611
599.782	4705
600.26	4653
600.738	4754
601.216	4725
601.694	4750
602.173	4777
602.651	4791
603.129	4714
603.607	4757
604.085	4784
604.564	4792
605.042	4795
605.52	4754
605.999	4879
606.477	4743
606.956	4739
607.434	4801
607.913	4863
608.391	4854
608.87	4838
609.348	4760
609.827	4751
610.306	4799
610.785	4846
611.263	4846
611.742	4810
612.221	4764
612.7	4828
613.179	4841
613.658	4792
614.137	4872
614.616	4894
615.095	4815
615.574	4867
616.053	4897
616.532	4851
617.011	4884
617.491	4926
617.97	4890
618.449	4934
618.928	4956
619.408	4931
619.887	4994
620.367	4996
620.846	5058
621.326	5028
621.805	5142
622.285	5133
622.764	5171
623.244	5176
623.724	5206
624.203	5236
624.683	5193
625.163	5307
625.643	5314
626.123	5296
626.602	5409
627.082	5302
627.562	5286
628.042	5373
628.522	5295
629.002	5215
629.482	5271
629.963	5283
630.443	5260
630.923	5301
631.403	5301
631.883	5252
632.364	5273
632.844	5240
633.324	5287
633.805	5304
634.285	5210
634.766	5161
635.246	5160
635.727	5146
636.207	5153
636.688	5158
637.168	5154
637.649	5081
638.13	5043
638.611	5103
639.091	5125
639.572	5139
640.053	5149
640.534	5211
641.015	5218
641.496	5115
641.977	5196
642.458	5146
642.939	5147
643.42	5171
643.901	5161
644.382	5196
644.863	5152
645.345	5132
645.826	5132
646.307	5125
646.788	5212
647.27	5121
647.751	5111
648.233	5137
648.714	5018
649.196	5152
649.677	5121
650.159	5114
650.64	5068
651.122	5148
651.603	5071
652.085	5111
652.567	5135
653.049	5092
653.53	5089
654.012	5155
654.494	5090
654.976	5186
655.458	5177
655.94	5151
656.422	5239
656.904	5149
657.386	5080
657.868	5118
658.35	5111
658.833	5163
659.315	5162
659.797	5072
660.279	5019
660.762	5058
661.244	5008
661.726	4931
662.209	4930
662.691	4925
663.174	4840
663.656	4873
664.139	4871
664.621	4793
665.104	4754
665.587	4776
666.069	4820
666.552	4817
667.035	4748
667.517	4755
668	4801
668.483	4797
668.966	4752
669.449	4739
669.932	4749
670.415	4814
670.898	4784
671.381	4800
671.864	4812
672.347	4759
672.83	4793
673.313	4788
673.797	4768
674.28	4867
674.763	4877
675.247	4895
675.73	4859
676.213	4884
676.697	4917
677.18	4923
677.664	4935
678.147	4907
678.631	4934
679.114	4961
679.598	4945
680.082	4960
680.565	4914
681.049	4898
681.533	4883
682.017	4919
682.5	4925
682.984	4935
683.468	4928
683.952	4833
684.436	4921
684.92	4819
685.404	4832
685.888	4882
686.372	4848
686.856	4860
687.341	4924
687.825	4873
688.309	4916
688.793	4939
689.278	4851
689.762	4879
690.246	4849
690.731	4873
691.215	4908
691.7	4823
692.184	4882
692.669	4853
693.153	4850
693.638	4767
694.122	4764
694.607	4818
695.092	4758
695.577	4795
696.061	4694
696.546	4689
697.031	4642
697.516	4668
698.001	4645
698.486	4609
698.971	4628
699.456	4522
699.941	4541
700.426	4542
700.911	4600
701.396	4568
701.881	4568
702.366	4498
702.852	4459
703.337	4494
703.822	4485
704.308	4505
704.793	4557
705.278	4570
705.764	4602
706.249	4565
706.735	4542
707.22	4588
707.706	4544
708.191	4629
708.677	4617
709.163	4556
709.648	4578
710.134	4651
710.62	4614
711.106	4626
711.592	4688
712.077	4661
712.563	4544
713.049	4552
713.535	4642
714.021	4606
714.507	4567
714.993	4510
715.479	4543
715.966	4471
716.452	4465
716.938	4476
717.424	4322
717.91	4397
718.397	4358
718.883	4318
719.369	4330
719.856	4284
720.342	4369
720.829	4318
721.315	4341
721.802	4304
722.288	4335
722.775	4179
723.262	4078
723.748	4245
724.235	4205
724.722	4243
725.208	4143
725.695	4131
726.182	4130
726.669	4084
727.156	4104
727.643	4044
728.13	4042
728.617	4035
729.104	4054
729.591	4017
730.078	4065
730.565	4082
731.052	4033
731.539	4038
732.027	3990
732.514	3916
733.001	3950
733.488	3916
733.976	3937
734.463	3912
734.951	3890
735.438	3906
735.926	3854
736.413	3887
736.901	3864
737.388	3904
737.876	3889
738.364	3838
738.851	3854
739.339	3850
739.827	3886
740.314	3764
740.802	3775
741.29	3784
741.778	3744
742.266	3740
742.754	3747
743.242	3785
743.73	3714
744.218	3725
744.706	3687
745.194	3691
745.682	3642
746.17	3653
746.659	3655
747.147	3569
747.635	3597
748.123	3581
748.612	3532
749.1	3513
749.589	3548
750.077	3552
750.566	3548
751.054	3576
751.543	3585
752.031	3490
752.52	3490
753.008	3419
753.497	3428
753.986	3410
754.474	3371
754.963	3393
755.452	3340
755.941	3335
756.43	3343
756.919	3320
757.408	3272
757.896	3272
758.385	3276
758.875	3245
759.364	3219
759.853	3183
760.342	3131
760.831	3215
761.32	3175
761.809	3124
762.299	3138
762.788	3122
763.277	3100
763.767	3052
764.256	3047
764.745	3029
765.235	3088
765.724	2997
766.214	3024
766.703	2985
767.193	2908
767.683	2915
768.172	2861
768.662	2899
769.152	2875
769.641	2871
770.131	2808
770.621	2857
771.111	2810
771.601	2813
772.09	2797
772.58	2766
773.07	2784
773.56	2783
774.05	2731
774.54	2714
775.031	2707
775.521	2708
776.011	2718
776.501	2735
776.991	2668
777.482	2681
777.972	2618
778.462	2611
778.953	2630
779.443	2599
779.933	2582
780.424	2562
780.914	2585
781.405	2587
781.895	2557
782.386	2575
782.877	2548
783.367	2493
783.858	2466
784.349	2482
784.839	2464
785.33	2467
785.821	2443
786.312	2415
786.803	2420
787.293	2409
787.784	2366
788.275	2317
788.766	2287
789.257	2314
789.748	2262
790.24	2251
790.731	2259
791.222	2222
791.713	2213
792.204	2228
792.696	2175
793.187	2206
793.678	2189
794.169	2117
794.661	2149
795.152	2116
795.644	2093
796.135	2099
796.627	2109
797.118	2072
797.61	2038
798.101	2010
798.593	2040
799.085	2006
799.576	2019
800.068	1986
800.56	1990
801.052	1958
801.544	1957
802.035	1949
802.527	1918
803.019	1892
803.511	1878
804.003	1860
804.495	1871
804.987	1854
805.479	1814
805.971	1824
806.464	1838
806.956	1794
807.448	1780
807.94	1775
808.433	1761
808.925	1757
809.417	1732
809.91	1720
810.402	1672
810.894	1689
811.387	1679
811.879	1653
812.372	1684
812.865	1661
813.357	1649
813.85	1634
814.342	1621
814.835	1622
815.328	1620
815.821	1590
816.313	1591
816.806	1589
817.299	1575
817.792	1593
818.285	1558
818.778	1582
819.271	1583
819.764	1571
820.257	1577
820.75	1562
821.243	1563
821.736	1545
822.229	1557
822.722	1552
823.216	1595
