Data from lamp4bck_Subt2__89__589.txt Node

Date: Wed Apr 09 11:16:27 CEST 2025
User: fys-lab-0081
Spectrometer: S04999
Trigger mode: 0
Resolution mode: 1024 pixels
Integration Time (sec): 1.000000E-1
Scans to average: 1
Nonlinearity correction enabled: false
Boxcar width: 0
Baseline correction enabled: true
XAxis mode: Wavelengths
Number of Pixels in Spectrum: 1024
>>>>>Begin Spectral Data<<<<<
336.42	2
336.877	2
337.334	2
337.792	6
338.249	5
338.706	2
339.164	3
339.621	4
340.079	3
340.536	5
340.994	4
341.452	4
341.909	4
342.367	5
342.825	1
343.283	7
343.741	-1
344.198	3
344.656	0
345.114	-2
345.572	5
346.03	1
346.488	4
346.947	0
347.405	4
347.863	1
348.321	2
348.779	7
349.238	3
349.696	6
350.154	2
350.613	1
351.071	5
351.53	11
351.988	4
352.447	2
352.905	-3
353.364	6
353.823	8
354.282	4
354.74	2
355.199	8
355.658	6
356.117	6
356.576	6
357.035	2
357.494	5
357.953	5
358.412	8
358.871	5
359.33	7
359.789	8
360.249	10
360.708	6
361.167	12
361.626	10
362.086	4
362.545	12
363.005	11
363.464	11
363.924	6
364.383	7
364.843	14
365.303	13
365.762	15
366.222	13
366.682	12
367.142	17
367.601	15
368.061	12
368.521	16
368.981	11
369.441	22
369.901	17
370.361	13
370.821	13
371.282	16
371.742	17
372.202	16
372.662	18
373.123	11
373.583	17
374.043	20
374.504	18
374.964	14
375.425	18
375.885	20
376.346	24
376.806	29
377.267	21
377.728	25
378.188	28
378.649	25
379.11	25
379.571	20
380.032	25
380.493	25
380.954	29
381.414	24
381.876	25
382.337	29
382.798	31
383.259	33
383.72	32
384.181	32
384.642	37
385.104	34
385.565	39
386.026	39
386.488	44
386.949	45
387.411	44
387.872	49
388.334	48
388.795	44
389.257	49
389.719	47
390.181	47
390.642	50
391.104	50
391.566	48
392.028	56
392.49	64
392.952	59
393.414	60
393.876	62
394.338	61
394.8	63
395.262	56
395.724	64
396.186	68
396.648	65
397.111	66
397.573	74
398.035	68
398.498	66
398.96	72
399.423	72
399.885	72
400.348	76
400.81	77
401.273	76
401.736	81
402.198	86
402.661	88
403.124	84
403.587	94
404.049	93.5
404.512	93
404.975	91
405.438	98
405.901	103
406.364	98
406.827	103
407.29	100
407.754	102
408.217	104
408.68	97
409.143	106
409.607	110
410.07	110
410.533	108
410.997	112
411.46	110
411.924	120
412.387	118
412.851	117
413.314	119
413.778	121
414.242	122
414.705	132
415.169	127
415.633	126
416.097	124
416.561	132
417.024	135
417.488	130
417.952	135
418.416	128
418.88	126
419.344	131
419.809	139
420.273	138
420.737	134
421.201	143
421.665	145
422.13	147
422.594	156
423.059	153
423.523	157
423.987	152
424.452	163
424.916	162
425.381	167
425.846	168
426.31	185
426.775	175
427.24	177
427.704	175
428.169	183
428.634	187
429.099	186
429.564	186
430.029	189
430.494	185
430.959	188
431.424	185
431.889	194
432.354	195
432.819	191
433.284	203
433.75	205
434.215	215
434.68	207
435.146	214
435.611	223
436.077	231
436.542	230
437.008	243
437.473	242
437.939	244
438.404	252
438.87	258
439.336	252
439.801	251
440.267	260
440.733	264
441.199	260
441.665	268
442.131	275
442.596	268
443.062	277
443.529	293
443.995	298
444.461	296
444.927	312
445.393	310
445.859	328
446.325	333
446.792	351
447.258	353
447.724	363
448.191	377
448.657	372
449.124	384
449.59	384
450.057	410
450.523	416
450.99	421
451.457	415
451.923	430
452.39	426
452.857	437
453.324	434
453.791	442
454.257	448
454.724	451
455.191	444
455.658	452
456.125	469
456.592	453
457.059	466
457.527	471
457.994	488
458.461	493
458.928	498
459.396	497
459.863	507
460.33	510
460.798	511
461.265	527
461.732	518
462.2	535
462.668	529
463.135	536
463.603	519
464.07	543
464.538	525
465.006	543
465.474	534
465.941	536
466.409	539
466.877	527
467.345	544
467.813	535
468.281	547
468.749	554
469.217	551
469.685	558
470.153	569
470.621	573
471.09	580
471.558	605
472.026	595
472.494	617
472.963	623
473.431	640
473.9	649
474.368	677
474.837	687
475.305	682
475.774	704
476.242	716
476.711	715
477.18	741
477.648	735
478.117	743
478.586	749
479.055	747
479.524	751
479.993	752
480.462	749
480.93	758
481.399	759
481.869	762
482.338	751
482.807	770
483.276	760
483.745	756
484.214	781
484.684	802
485.153	806
485.622	808
486.092	831
486.561	818
487.031	848
487.5	858
487.97	869
488.439	899
488.909	921
489.378	953
489.848	950
490.318	970
490.787	1014
491.257	1023
491.727	1033
492.197	1044
492.667	1047
493.137	1057
493.607	1074
494.077	1078
494.547	1069
495.017	1062
495.487	1084
495.957	1109
496.427	1087
496.897	1085
497.368	1110
497.838	1096
498.308	1108
498.779	1127
499.249	1130
499.719	1142
500.19	1149
500.66	1159
501.131	1170
501.602	1198
502.072	1195
502.543	1211
503.014	1260
503.484	1260
503.955	1295
504.426	1346
504.897	1349
505.368	1377
505.838	1411
506.309	1431
506.78	1478
507.251	1506
507.722	1539
508.194	1579
508.665	1604
509.136	1597
509.607	1643
510.078	1659
510.549	1660
511.021	1705
511.492	1704
511.964	1730
512.435	1758
512.906	1756
513.378	1769
513.849	1806
514.321	1808
514.793	1827
515.264	1855
515.736	1870
516.208	1917
516.679	1931
517.151	1950
517.623	1963
518.095	1990
518.567	2006
519.038	2051
519.51	2043
519.982	2065
520.454	2077
520.927	2115
521.399	2164
521.871	2180
522.343	2179
522.815	2205
523.287	2210
523.76	2243
524.232	2271
524.704	2286
525.177	2255
525.649	2266
526.122	2284
526.594	2238
527.067	2299
527.539	2329
528.012	2310
528.484	2311
528.957	2328
529.43	2313
529.903	2301
530.375	2364
530.848	2322
531.321	2356
531.794	2367
532.267	2435
532.74	2395
533.213	2390
533.686	2425
534.159	2415
534.632	2483
535.105	2511
535.578	2570
536.051	2573
536.525	2574
536.998	2564
537.471	2628
537.945	2583
538.418	2614
538.891	2606
539.365	2655
539.838	2685
540.312	2677
540.786	2686
541.259	2683
541.733	2740
542.206	2751
542.68	2712
543.154	2711
543.628	2734
544.101	2797
544.575	2755
545.049	2693
545.523	2739
545.997	2743
546.471	2759
546.945	2735
547.419	2771
547.893	2681
548.367	2733
548.842	2696
549.316	2718
549.79	2742
550.264	2722
550.739	2751
551.213	2745
551.687	2749
552.162	2778
552.636	2764
553.111	2771
553.585	2860
554.06	2834
554.534	2886
555.009	2867
555.484	2900
555.958	2938
556.433	2927
556.908	2973
557.383	2957
557.858	3037
558.333	3054
558.807	3034
559.282	3069
559.757	3142
560.232	3136
560.708	3086
561.183	3062
561.658	3117
562.133	3100
562.608	3069
563.083	3152
563.559	3094
564.034	3116
564.509	3109
564.985	3109
565.46	3070
565.936	3139
566.411	3137
566.887	3108
567.362	3140
567.838	3135
568.313	3182
568.789	3118
569.265	3117
569.74	3154
570.216	3130
570.692	3182
571.168	3175
571.644	3189
572.12	3208
572.596	3251
573.071	3241
573.547	3351
574.024	3387
574.5	3400
574.976	3411
575.452	3462
575.928	3484
576.404	3502
576.881	3621
577.357	3568
577.833	3579
578.31	3676
578.786	3722
579.262	3758
579.739	3702
580.215	3822
580.692	3817
581.169	3797
581.645	3810
582.122	3903
582.598	3911
583.075	3950
583.552	3974
584.029	3938
584.506	3901
584.982	3883
585.459	3976
585.936	3920
586.413	3975
586.89	4040
587.367	3984
587.844	4043
588.321	4002
588.799	4033
589.276	4008
589.753	4077
590.23	4087
590.707	4059
591.185	4081
591.662	4083
592.139	4120
592.617	4177
593.094	4170
593.572	4195
594.049	4266
594.527	4312
595.004	4326
595.482	4442
595.96	4451
596.437	4447
596.915	4551
597.393	4457
597.871	4550
598.349	4521
598.826	4630
599.304	4627
599.782	4715
600.26	4653
600.738	4770
601.216	4741
601.694	4754
602.173	4779
602.651	4790
603.129	4730
603.607	4770
604.085	4791
604.564	4790
605.042	4806
605.52	4774
605.999	4898
606.477	4755
606.956	4748
607.434	4809
607.913	4870
608.391	4858
608.87	4857
609.348	4767
609.827	4770
610.306	4804
610.785	4846
611.263	4856
611.742	4822
612.221	4777
612.7	4836
613.179	4853
613.658	4800
614.137	4886
614.616	4915
615.095	4816
615.574	4886
616.053	4917
616.532	4865
617.011	4893
617.491	4930
617.97	4902
618.449	4934
618.928	4966
619.408	4939
619.887	4995
620.367	5010
620.846	5076
621.326	5031
621.805	5154
622.285	5135
622.764	5182
623.244	5190
623.724	5209
624.203	5264
624.683	5205
625.163	5318
625.643	5324
626.123	5300
626.602	5425
627.082	5317
627.562	5298
628.042	5382
628.522	5316
629.002	5223
629.482	5285
629.963	5300
630.443	5275
630.923	5307
631.403	5317
631.883	5262
632.364	5286
632.844	5244
633.324	5292
633.805	5316
634.285	5238
634.766	5185
635.246	5175
635.727	5150
636.207	5161
636.688	5164
637.168	5153
637.649	5100
638.13	5059
638.611	5117
639.091	5135
639.572	5146
640.053	5141
640.534	5216
641.015	5226
641.496	5127
641.977	5210
642.458	5161
642.939	5175
643.42	5180
643.901	5162
644.382	5201
644.863	5160
645.345	5147
645.826	5146
646.307	5130
646.788	5221
647.27	5130
647.751	5129
648.233	5147
648.714	5013
649.196	5162
649.677	5124
650.159	5126
650.64	5076
651.122	5154
651.603	5086
652.085	5121
652.567	5152
653.049	5091
653.53	5090
654.012	5167
654.494	5107
654.976	5200
655.458	5187
655.94	5172
656.422	5246
656.904	5166
657.386	5101
657.868	5124
658.35	5128
658.833	5165
659.315	5175
659.797	5087
660.279	5038
660.762	5066
661.244	5017
661.726	4950
662.209	4936
662.691	4938
663.174	4845
663.656	4883
664.139	4883
664.621	4808
665.104	4761
665.587	4790
666.069	4824
666.552	4826
667.035	4748
667.517	4764
668	4812
668.483	4794
668.966	4756
669.449	4751
669.932	4767
670.415	4826
670.898	4798
671.381	4797
671.864	4824
672.347	4778
672.83	4797
673.313	4795
673.797	4775
674.28	4882
674.763	4893
675.247	4904
675.73	4857
676.213	4890
676.697	4920
677.18	4937
677.664	4940
678.147	4923
678.631	4945
679.114	4955
679.598	4942
680.082	4967
680.565	4926
681.049	4910
681.533	4896
682.017	4934
682.5	4941
682.984	4940
683.468	4926
683.952	4840
684.436	4921
684.92	4832
685.404	4830
685.888	4886
686.372	4852
686.856	4871
687.341	4929
687.825	4886
688.309	4925
688.793	4947
689.278	4864
689.762	4884
690.246	4862
690.731	4875
691.215	4920
691.7	4827
692.184	4896
692.669	4856
693.153	4866
693.638	4775
694.122	4768
694.607	4828
695.092	4770
695.577	4812
696.061	4710
696.546	4704
697.031	4656
697.516	4676
698.001	4649
698.486	4612
698.971	4630
699.456	4538
699.941	4558
700.426	4549
700.911	4614
701.396	4565
701.881	4570
702.366	4502
702.852	4463
703.337	4496
703.822	4504
704.308	4524
704.793	4563
705.278	4577
705.764	4592
706.249	4584
706.735	4562
707.22	4603
707.706	4563
708.191	4641
708.677	4624
709.163	4557
709.648	4583
710.134	4669
710.62	4612
711.106	4626
711.592	4680
712.077	4666
712.563	4554
713.049	4555
713.535	4642
714.021	4610
714.507	4573
714.993	4515
715.479	4548
715.966	4479
716.452	4467
716.938	4483
717.424	4332
717.91	4417
718.397	4372
718.883	4336
719.369	4332
719.856	4299
720.342	4382
720.829	4323
721.315	4347
721.802	4315
722.288	4341
722.775	4187
723.262	4089
723.748	4257
724.235	4209
724.722	4252
725.208	4155
725.695	4137
726.182	4138
726.669	4088
727.156	4110
727.643	4053
728.13	4051
728.617	4036
729.104	4066
729.591	4023
730.078	4070
730.565	4089
731.052	4037
731.539	4054
732.027	4006
732.514	3918
733.001	3975
733.488	3936
733.976	3953
734.463	3921
734.951	3888
735.438	3917
735.926	3873
736.413	3894
736.901	3874
737.388	3906
737.876	3882
738.364	3842
738.851	3857
739.339	3863
739.827	3886
740.314	3767
740.802	3780
741.29	3792
741.778	3746
742.266	3751
742.754	3762
743.242	3791
743.73	3737
744.218	3737
744.706	3689
745.194	3704
745.682	3657
746.17	3657
746.659	3664
747.147	3573
747.635	3600
748.123	3586
748.612	3535
749.1	3521
749.589	3563
750.077	3559
750.566	3548
751.054	3589
751.543	3589
752.031	3495
752.52	3502
753.008	3430
753.497	3430
753.986	3411
754.474	3383
754.963	3399
755.452	3349
755.941	3339
756.43	3348
756.919	3319
757.408	3287
757.896	3276
758.385	3283
758.875	3244
759.364	3230
759.853	3193
760.342	3137
760.831	3212
761.32	3176
761.809	3125
762.299	3140
762.788	3122
763.277	3109
763.767	3055
764.256	3054
764.745	3035
765.235	3096
765.724	2996
766.214	3028
766.703	2980
767.193	2916
767.683	2915
768.172	2872
768.662	2902
769.152	2873
769.641	2884
770.131	2814
770.621	2859
771.111	2819
771.601	2809
772.09	2799
772.58	2775
773.07	2789
773.56	2795
774.05	2729
774.54	2723
775.031	2718
775.521	2714
776.011	2722
776.501	2742
776.991	2676
777.482	2672
777.972	2612
778.462	2613
778.953	2623
779.443	2615
779.933	2588
780.424	2565
780.914	2584
781.405	2585
781.895	2572
782.386	2569
782.877	2556
783.367	2495
783.858	2471
784.349	2487
784.839	2472
785.33	2471
785.821	2441
786.312	2418
786.803	2420
787.293	2410
787.784	2366
788.275	2323
788.766	2285
789.257	2319
789.748	2278
790.24	2256
790.731	2265
791.222	2223
791.713	2224
792.204	2233
792.696	2177
793.187	2209
793.678	2191
794.169	2127
794.661	2147
795.152	2110
795.644	2097
796.135	2105
796.627	2114
797.118	2073
797.61	2038
798.101	2016
798.593	2044
799.085	2012
799.576	2020
800.068	1989
800.56	1998
801.052	1960
801.544	1949
802.035	1952
802.527	1923
803.019	1899
803.511	1877
804.003	1859
804.495	1862
804.987	1856
805.479	1815
805.971	1825
806.464	1837
806.956	1790
807.448	1780
807.94	1775
808.433	1766
808.925	1763
809.417	1737
809.91	1722
810.402	1671
810.894	1681
811.387	1690
811.879	1658
812.372	1683
812.865	1666
813.357	1656
813.85	1637
814.342	1625
814.835	1625
815.328	1618
815.821	1603
816.313	1594
816.806	1591
817.299	1578
817.792	1592
818.285	1563
818.778	1591
819.271	1589
819.764	1566
820.257	1575
820.75	1567
821.243	1572
821.736	1548
822.229	1564
822.722	1558
823.216	1592
