Data from lamp4bck_Subt2__54__554.txt Node

Date: Wed Apr 09 11:16:22 CEST 2025
User: fys-lab-0081
Spectrometer: S04999
Trigger mode: 0
Resolution mode: 1024 pixels
Integration Time (sec): 1.000000E-1
Scans to average: 1
Nonlinearity correction enabled: false
Boxcar width: 0
Baseline correction enabled: true
XAxis mode: Wavelengths
Number of Pixels in Spectrum: 1024
>>>>>Begin Spectral Data<<<<<
336.42	-1
336.877	3
337.334	2
337.792	1
338.249	3
338.706	4
339.164	3
339.621	5
340.079	6
340.536	3
340.994	5
341.452	4
341.909	5
342.367	3
342.825	0
343.283	5
343.741	4
344.198	2
344.656	1
345.114	-1
345.572	6
346.03	0
346.488	6
346.947	0
347.405	3
347.863	2
348.321	2
348.779	3
349.238	1
349.696	4
350.154	6
350.613	2
351.071	7
351.53	10
351.988	11
352.447	8
352.905	3
353.364	3
353.823	9
354.282	3
354.74	-2
355.199	5
355.658	10
356.117	10
356.576	9
357.035	4
357.494	5
357.953	5
358.412	9
358.871	6
359.33	6
359.789	4
360.249	11
360.708	9
361.167	8
361.626	7
362.086	5
362.545	9
363.005	9
363.464	10
363.924	13
364.383	11
364.843	13
365.303	14
365.762	15
366.222	11
366.682	10
367.142	15
367.601	11
368.061	15
368.521	12
368.981	10
369.441	23
369.901	15
370.361	10
370.821	11
371.282	16
371.742	18
372.202	16
372.662	16
373.123	13
373.583	15
374.043	17
374.504	17
374.964	17
375.425	20
375.885	18
376.346	21
376.806	23
377.267	23
377.728	24
378.188	26
378.649	19
379.11	24
379.571	25
380.032	32
380.493	25
380.954	25
381.414	24
381.876	27
382.337	25
382.798	28
383.259	34
383.72	32
384.181	38
384.642	31
385.104	35
385.565	38
386.026	40
386.488	38
386.949	43
387.411	41
387.872	44
388.334	45
388.795	47
389.257	46
389.719	45
390.181	45
390.642	45
391.104	50
391.566	57
392.028	54
392.49	56
392.952	60
393.414	57
393.876	65
394.338	60
394.8	59
395.262	58
395.724	67
396.186	64
396.648	69
397.111	67
397.573	71
398.035	68
398.498	72
398.96	72
399.423	72
399.885	69
400.348	73
400.81	79
401.273	79
401.736	78
402.198	83
402.661	85
403.124	83
403.587	88
404.049	89
404.512	90
404.975	95
405.438	94
405.901	100
406.364	100
406.827	99
407.29	101
407.754	96
408.217	100
408.68	102
409.143	106
409.607	105
410.07	106
410.533	105
410.997	110
411.46	112
411.924	115
412.387	116
412.851	117
413.314	119
413.778	120
414.242	122
414.705	126
415.169	126
415.633	126
416.097	127
416.561	129
417.024	132
417.488	133
417.952	134
418.416	128
418.88	129
419.344	127
419.809	138
420.273	135
420.737	138
421.201	142
421.665	146
422.13	147
422.594	152
423.059	153
423.523	156
423.987	158
424.452	168
424.916	158
425.381	175
425.846	171
426.31	182
426.775	176
427.24	179
427.704	181
428.169	182
428.634	185
429.099	185
429.564	179
430.029	186
430.494	184
430.959	185
431.424	186
431.889	197
432.354	200
432.819	193
433.284	211
433.75	203
434.215	213
434.68	211
435.146	213
435.611	219
436.077	229
436.542	229
437.008	242
437.473	241
437.939	243
438.404	250
438.87	259
439.336	253
439.801	251
440.267	257
440.733	264
441.199	265
441.665	263
442.131	271
442.596	266
443.062	276
443.529	289
443.995	295
444.461	294
444.927	309
445.393	312
445.859	324
446.325	332
446.792	353
447.258	350
447.724	361
448.191	377
448.657	380
449.124	384
449.59	382
450.057	410
450.523	412
450.99	418
451.457	415
451.923	424
452.39	422
452.857	438
453.324	431
453.791	441
454.257	437
454.724	443
455.191	447
455.658	446
456.125	463
456.592	461
457.059	463
457.527	470
457.994	485
458.461	487
458.928	500
459.396	494
459.863	506
460.33	504
460.798	507
461.265	522
461.732	519
462.2	531
462.668	531
463.135	538
463.603	519
464.07	540
464.538	519
465.006	539
465.474	531
465.941	532
466.409	536
466.877	524
467.345	541
467.813	539
468.281	541
468.749	545
469.217	549
469.685	560
470.153	574
470.621	575
471.09	571
471.558	606
472.026	602
472.494	623
472.963	623
473.431	638
473.9	656
474.368	668
474.837	677
475.305	680
475.774	698
476.242	720
476.711	716
477.18	740
477.648	736
478.117	740
478.586	743
479.055	747
479.524	749
479.993	753
480.462	752
480.93	753
481.399	759
481.869	762
482.338	746
482.807	769
483.276	765
483.745	759
484.214	775
484.684	795
485.153	800
485.622	806
486.092	830
486.561	815
487.031	849
487.5	864
487.97	866
488.439	892
488.909	917
489.378	949
489.848	950
490.318	974
490.787	1009
491.257	1020
491.727	1019
492.197	1036
492.667	1045
493.137	1051
493.607	1057
494.077	1074
494.547	1069
495.017	1058
495.487	1083
495.957	1107
496.427	1085
496.897	1083
497.368	1101
497.838	1094
498.308	1104
498.779	1122
499.249	1125
499.719	1133
500.19	1147
500.66	1153
501.131	1161
501.602	1192
502.072	1185
502.543	1212
503.014	1257
503.484	1261
503.955	1288
504.426	1340
504.897	1346
505.368	1375
505.838	1411
506.309	1425
506.78	1473
507.251	1502
507.722	1530
508.194	1575
508.665	1595
509.136	1589
509.607	1641
510.078	1650
510.549	1655
511.021	1700
511.492	1699
511.964	1725
512.435	1753
512.906	1752
513.378	1763
513.849	1802
514.321	1802
514.793	1828
515.264	1845
515.736	1868
516.208	1903
516.679	1921
517.151	1950
517.623	1953
518.095	1987
518.567	1993
519.038	2044
519.51	2035
519.982	2047
520.454	2072
520.927	2109
521.399	2153
521.871	2163
522.343	2169
522.815	2199
523.287	2213
523.76	2234
524.232	2269
524.704	2277
525.177	2245
525.649	2253
526.122	2282
526.594	2238
527.067	2286
527.539	2328
528.012	2304
528.484	2306
528.957	2315
529.43	2307
529.903	2295
530.375	2365
530.848	2311
531.321	2355
531.794	2359
532.267	2425
532.74	2389
533.213	2379
533.686	2422
534.159	2413
534.632	2478
535.105	2497
535.578	2552
536.051	2567
536.525	2561
536.998	2563
537.471	2610
537.945	2569
538.418	2600
538.891	2599
539.365	2648
539.838	2670
540.312	2666
540.786	2676
541.259	2672
541.733	2721
542.206	2742
542.68	2697
543.154	2702
543.628	2725
544.101	2788
544.575	2752
545.049	2661
545.523	2729
545.997	2732
546.471	2743
546.945	2721
547.419	2772
547.893	2661
548.367	2716
548.842	2682
549.316	2709
549.79	2740
550.264	2705
550.739	2742
551.213	2738
551.687	2742
552.162	2770
552.636	2759
553.111	2758
553.585	2854
554.06	2817
554.534	2875
555.009	2854
555.484	2894
555.958	2919
556.433	2925
556.908	2968
557.383	2953
557.858	3029
558.333	3043
558.807	3029
559.282	3052
559.757	3131
560.232	3123
560.708	3069
561.183	3052
561.658	3112
562.133	3087
562.608	3059
563.083	3137
563.559	3099
564.034	3108
564.509	3104
564.985	3098
565.46	3057
565.936	3129
566.411	3131
566.887	3098
567.362	3125
567.838	3134
568.313	3167
568.789	3111
569.265	3109
569.74	3137
570.216	3125
570.692	3172
571.168	3171
571.644	3176
572.12	3194
572.596	3240
573.071	3231
573.547	3329
574.024	3374
574.5	3389
574.976	3402
575.452	3445
575.928	3477
576.404	3494
576.881	3611
577.357	3553
577.833	3563
578.31	3662
578.786	3702
579.262	3742
579.739	3684
580.215	3803
580.692	3808
581.169	3782
581.645	3793
582.122	3896
582.598	3908
583.075	3932
583.552	3959
584.029	3932
584.506	3884
584.982	3870
585.459	3970
585.936	3906
586.413	3958
586.89	4025
587.367	3977
587.844	4031
588.321	3995
588.799	4020
589.276	3991
589.753	4064
590.23	4070
590.707	4049
591.185	4059
591.662	4078
592.139	4114
592.617	4161
593.094	4147
593.572	4194
594.049	4245
594.527	4302
595.004	4300
595.482	4432
595.96	4435
596.437	4445
596.915	4522
597.393	4439
597.871	4543
598.349	4514
598.826	4605
599.304	4612
599.782	4705
600.26	4652
600.738	4753
601.216	4718
601.694	4743
602.173	4761
602.651	4782
603.129	4721
603.607	4750
604.085	4778
604.564	4788
605.042	4800
605.52	4762
605.999	4880
606.477	4743
606.956	4744
607.434	4800.5
607.913	4857
608.391	4842
608.87	4832
609.348	4756
609.827	4752
610.306	4793
610.785	4838
611.263	4836
611.742	4810
612.221	4767
612.7	4814
613.179	4844
613.658	4777
614.137	4864
614.616	4896
615.095	4815
615.574	4866
616.053	4888
616.532	4852
617.011	4868
617.491	4914
617.97	4874
618.449	4920
618.928	4947
619.408	4922
619.887	4992
620.367	4996
620.846	5056
621.326	5018
621.805	5132
622.285	5137
622.764	5168
623.244	5173
623.724	5194
624.203	5230
624.683	5195
625.163	5302
625.643	5299
626.123	5282
626.602	5413
627.082	5299
627.562	5273
628.042	5374
628.522	5287
629.002	5204
629.482	5265
629.963	5281
630.443	5255
630.923	5297
631.403	5306
631.883	5242
632.364	5264
632.844	5238
633.324	5273
633.805	5296
634.285	5215
634.766	5157
635.246	5154
635.727	5143
636.207	5139
636.688	5155
637.168	5140
637.649	5082
638.13	5053
638.611	5103
639.091	5122
639.572	5128
640.053	5135
640.534	5207
641.015	5200
641.496	5111
641.977	5193
642.458	5136
642.939	5158
643.42	5177
643.901	5152
644.382	5193
644.863	5144
645.345	5131
645.826	5119
646.307	5119
646.788	5213
647.27	5121
647.751	5103
648.233	5125
648.714	5012
649.196	5145
649.677	5115
650.159	5106
650.64	5065
651.122	5144
651.603	5063
652.085	5109
652.567	5124
653.049	5091
653.53	5073
654.012	5155
654.494	5090
654.976	5188
655.458	5174
655.94	5156
656.422	5244
656.904	5146
657.386	5078
657.868	5114
658.35	5109
658.833	5150
659.315	5149
659.797	5062
660.279	5029
660.762	5044
661.244	4989
661.726	4935
662.209	4924
662.691	4920
663.174	4840
663.656	4867
664.139	4871
664.621	4800
665.104	4745
665.587	4776
666.069	4812
666.552	4806
667.035	4738
667.517	4744
668	4804
668.483	4793
668.966	4753
669.449	4730
669.932	4747
670.415	4806
670.898	4776
671.381	4793
671.864	4809
672.347	4753
672.83	4775
673.313	4781
673.797	4763
674.28	4867
674.763	4874
675.247	4890
675.73	4847
676.213	4881
676.697	4909
677.18	4917
677.664	4931
678.147	4899
678.631	4935
679.114	4945
679.598	4932
680.082	4951
680.565	4916
681.049	4892
681.533	4878
682.017	4921
682.5	4914
682.984	4922
683.468	4927
683.952	4811
684.436	4906
684.92	4813
685.404	4835
685.888	4877
686.372	4845
686.856	4861
687.341	4911
687.825	4870
688.309	4911
688.793	4935
689.278	4847
689.762	4861
690.246	4842
690.731	4865
691.215	4907
691.7	4813
692.184	4879
692.669	4844
693.153	4858
693.638	4761
694.122	4761
694.607	4806
695.092	4753
695.577	4794
696.061	4695
696.546	4692
697.031	4639
697.516	4663
698.001	4645
698.486	4595
698.971	4632
699.456	4533
699.941	4540
700.426	4548
700.911	4600
701.396	4551
701.881	4564
702.366	4483
702.852	4460
703.337	4473
703.822	4487
704.308	4501
704.793	4548
705.278	4565
705.764	4578
706.249	4559
706.735	4549
707.22	4585
707.706	4545
708.191	4628
708.677	4617
709.163	4551
709.648	4572
710.134	4652
710.62	4603
711.106	4608
711.592	4669
712.077	4654
712.563	4544
713.049	4541
713.535	4632
714.021	4604
714.507	4569
714.993	4511
715.479	4539
715.966	4465
716.452	4451
716.938	4471
717.424	4314
717.91	4402
718.397	4360
718.883	4317
719.369	4309
719.856	4282
720.342	4357
720.829	4305
721.315	4343
721.802	4294
722.288	4340
722.775	4174
723.262	4073
723.748	4229
724.235	4197
724.722	4231
725.208	4141
725.695	4115
726.182	4121
726.669	4076
727.156	4106
727.643	4039
728.13	4043
728.617	4024
729.104	4048
729.591	4011
730.078	4050
730.565	4072
731.052	4030
731.539	4039
732.027	3990
732.514	3923
733.001	3958
733.488	3918
733.976	3929
734.463	3906
734.951	3884
735.438	3903
735.926	3854
736.413	3879
736.901	3856
737.388	3894
737.876	3872
738.364	3833
738.851	3846
739.339	3847
739.827	3884
740.314	3755
740.802	3768
741.29	3786
741.778	3745
742.266	3739
742.754	3739
743.242	3768
743.73	3713
744.218	3731
744.706	3679
745.194	3697
745.682	3641
746.17	3639
746.659	3651
747.147	3561
747.635	3585
748.123	3580
748.612	3519
749.1	3511
749.589	3549
750.077	3547
750.566	3546
751.054	3579
751.543	3584
752.031	3495
752.52	3480
753.008	3417
753.497	3430
753.986	3407
754.474	3382
754.963	3388
755.452	3334
755.941	3329
756.43	3340
756.919	3321
757.408	3266
757.896	3258
758.385	3272
758.875	3232
759.364	3218
759.853	3181
760.342	3134
760.831	3204
761.32	3167
761.809	3118
762.299	3126
762.788	3114
763.277	3094
763.767	3044
764.256	3043
764.745	3022
765.235	3080
765.724	2987
766.214	3022
766.703	2976
767.193	2908
767.683	2914
768.172	2863
768.662	2900
769.152	2862
769.641	2878
770.131	2807
770.621	2853
771.111	2812
771.601	2813
772.09	2792
772.58	2762
773.07	2775
773.56	2790
774.05	2722
774.54	2718
775.031	2708
775.521	2701
776.011	2712
776.501	2735
776.991	2662
777.482	2672
777.972	2605
778.462	2611
778.953	2620
779.443	2604
779.933	2586
780.424	2560
780.914	2577
781.405	2583
781.895	2566
782.386	2569
782.877	2546
783.367	2487
783.858	2466
784.349	2478
784.839	2468
785.33	2463
785.821	2437
786.312	2414
786.803	2413
787.293	2408
787.784	2368
788.275	2318
788.766	2280
789.257	2307
789.748	2263
790.24	2249
790.731	2256
791.222	2224
791.713	2213
792.204	2223
792.696	2171
793.187	2203
793.678	2184
794.169	2114
794.661	2135
795.152	2110
795.644	2091
796.135	2094
796.627	2104
797.118	2070
797.61	2042
798.101	2007
798.593	2031
799.085	1993
799.576	2010
800.068	1986
800.56	1995
801.052	1948
801.544	1951
802.035	1952
802.527	1919
803.019	1889
803.511	1876
804.003	1855
804.495	1862
804.987	1851
805.479	1817
805.971	1824
806.464	1829
806.956	1791
807.448	1780
807.94	1766
808.433	1767
808.925	1754
809.417	1734
809.91	1720
810.402	1673
810.894	1672
811.387	1681
811.879	1653
812.372	1680
812.865	1650
813.357	1648
813.85	1633
814.342	1622
814.835	1627
815.328	1614
815.821	1591
816.313	1586
816.806	1591
817.299	1575
817.792	1591
818.285	1556
818.778	1583
819.271	1591
819.764	1566
820.257	1569
820.75	1567
821.243	1560
821.736	1544
822.229	1560
822.722	1558
823.216	1592
