Data from lamp4bck_Subt2__7__507.txt Node

Date: Wed Apr 09 11:16:17 CEST 2025
User: fys-lab-0081
Spectrometer: S04999
Trigger mode: 0
Resolution mode: 1024 pixels
Integration Time (sec): 1.000000E-1
Scans to average: 1
Nonlinearity correction enabled: false
Boxcar width: 0
Baseline correction enabled: true
XAxis mode: Wavelengths
Number of Pixels in Spectrum: 1024
>>>>>Begin Spectral Data<<<<<
336.42	-1
336.877	3
337.334	1
337.792	6
338.249	2
338.706	0
339.164	0
339.621	4
340.079	5
340.536	4
340.994	2
341.452	6
341.909	11
342.367	5
342.825	3
343.283	6
343.741	3
344.198	-2
344.656	2
345.114	8
345.572	4
346.03	1
346.488	5
346.947	-1
347.405	6
347.863	-1
348.321	4
348.779	9
349.238	5
349.696	3
350.154	1
350.613	2
351.071	3
351.53	6
351.988	10
352.447	2
352.905	0
353.364	5
353.823	7
354.282	2
354.74	-1
355.199	6
355.658	8
356.117	3
356.576	8
357.035	3
357.494	10
357.953	4
358.412	11
358.871	6
359.33	8
359.789	6
360.249	8
360.708	10
361.167	6
361.626	10
362.086	10
362.545	11
363.005	11
363.464	10
363.924	13
364.383	7
364.843	10
365.303	15
365.762	14
366.222	15
366.682	13
367.142	13
367.601	15
368.061	13
368.521	11
368.981	16
369.441	19
369.901	16
370.361	13
370.821	13
371.282	15
371.742	20
372.202	17
372.662	18
373.123	14
373.583	19
374.043	22
374.504	18
374.964	13
375.425	20
375.885	21
376.346	23
376.806	19
377.267	20
377.728	25
378.188	29
378.649	23
379.11	24
379.571	18
380.032	29
380.493	24
380.954	29
381.414	23
381.876	26
382.337	28
382.798	29
383.259	34
383.72	26
384.181	31
384.642	33
385.104	33
385.565	40
386.026	41
386.488	44
386.949	41
387.411	39
387.872	46
388.334	47
388.795	50
389.257	49
389.719	48
390.181	50
390.642	48
391.104	53
391.566	51
392.028	52
392.49	56
392.952	59
393.414	60
393.876	61
394.338	58
394.8	61
395.262	59
395.724	63
396.186	66
396.648	68
397.111	66
397.573	68
398.035	66
398.498	70
398.96	70
399.423	71
399.885	71
400.348	77
400.81	76
401.273	76
401.736	77
402.198	87
402.661	90
403.124	89
403.587	88
404.049	90.5
404.512	93
404.975	96
405.438	95
405.901	95
406.364	97
406.827	103
407.29	99
407.754	99
408.217	102
408.68	100
409.143	104
409.607	110
410.07	103
410.533	106
410.997	107
411.46	111
411.924	113
412.387	115
412.851	110
413.314	117
413.778	120
414.242	122
414.705	127
415.169	127
415.633	128
416.097	123
416.561	133
417.024	129
417.488	127
417.952	135
418.416	127
418.88	129
419.344	131
419.809	135
420.273	138
420.737	132
421.201	140
421.665	142
422.13	147
422.594	150
423.059	153
423.523	157
423.987	153
424.452	161
424.916	163
425.381	167
425.846	174
426.31	179
426.775	177
427.24	182
427.704	176
428.169	178
428.634	183
429.099	183
429.564	180
430.029	186
430.494	182
430.959	183
431.424	180
431.889	192
432.354	200
432.819	188
433.284	204
433.75	201
434.215	212
434.68	212
435.146	212
435.611	221
436.077	231
436.542	230
437.008	241
437.473	243
437.939	240
438.404	253
438.87	258
439.336	251
439.801	255
440.267	254
440.733	262
441.199	263
441.665	262
442.131	270
442.596	263
443.062	272
443.529	292
443.995	293
444.461	297
444.927	312
445.393	308
445.859	325
446.325	330
446.792	351
447.258	348
447.724	362
448.191	371
448.657	375
449.124	386
449.59	383
450.057	406
450.523	407
450.99	421
451.457	412
451.923	426
452.39	417
452.857	439
453.324	432
453.791	432
454.257	439
454.724	448
455.191	449
455.658	447
456.125	463
456.592	455
457.059	465
457.527	467
457.994	485
458.461	487
458.928	495
459.396	494
459.863	509
460.33	502
460.798	507
461.265	511
461.732	515
462.2	532
462.668	523
463.135	533
463.603	513
464.07	538
464.538	522
465.006	537
465.474	529
465.941	536
466.409	537
466.877	527
467.345	541
467.813	536
468.281	543
468.749	551
469.217	545
469.685	559
470.153	569
470.621	575
471.09	570
471.558	599
472.026	601
472.494	617
472.963	620
473.431	634
473.9	652
474.368	667
474.837	681
475.305	683
475.774	694
476.242	711
476.711	710
477.18	737
477.648	730
478.117	738
478.586	740
479.055	747
479.524	743
479.993	746
480.462	753
480.93	753
481.399	749
481.869	755
482.338	748
482.807	764
483.276	753
483.745	758
484.214	775
484.684	788
485.153	802
485.622	801
486.092	827
486.561	810
487.031	847
487.5	851
487.97	864
488.439	892
488.909	911
489.378	948
489.848	946
490.318	969
490.787	1010
491.257	1016
491.727	1017
492.197	1035
492.667	1039
493.137	1044
493.607	1055
494.077	1067
494.547	1059
495.017	1052
495.487	1075
495.957	1105
496.427	1076
496.897	1083
497.368	1103
497.838	1091
498.308	1100
498.779	1113
499.249	1116
499.719	1135
500.19	1147
500.66	1147
501.131	1160
501.602	1181
502.072	1184
502.543	1206
503.014	1251
503.484	1247
503.955	1289
504.426	1336
504.897	1342
505.368	1361
505.838	1400
506.309	1426
506.78	1468
507.251	1494
507.722	1523
508.194	1570
508.665	1591
509.136	1581
509.607	1636
510.078	1646
510.549	1649
511.021	1688
511.492	1693
511.964	1716
512.435	1744
512.906	1745
513.378	1755
513.849	1792
514.321	1789
514.793	1812
515.264	1838
515.736	1857
516.208	1903
516.679	1918
517.151	1936
517.623	1942
518.095	1982
518.567	1992
519.038	2030
519.51	2025
519.982	2048
520.454	2062
520.927	2099
521.399	2144
521.871	2160
522.343	2154
522.815	2184
523.287	2191
523.76	2225
524.232	2255
524.704	2265
525.177	2235
525.649	2241
526.122	2272
526.594	2226
527.067	2284
527.539	2307
528.012	2297
528.484	2287
528.957	2304
529.43	2298
529.903	2283
530.375	2343
530.848	2296
531.321	2338
531.794	2346
532.267	2411
532.74	2378
533.213	2372
533.686	2398
534.159	2394
534.632	2459
535.105	2484
535.578	2544
536.051	2552
536.525	2551
536.998	2548
537.471	2602
537.945	2563
538.418	2588
538.891	2581
539.365	2639
539.838	2656
540.312	2651
540.786	2665
541.259	2658
541.733	2710
542.206	2724
542.68	2677
543.154	2691
543.628	2711
544.101	2770
544.575	2728
545.049	2666
545.523	2708
545.997	2719
546.471	2738
546.945	2708
547.419	2752
547.893	2651
548.367	2700
548.842	2674
549.316	2701
549.79	2720
550.264	2697
550.739	2726
551.213	2721
551.687	2723
552.162	2754
552.636	2742
553.111	2740
553.585	2833
554.06	2807
554.534	2848
555.009	2841
555.484	2884
555.958	2913
556.433	2908
556.908	2953
557.383	2940
557.858	3015
558.333	3032
558.807	3007
559.282	3044
559.757	3120
560.232	3108
560.708	3056
561.183	3037
561.658	3094
562.133	3075
562.608	3051
563.083	3125
563.559	3071
564.034	3089
564.509	3086
564.985	3084
565.46	3034
565.936	3105
566.411	3116
566.887	3078
567.362	3107
567.838	3113
568.313	3151
568.789	3098
569.265	3085
569.74	3122
570.216	3107
570.692	3158
571.168	3149
571.644	3158
572.12	3175
572.596	3216
573.071	3215
573.547	3319
574.024	3360
574.5	3374
574.976	3377
575.452	3428
575.928	3454
576.404	3478
576.881	3588
577.357	3532
577.833	3550
578.31	3647
578.786	3685
579.262	3724
579.739	3665
580.215	3783
580.692	3789
581.169	3765
581.645	3778
582.122	3878
582.598	3889
583.075	3918
583.552	3941
584.029	3915
584.506	3866
584.982	3850
585.459	3946
585.936	3883
586.413	3929
586.89	4000
587.367	3952
587.844	4013
588.321	3972
588.799	3998
589.276	3974
589.753	4045
590.23	4064
590.707	4033
591.185	4044
591.662	4055
592.139	4090
592.617	4138
593.094	4132
593.572	4168
594.049	4229
594.527	4287
595.004	4283
595.482	4402
595.96	4411
596.437	4419
596.915	4509
597.393	4413
597.871	4518
598.349	4487
598.826	4586
599.304	4582
599.782	4676
600.26	4619
600.738	4724
601.216	4698
601.694	4717
602.173	4739
602.651	4755
603.129	4686
603.607	4733
604.085	4752
604.564	4763
605.042	4772
605.52	4732
605.999	4863
606.477	4716
606.956	4717
607.434	4771
607.913	4825
608.391	4812
608.87	4816
609.348	4724
609.827	4732
610.306	4771
610.785	4806
611.263	4827
611.742	4786
612.221	4740
612.7	4796
613.179	4810
613.658	4761
614.137	4842
614.616	4874
615.095	4795
615.574	4843
616.053	4870
616.532	4826
617.011	4857
617.491	4894
617.97	4854
618.449	4904
618.928	4927
619.408	4898
619.887	4968
620.367	4969
620.846	5036
621.326	5001
621.805	5112
622.285	5111
622.764	5141
623.244	5145
623.724	5162
624.203	5210
624.683	5165
625.163	5270
625.643	5275
626.123	5257
626.602	5382
627.082	5275
627.562	5242
628.042	5336
628.522	5264
629.002	5181
629.482	5229
629.963	5257
630.443	5223
630.923	5268
631.403	5275
631.883	5217
632.364	5247
632.844	5208
633.324	5259
633.805	5273
634.285	5184
634.766	5131
635.246	5133
635.727	5117
636.207	5118
636.688	5136
637.168	5109
637.649	5062
638.13	5025
638.611	5076
639.091	5102
639.572	5107
640.053	5115
640.534	5169
641.015	5167
641.496	5092
641.977	5160
642.458	5111
642.939	5121
643.42	5138
643.901	5127
644.382	5157
644.863	5111
645.345	5103
645.826	5102
646.307	5090
646.788	5175
647.27	5085
647.751	5071
648.233	5109
648.714	4984
649.196	5120
649.677	5082
650.159	5083
650.64	5044
651.122	5119
651.603	5043
652.085	5074
652.567	5095
653.049	5055
653.53	5048
654.012	5119
654.494	5054
654.976	5155
655.458	5145
655.94	5123
656.422	5210
656.904	5113
657.386	5045
657.868	5084
658.35	5077
658.833	5118
659.315	5133
659.797	5037
660.279	4992
660.762	5026
661.244	4975
661.726	4897
662.209	4900
662.691	4901
663.174	4809
663.656	4844
664.139	4842
664.621	4768
665.104	4721
665.587	4747
666.069	4784
666.552	4775
667.035	4710
667.517	4729
668	4776
668.483	4759
668.966	4709
669.449	4708
669.932	4715
670.415	4782
670.898	4745
671.381	4769
671.864	4785
672.347	4730
672.83	4757
673.313	4752
673.797	4737
674.28	4841
674.763	4851
675.247	4849
675.73	4820
676.213	4851
676.697	4880
677.18	4890
677.664	4896
678.147	4875
678.631	4905
679.114	4922
679.598	4904
680.082	4929
680.565	4894
681.049	4862
681.533	4855
682.017	4892
682.5	4894
682.984	4897
683.468	4883
683.952	4802
684.436	4886
684.92	4809
685.404	4809
685.888	4849
686.372	4810
686.856	4833
687.341	4880
687.825	4832
688.309	4882
688.793	4905
689.278	4826
689.762	4836
690.246	4818
690.731	4833
691.215	4881
691.7	4788
692.184	4859
692.669	4823
693.153	4826
693.638	4729
694.122	4716
694.607	4777
695.092	4719
695.577	4764
696.061	4675
696.546	4663
697.031	4612
697.516	4632
698.001	4608
698.486	4577
698.971	4598
699.456	4502
699.941	4511
700.426	4516
700.911	4567
701.396	4531
701.881	4536
702.366	4462
702.852	4439
703.337	4447
703.822	4463
704.308	4479
704.793	4520
705.278	4535
705.764	4560
706.249	4535
706.735	4517
707.22	4561
707.706	4507
708.191	4600
708.677	4588
709.163	4521
709.648	4542
710.134	4616
710.62	4574
711.106	4589
711.592	4648
712.077	4625
712.563	4516
713.049	4513
713.535	4602
714.021	4571
714.507	4531
714.993	4472
715.479	4509
715.966	4436
716.452	4429
716.938	4441
717.424	4286
717.91	4364
718.397	4321
718.883	4283
719.369	4283
719.856	4244
720.342	4328
720.829	4277
721.315	4302
721.802	4270
722.288	4297
722.775	4135
723.262	4036
723.748	4202
724.235	4162
724.722	4207
725.208	4113
725.695	4099
726.182	4096
726.669	4058
727.156	4072
727.643	4007
728.13	4013
728.617	4008
729.104	4030
729.591	3986
730.078	4035
730.565	4044
731.052	3998
731.539	4014
732.027	3968
732.514	3892
733.001	3928
733.488	3894
733.976	3902
734.463	3881
734.951	3865
735.438	3882
735.926	3827
736.413	3856
736.901	3841
737.388	3880
737.876	3852
738.364	3813
738.851	3827
739.339	3823
739.827	3852
740.314	3734
740.802	3740
741.29	3749
741.778	3716
742.266	3713
742.754	3718
743.242	3757
743.73	3687
744.218	3693
744.706	3650
745.194	3673
745.682	3619
746.17	3617
746.659	3626
747.147	3537
747.635	3563
748.123	3554
748.612	3500
749.1	3480
749.589	3522
750.077	3518
750.566	3528
751.054	3555
751.543	3560
752.031	3463
752.52	3454
753.008	3393
753.497	3393
753.986	3382
754.474	3346
754.963	3375
755.452	3310
755.941	3302
756.43	3309
756.919	3291
757.408	3252
757.896	3248
758.385	3238
758.875	3208
759.364	3194
759.853	3157
760.342	3109
760.831	3174
761.32	3144
761.809	3099
762.299	3105
762.788	3093
763.277	3069
763.767	3022
764.256	3021
764.745	2999
765.235	3057
765.724	2960
766.214	2999
766.703	2948
767.193	2888
767.683	2886
768.172	2844
768.662	2854
769.152	2841
769.641	2843
770.131	2780
770.621	2829
771.111	2794
771.601	2785
772.09	2774
772.58	2748
773.07	2757
773.56	2772
774.05	2705
774.54	2693
775.031	2692
775.521	2679
776.011	2701
776.501	2719
776.991	2647
777.482	2649
777.972	2587
778.462	2585
778.953	2603
779.443	2577
779.933	2559
780.424	2537
780.914	2566
781.405	2559
781.895	2546
782.386	2545
782.877	2527
783.367	2480
783.858	2447
784.349	2461
784.839	2452
785.33	2443
785.821	2419
786.312	2401
786.803	2396
787.293	2384
787.784	2340
788.275	2309
788.766	2269
789.257	2285
789.748	2243
790.24	2224
790.731	2233
791.222	2210
791.713	2191
792.204	2215
792.696	2156
793.187	2188
793.678	2175
794.169	2098
794.661	2120
795.152	2100
795.644	2075
796.135	2079
796.627	2090
797.118	2053
797.61	2023
798.101	1998
798.593	2019
799.085	1983
799.576	2000
800.068	1975
800.56	1977
801.052	1935
801.544	1930
802.035	1935
802.527	1905
803.019	1878
803.511	1860
804.003	1846
804.495	1853
804.987	1841
805.479	1792
805.971	1811
806.464	1823
806.956	1776
807.448	1769
807.94	1759
808.433	1751
808.925	1742
809.417	1722
809.91	1704
810.402	1654
810.894	1661
811.387	1667
811.879	1645
812.372	1661
812.865	1648
813.357	1635
813.85	1621
814.342	1611
814.835	1613
815.328	1609
815.821	1578
816.313	1576
816.806	1577
817.299	1566
817.792	1580
818.285	1546
818.778	1578
819.271	1578
819.764	1556
820.257	1560
820.75	1550
821.243	1552
821.736	1533
822.229	1543
822.722	1546
823.216	1574
