Data from lamp4bck_Subt2__85__585.txt Node

Date: Wed Apr 09 11:16:26 CEST 2025
User: fys-lab-0081
Spectrometer: S04999
Trigger mode: 0
Resolution mode: 1024 pixels
Integration Time (sec): 1.000000E-1
Scans to average: 1
Nonlinearity correction enabled: false
Boxcar width: 0
Baseline correction enabled: true
XAxis mode: Wavelengths
Number of Pixels in Spectrum: 1024
>>>>>Begin Spectral Data<<<<<
336.42	3
336.877	3
337.334	1
337.792	3
338.249	6
338.706	1
339.164	4
339.621	2
340.079	8
340.536	7
340.994	0
341.452	6
341.909	9
342.367	2
342.825	-1
343.283	3
343.741	0
344.198	3
344.656	4
345.114	4
345.572	8
346.03	2
346.488	7
346.947	-1
347.405	4
347.863	3
348.321	0
348.779	8
349.238	6
349.696	7
350.154	7
350.613	5
351.071	6
351.53	10
351.988	6
352.447	9
352.905	4
353.364	4
353.823	7
354.282	2
354.74	3
355.199	9
355.658	10
356.117	4
356.576	9
357.035	3
357.494	6
357.953	3
358.412	9
358.871	10
359.33	9
359.789	6
360.249	9
360.708	10
361.167	10
361.626	8
362.086	6
362.545	14
363.005	12
363.464	11
363.924	11
364.383	6
364.843	12
365.303	12
365.762	14
366.222	13
366.682	13
367.142	12
367.601	17
368.061	16
368.521	10
368.981	15
369.441	19
369.901	17
370.361	13
370.821	10
371.282	15
371.742	15
372.202	19
372.662	17
373.123	17
373.583	18
374.043	18
374.504	17
374.964	14
375.425	21
375.885	20
376.346	22
376.806	23
377.267	23
377.728	27
378.188	26
378.649	19
379.11	26
379.571	19
380.032	24
380.493	25
380.954	34
381.414	29
381.876	26
382.337	29
382.798	33
383.259	34
383.72	33
384.181	27
384.642	30
385.104	34
385.565	38
386.026	42
386.488	42
386.949	40
387.411	41
387.872	43
388.334	47
388.795	47
389.257	49
389.719	50
390.181	51
390.642	45
391.104	50
391.566	53
392.028	52
392.49	62
392.952	60
393.414	58
393.876	59
394.338	58
394.8	58
395.262	57
395.724	66
396.186	67
396.648	67
397.111	70
397.573	74
398.035	67
398.498	71
398.96	72
399.423	75
399.885	75
400.348	77
400.81	79
401.273	75
401.736	76
402.198	92
402.661	90
403.124	76
403.587	93
404.049	94.5
404.512	96
404.975	96
405.438	97
405.901	99
406.364	103
406.827	98
407.29	99
407.754	99
408.217	101
408.68	101
409.143	108
409.607	112
410.07	105
410.533	106
410.997	113
411.46	109
411.924	115
412.387	115
412.851	113
413.314	120
413.778	117
414.242	125
414.705	129
415.169	132
415.633	129
416.097	130
416.561	129
417.024	132
417.488	134
417.952	135
418.416	131
418.88	128
419.344	131
419.809	137
420.273	140
420.737	132
421.201	137
421.665	149
422.13	151
422.594	154
423.059	152
423.523	156
423.987	158
424.452	162
424.916	165
425.381	169
425.846	165
426.31	178
426.775	180
427.24	180
427.704	177
428.169	180
428.634	182
429.099	182
429.564	182
430.029	184
430.494	185
430.959	190
431.424	183
431.889	196
432.354	200
432.819	190
433.284	202
433.75	202
434.215	213
434.68	211
435.146	210
435.611	219
436.077	228
436.542	224
437.008	242
437.473	241
437.939	241
438.404	252
438.87	253
439.336	251
439.801	254
440.267	258
440.733	264
441.199	264
441.665	267
442.131	275
442.596	270
443.062	280
443.529	292
443.995	294
444.461	298
444.927	312
445.393	313
445.859	327
446.325	331
446.792	355
447.258	353
447.724	364
448.191	376
448.657	377
449.124	387
449.59	385
450.057	407
450.523	416
450.99	422
451.457	413
451.923	426
452.39	422
452.857	438
453.324	432
453.791	440
454.257	442
454.724	451
455.191	448
455.658	446
456.125	466
456.592	456
457.059	463
457.527	476
457.994	487
458.461	489
458.928	496
459.396	497
459.863	509
460.33	507
460.798	510
461.265	518
461.732	515
462.2	529
462.668	527
463.135	536
463.603	518
464.07	539
464.538	523
465.006	539
465.474	534
465.941	536
466.409	539
466.877	527
467.345	541
467.813	536
468.281	542
468.749	551
469.217	548
469.685	562
470.153	571
470.621	575
471.09	572
471.558	600
472.026	601
472.494	618
472.963	619
473.431	635
473.9	654
474.368	670
474.837	679
475.305	684
475.774	698
476.242	721
476.711	717
477.18	744
477.648	737
478.117	739
478.586	742
479.055	743
479.524	747
479.993	749
480.462	746
480.93	753
481.399	754
481.869	761
482.338	750
482.807	763
483.276	760
483.745	760
484.214	778
484.684	795
485.153	801
485.622	805
486.092	829
486.561	817
487.031	846
487.5	857
487.97	868
488.439	893
488.909	919
489.378	952
489.848	954
490.318	971
490.787	1015
491.257	1018
491.727	1026
492.197	1042
492.667	1048
493.137	1054
493.607	1061
494.077	1075
494.547	1062
495.017	1063
495.487	1079
495.957	1109
496.427	1081
496.897	1086
497.368	1102
497.838	1089
498.308	1108
498.779	1120
499.249	1123
499.719	1135
500.19	1144
500.66	1151
501.131	1169
501.602	1188
502.072	1185
502.543	1208
503.014	1260
503.484	1255
503.955	1295
504.426	1338
504.897	1350
505.368	1369
505.838	1406
506.309	1434
506.78	1480
507.251	1500
507.722	1527
508.194	1572
508.665	1601
509.136	1589
509.607	1643
510.078	1657
510.549	1653
511.021	1702
511.492	1707
511.964	1727
512.435	1756
512.906	1757
513.378	1770
513.849	1797
514.321	1802
514.793	1818
515.264	1849
515.736	1869
516.208	1907
516.679	1923
517.151	1950
517.623	1960
518.095	1988
518.567	1998
519.038	2043
519.51	2041
519.982	2055
520.454	2067
520.927	2107
521.399	2158
521.871	2173
522.343	2164
522.815	2201
523.287	2213
523.76	2239
524.232	2260
524.704	2279
525.177	2248
525.649	2258
526.122	2285
526.594	2241
527.067	2291
527.539	2318
528.012	2308
528.484	2301
528.957	2321
529.43	2310
529.903	2297
530.375	2367
530.848	2317
531.321	2356
531.794	2368
532.267	2430
532.74	2386
533.213	2381
533.686	2419
534.159	2410
534.632	2480
535.105	2498
535.578	2562
536.051	2568
536.525	2571
536.998	2561
537.471	2614
537.945	2571
538.418	2609
538.891	2598
539.365	2652
539.838	2678
540.312	2669
540.786	2683
541.259	2679
541.733	2731
542.206	2745
542.68	2705
543.154	2703
543.628	2732
544.101	2784
544.575	2745
545.049	2676
545.523	2726
545.997	2739
546.471	2747
546.945	2729
547.419	2764
547.893	2673
548.367	2716
548.842	2696
549.316	2716
549.79	2747
550.264	2710
550.739	2740
551.213	2744
551.687	2746
552.162	2777
552.636	2758
553.111	2754
553.585	2859
554.06	2819
554.534	2882
555.009	2852
555.484	2896
555.958	2927
556.433	2929
556.908	2969
557.383	2952
557.858	3025
558.333	3047
558.807	3032
559.282	3055
559.757	3127
560.232	3123
560.708	3079
561.183	3063
561.658	3106
562.133	3092
562.608	3064
563.083	3149
563.559	3089
564.034	3108
564.509	3105
564.985	3105
565.46	3059
565.936	3128
566.411	3132
566.887	3103
567.362	3131
567.838	3139
568.313	3175
568.789	3116
569.265	3116
569.74	3140
570.216	3129
570.692	3171
571.168	3172
571.644	3187
572.12	3194
572.596	3242
573.071	3234
573.547	3346
574.024	3380
574.5	3393
574.976	3397
575.452	3443
575.928	3475
576.404	3503
576.881	3616
577.357	3555
577.833	3571
578.31	3664
578.786	3702
579.262	3750
579.739	3693
580.215	3811
580.692	3819
581.169	3786
581.645	3795
582.122	3897
582.598	3920
583.075	3935
583.552	3952
584.029	3933
584.506	3893
584.982	3871
585.459	3970
585.936	3910
586.413	3961
586.89	4040
587.367	3980
587.844	4040
588.321	3992
588.799	4015
589.276	3999
589.753	4067
590.23	4081
590.707	4050
591.185	4067
591.662	4080
592.139	4123
592.617	4161
593.094	4148
593.572	4187
594.049	4259
594.527	4309
595.004	4307
595.482	4435
595.96	4441
596.437	4449
596.915	4532
597.393	4440
597.871	4551
598.349	4517
598.826	4614
599.304	4616
599.782	4707
600.26	4658
600.738	4764
601.216	4737
601.694	4752
602.173	4768
602.651	4786
603.129	4721
603.607	4748
604.085	4780
604.564	4784
605.042	4807
605.52	4767
605.999	4888
606.477	4754
606.956	4738
607.434	4802.5
607.913	4867
608.391	4850
608.87	4840
609.348	4751
609.827	4761
610.306	4803
610.785	4836
611.263	4850
611.742	4817
612.221	4763
612.7	4830
613.179	4842
613.658	4794
614.137	4858
614.616	4904
615.095	4810
615.574	4878
616.053	4902
616.532	4851
617.011	4885
617.491	4929
617.97	4881
618.449	4933
618.928	4963
619.408	4926
619.887	4981
620.367	4998
620.846	5054
621.326	5030
621.805	5141
622.285	5135
622.764	5171
623.244	5184
623.724	5193
624.203	5239
624.683	5197
625.163	5311
625.643	5317
626.123	5286
626.602	5422
627.082	5301
627.562	5287
628.042	5374
628.522	5290
629.002	5211
629.482	5267
629.963	5296
630.443	5255
630.923	5294
631.403	5309
631.883	5240
632.364	5278
632.844	5245
633.324	5285
633.805	5301
634.285	5214
634.766	5173
635.246	5171
635.727	5143
636.207	5145
636.688	5147
637.168	5142
637.649	5079
638.13	5051
638.611	5105
639.091	5136
639.572	5138
640.053	5130
640.534	5203
641.015	5201
641.496	5119
641.977	5193
642.458	5136
642.939	5157
643.42	5163
643.901	5166
644.382	5198
644.863	5143
645.345	5140
645.826	5142
646.307	5132
646.788	5217
647.27	5114
647.751	5108
648.233	5133
648.714	5013
649.196	5152
649.677	5112
650.159	5120
650.64	5069
651.122	5154
651.603	5071
652.085	5117
652.567	5134
653.049	5092
653.53	5082
654.012	5148
654.494	5092
654.976	5193
655.458	5182
655.94	5156
656.422	5244
656.904	5154
657.386	5085
657.868	5115
658.35	5102
658.833	5155
659.315	5165
659.797	5069
660.279	5031
660.762	5057
661.244	4995
661.726	4941
662.209	4932
662.691	4924
663.174	4841
663.656	4882
664.139	4872
664.621	4797
665.104	4750
665.587	4774
666.069	4822
666.552	4811
667.035	4748
667.517	4757
668	4804
668.483	4798
668.966	4750
669.449	4743
669.932	4750
670.415	4813
670.898	4785
671.381	4799
671.864	4812
672.347	4760
672.83	4786
673.313	4785
673.797	4765
674.28	4865
674.763	4886
675.247	4890
675.73	4849
676.213	4883
676.697	4899
677.18	4916
677.664	4940
678.147	4917
678.631	4932
679.114	4960
679.598	4933
680.082	4960
680.565	4914
681.049	4888
681.533	4892
682.017	4920
682.5	4929
682.984	4934
683.468	4917
683.952	4822
684.436	4919
684.92	4827
685.404	4836
685.888	4880
686.372	4850
686.856	4864
687.341	4912
687.825	4874
688.309	4914
688.793	4941
689.278	4856
689.762	4879
690.246	4859
690.731	4863
691.215	4915
691.7	4822
692.184	4885
692.669	4853
693.153	4848
693.638	4770
694.122	4769
694.607	4819
695.092	4759
695.577	4802
696.061	4707
696.546	4706
697.031	4651
697.516	4660
698.001	4644
698.486	4610
698.971	4630
699.456	4534
699.941	4546
700.426	4552
700.911	4601
701.396	4566
701.881	4570
702.366	4494
702.852	4451
703.337	4485
703.822	4496
704.308	4519
704.793	4549
705.278	4574
705.764	4599
706.249	4570
706.735	4547
707.22	4599
707.706	4546
708.191	4623
708.677	4622
709.163	4553
709.648	4581
710.134	4650
710.62	4615
711.106	4615
711.592	4677
712.077	4662
712.563	4548
713.049	4540
713.535	4637
714.021	4602
714.507	4570
714.993	4518
715.479	4539
715.966	4468
716.452	4460
716.938	4478
717.424	4325
717.91	4406
718.397	4362
718.883	4323
719.369	4324
719.856	4293
720.342	4370
720.829	4310
721.315	4337
721.802	4300
722.288	4343
722.775	4174
723.262	4069
723.748	4239
724.235	4207
724.722	4245
725.208	4138
725.695	4133
726.182	4131
726.669	4086
727.156	4109
727.643	4045
728.13	4051
728.617	4026
729.104	4049
729.591	4017
730.078	4063
730.565	4080
731.052	4036
731.539	4045
732.027	3992
732.514	3920
733.001	3962
733.488	3914
733.976	3934
734.463	3910
734.951	3886
735.438	3907
735.926	3862
736.413	3885
736.901	3869
737.388	3904
737.876	3881
738.364	3834
738.851	3856
739.339	3857
739.827	3890
740.314	3754
740.802	3775
741.29	3787
741.778	3750
742.266	3751
742.754	3741
743.242	3776
743.73	3726
744.218	3739
744.706	3676
745.194	3689
745.682	3642
746.17	3652
746.659	3651
747.147	3569
747.635	3601
748.123	3583
748.612	3533
749.1	3506
749.589	3549
750.077	3548
750.566	3555
751.054	3582
751.543	3591
752.031	3491
752.52	3490
753.008	3427
753.497	3426
753.986	3406
754.474	3384
754.963	3396
755.452	3331
755.941	3333
756.43	3336
756.919	3324
757.408	3269
757.896	3275
758.385	3272
758.875	3241
759.364	3216
759.853	3182
760.342	3139
760.831	3206
761.32	3162
761.809	3117
762.299	3129
762.788	3119
763.277	3100
763.767	3053
764.256	3042
764.745	3026
765.235	3091
765.724	2996
766.214	3028
766.703	2976
767.193	2912
767.683	2916
768.172	2869
768.662	2901
769.152	2875
769.641	2865
770.131	2808
770.621	2852
771.111	2817
771.601	2816
772.09	2798
772.58	2767
773.07	2773
773.56	2794
774.05	2725
774.54	2726
775.031	2707
775.521	2698
776.011	2716
776.501	2734
776.991	2668
777.482	2671
777.972	2602
778.462	2613
778.953	2626
779.443	2604
779.933	2591
780.424	2559
780.914	2582
781.405	2583
781.895	2566
782.386	2566
782.877	2546
783.367	2488
783.858	2469
784.349	2478
784.839	2463
785.33	2467
785.821	2439
786.312	2414
786.803	2423
787.293	2406
787.784	2361
788.275	2323
788.766	2283
789.257	2308
789.748	2273
790.24	2244
790.731	2256
791.222	2220
791.713	2213
792.204	2228
792.696	2179
793.187	2203
793.678	2184
794.169	2122
794.661	2145
795.152	2115
795.644	2098
796.135	2099
796.627	2107
797.118	2058
797.61	2040
798.101	2008
798.593	2035
799.085	2004
799.576	2010
800.068	1985
800.56	1999
801.052	1957
801.544	1953
802.035	1953
802.527	1916
803.019	1891
803.511	1873
804.003	1857
804.495	1864
804.987	1851
805.479	1814
805.971	1826
806.464	1834
806.956	1789
807.448	1783
807.94	1776
808.433	1763
808.925	1760
809.417	1733
809.91	1722
810.402	1673
810.894	1679
811.387	1688
811.879	1655
812.372	1680
812.865	1661
813.357	1648
813.85	1641
814.342	1620
814.835	1630
815.328	1613
815.821	1595
816.313	1589
816.806	1584
817.299	1578
817.792	1588
818.285	1555
818.778	1579
819.271	1586
819.764	1563
820.257	1576
820.75	1570
821.243	1565
821.736	1546
822.229	1565
822.722	1557
823.216	1591
