Data from lamp4bck_Subt2__56__556.txt Node

Date: Wed Apr 09 11:16:23 CEST 2025
User: fys-lab-0081
Spectrometer: S04999
Trigger mode: 0
Resolution mode: 1024 pixels
Integration Time (sec): 1.000000E-1
Scans to average: 1
Nonlinearity correction enabled: false
Boxcar width: 0
Baseline correction enabled: true
XAxis mode: Wavelengths
Number of Pixels in Spectrum: 1024
>>>>>Begin Spectral Data<<<<<
336.42	0
336.877	0
337.334	1
337.792	3
338.249	4
338.706	2
339.164	2
339.621	2
340.079	6
340.536	9
340.994	1
341.452	1
341.909	6
342.367	5
342.825	1
343.283	4
343.741	0
344.198	3
344.656	4
345.114	1
345.572	6
346.03	4
346.488	7
346.947	6
347.405	5
347.863	-1
348.321	0
348.779	5
349.238	3
349.696	5
350.154	4
350.613	7
351.071	3
351.53	11
351.988	9
352.447	2
352.905	4
353.364	8
353.823	7
354.282	4
354.74	-4
355.199	7
355.658	8
356.117	6
356.576	8
357.035	-1
357.494	6
357.953	8
358.412	9
358.871	6
359.33	4
359.789	6
360.249	5
360.708	5
361.167	9
361.626	7
362.086	7
362.545	9
363.005	9
363.464	6
363.924	11
364.383	10
364.843	11
365.303	15
365.762	14
366.222	15
366.682	14
367.142	15
367.601	10
368.061	13
368.521	16
368.981	13
369.441	20
369.901	13
370.361	11
370.821	16
371.282	12
371.742	19
372.202	13
372.662	17
373.123	12
373.583	13
374.043	19
374.504	18
374.964	18
375.425	17
375.885	19
376.346	26
376.806	25
377.267	19
377.728	28
378.188	24
378.649	21
379.11	26
379.571	23
380.032	23
380.493	27
380.954	35
381.414	26
381.876	27
382.337	27
382.798	30
383.259	30
383.72	33
384.181	28
384.642	36
385.104	31
385.565	40
386.026	40
386.488	43
386.949	41
387.411	41
387.872	47
388.334	46
388.795	48
389.257	46
389.719	47
390.181	51
390.642	51
391.104	51
391.566	55
392.028	56
392.49	58
392.952	62
393.414	59
393.876	61
394.338	59
394.8	61
395.262	57
395.724	64
396.186	67
396.648	69
397.111	66
397.573	71
398.035	68
398.498	70
398.96	72
399.423	72
399.885	71
400.348	78
400.81	79
401.273	77
401.736	77
402.198	87
402.661	90
403.124	87
403.587	93
404.049	92
404.512	91
404.975	97
405.438	93
405.901	99
406.364	100
406.827	101
407.29	99
407.754	94
408.217	100
408.68	97
409.143	107
409.607	104
410.07	105
410.533	106
410.997	114
411.46	110
411.924	117
412.387	120
412.851	114
413.314	116
413.778	121
414.242	124
414.705	130
415.169	132
415.633	125
416.097	124
416.561	132
417.024	132
417.488	131
417.952	136
418.416	134
418.88	125
419.344	125
419.809	137
420.273	138
420.737	138
421.201	140
421.665	145
422.13	147
422.594	150
423.059	152
423.523	155
423.987	157
424.452	163
424.916	164
425.381	167
425.846	168
426.31	183
426.775	176
427.24	180
427.704	175
428.169	180
428.634	182
429.099	185
429.564	180
430.029	180
430.494	180
430.959	181
431.424	180
431.889	197
432.354	199
432.819	192
433.284	206
433.75	204
434.215	212
434.68	214
435.146	213
435.611	218
436.077	228
436.542	231
437.008	243
437.473	243
437.939	246
438.404	249
438.87	261
439.336	250
439.801	248
440.267	261
440.733	261
441.199	262
441.665	265
442.131	273
442.596	267
443.062	278
443.529	293
443.995	295
444.461	299
444.927	313
445.393	315
445.859	324
446.325	325
446.792	351
447.258	352
447.724	366
448.191	379
448.657	380
449.124	387
449.59	383
450.057	411
450.523	413
450.99	415
451.457	417
451.923	430
452.39	420
452.857	436
453.324	431
453.791	437
454.257	443
454.724	452
455.191	453
455.658	448
456.125	463
456.592	452
457.059	462
457.527	476
457.994	487
458.461	490
458.928	499
459.396	492
459.863	510
460.33	504
460.798	508
461.265	522
461.732	518
462.2	532
462.668	531
463.135	535
463.603	515
464.07	548
464.538	526
465.006	536
465.474	527
465.941	531
466.409	538
466.877	528
467.345	539
467.813	532
468.281	546
468.749	549
469.217	549
469.685	560
470.153	571
470.621	576
471.09	577
471.558	602
472.026	598
472.494	615
472.963	624
473.431	635
473.9	654
474.368	672
474.837	676
475.305	684
475.774	699
476.242	712
476.711	717
477.18	740
477.648	740
478.117	740
478.586	739
479.055	744
479.524	747
479.993	749
480.462	753
480.93	753
481.399	751
481.869	758
482.338	750
482.807	764
483.276	757
483.745	762
484.214	780
484.684	795
485.153	797
485.622	805
486.092	833
486.561	812
487.031	848
487.5	863
487.97	868
488.439	894
488.909	917
489.378	948
489.848	949
490.318	970
490.787	1019
491.257	1014
491.727	1026
492.197	1036
492.667	1045
493.137	1059
493.607	1061
494.077	1073
494.547	1063
495.017	1057
495.487	1079
495.957	1106
496.427	1084
496.897	1081
497.368	1102
497.838	1097
498.308	1104
498.779	1120
499.249	1122
499.719	1137
500.19	1150
500.66	1155
501.131	1168
501.602	1191
502.072	1189
502.543	1215
503.014	1262
503.484	1261
503.955	1292
504.426	1340
504.897	1344
505.368	1375
505.838	1407
506.309	1427
506.78	1474
507.251	1506
507.722	1530
508.194	1576
508.665	1596
509.136	1585
509.607	1641
510.078	1650
510.549	1654
511.021	1698
511.492	1705
511.964	1724
512.435	1755
512.906	1754
513.378	1765
513.849	1803
514.321	1797
514.793	1818
515.264	1844
515.736	1878
516.208	1910
516.679	1927
517.151	1942
517.623	1951
518.095	1985
518.567	1996
519.038	2048
519.51	2040
519.982	2059
520.454	2078
520.927	2106
521.399	2147
521.871	2168
522.343	2176
522.815	2197
523.287	2208
523.76	2236
524.232	2266
524.704	2273
525.177	2243
525.649	2260
526.122	2288
526.594	2234
527.067	2290
527.539	2315
528.012	2311
528.484	2298
528.957	2313
529.43	2303
529.903	2292
530.375	2361
530.848	2317
531.321	2346
531.794	2363
532.267	2427
532.74	2387
533.213	2376
533.686	2420
534.159	2406
534.632	2480
535.105	2503
535.578	2563
536.051	2562
536.525	2562
536.998	2561
537.471	2616
537.945	2567
538.418	2610
538.891	2597
539.365	2648
539.838	2669
540.312	2666
540.786	2682
541.259	2678
541.733	2726
542.206	2742
542.68	2696
543.154	2704
543.628	2730
544.101	2792
544.575	2747
545.049	2675
545.523	2724
545.997	2734
546.471	2752
546.945	2727
547.419	2765
547.893	2663
548.367	2720
548.842	2693
549.316	2710
549.79	2737
550.264	2707
550.739	2750
551.213	2735
551.687	2743
552.162	2768
552.636	2758
553.111	2761
553.585	2859
554.06	2818
554.534	2873
555.009	2857
555.484	2893
555.958	2925
556.433	2929
556.908	2964
557.383	2960
557.858	3036
558.333	3036
558.807	3024
559.282	3059
559.757	3132
560.232	3119
560.708	3072
561.183	3063
561.658	3104
562.133	3088
562.608	3054
563.083	3140
563.559	3090
564.034	3099
564.509	3095
564.985	3094
565.46	3059
565.936	3129
566.411	3127
566.887	3092
567.362	3121
567.838	3134
568.313	3171
568.789	3105
569.265	3103
569.74	3141
570.216	3122
570.692	3179
571.168	3169
571.644	3188
572.12	3189
572.596	3235
573.071	3232
573.547	3335
574.024	3379
574.5	3395
574.976	3404
575.452	3444
575.928	3472
576.404	3500
576.881	3613
577.357	3555
577.833	3571
578.31	3666
578.786	3701
579.262	3745
579.739	3691
580.215	3805
580.692	3805
581.169	3781
581.645	3792
582.122	3903
582.598	3902
583.075	3934
583.552	3956
584.029	3934
584.506	3886
584.982	3864
585.459	3966
585.936	3901
586.413	3960
586.89	4023
587.367	3976
587.844	4038
588.321	3992
588.799	4024
589.276	3991
589.753	4063
590.23	4075
590.707	4060
591.185	4060
591.662	4073
592.139	4108
592.617	4168
593.094	4151
593.572	4185
594.049	4249
594.527	4299
595.004	4318
595.482	4430
595.96	4429
596.437	4444
596.915	4526
597.393	4441
597.871	4539
598.349	4513
598.826	4612
599.304	4609
599.782	4700
600.26	4648
600.738	4758
601.216	4729
601.694	4742
602.173	4763
602.651	4787
603.129	4718
603.607	4752
604.085	4770
604.564	4786
605.042	4795
605.52	4759
605.999	4883
606.477	4742
606.956	4737
607.434	4796.5
607.913	4856
608.391	4837
608.87	4833
609.348	4751
609.827	4757
610.306	4803
610.785	4831
611.263	4843
611.742	4804
612.221	4759
612.7	4817
613.179	4837
613.658	4793
614.137	4874
614.616	4897
615.095	4814
615.574	4865
616.053	4896
616.532	4854
617.011	4875
617.491	4920
617.97	4879
618.449	4917
618.928	4945
619.408	4926
619.887	4979
620.367	4996
620.846	5057
621.326	5029
621.805	5143
622.285	5133
622.764	5168
623.244	5172
623.724	5195
624.203	5234
624.683	5191
625.163	5310
625.643	5305
626.123	5288
626.602	5412
627.082	5300
627.562	5285
628.042	5366
628.522	5294
629.002	5208
629.482	5254
629.963	5283
630.443	5249
630.923	5298
631.403	5310
631.883	5241
632.364	5279
632.844	5241
633.324	5281
633.805	5296
634.285	5220
634.766	5159
635.246	5165
635.727	5135
636.207	5137
636.688	5142
637.168	5142
637.649	5079
638.13	5048
638.611	5111
639.091	5122
639.572	5134
640.053	5133
640.534	5194
641.015	5195
641.496	5112
641.977	5185
642.458	5141
642.939	5150
643.42	5162
643.901	5168
644.382	5198
644.863	5142
645.345	5126
645.826	5127
646.307	5122
646.788	5212
647.27	5107
647.751	5102
648.233	5129
648.714	5011
649.196	5153
649.677	5113
650.159	5110
650.64	5059
651.122	5144
651.603	5072
652.085	5100
652.567	5129
653.049	5090
653.53	5081
654.012	5154
654.494	5087
654.976	5184
655.458	5167
655.94	5159
656.422	5230
656.904	5141
657.386	5079
657.868	5114
658.35	5110
658.833	5159
659.315	5147
659.797	5063
660.279	5035
660.762	5052
661.244	4996
661.726	4926
662.209	4916
662.691	4926
663.174	4841
663.656	4879
664.139	4865
664.621	4796
665.104	4742
665.587	4767
666.069	4813
666.552	4819
667.035	4739
667.517	4757
668	4809
668.483	4793
668.966	4741
669.449	4732
669.932	4741
670.415	4808
670.898	4785
671.381	4792
671.864	4813
672.347	4758
672.83	4779
673.313	4783
673.797	4759
674.28	4864
674.763	4886
675.247	4893
675.73	4848
676.213	4879
676.697	4902
677.18	4913
677.664	4938
678.147	4907
678.631	4921
679.114	4958
679.598	4924
680.082	4948
680.565	4918
681.049	4880
681.533	4878
682.017	4921
682.5	4919
682.984	4925
683.468	4910
683.952	4817
684.436	4914
684.92	4826
685.404	4835
685.888	4871
686.372	4840
686.856	4859
687.341	4910
687.825	4868
688.309	4911
688.793	4937
689.278	4850
689.762	4866
690.246	4842
690.731	4867
691.215	4903
691.7	4823
692.184	4886
692.669	4851
693.153	4859
693.638	4766
694.122	4766
694.607	4816
695.092	4758
695.577	4791
696.061	4708
696.546	4691
697.031	4641
697.516	4668
698.001	4639
698.486	4598
698.971	4627
699.456	4531
699.941	4532
700.426	4549
700.911	4602
701.396	4561
701.881	4560
702.366	4493
702.852	4452
703.337	4492
703.822	4488
704.308	4508
704.793	4545
705.278	4561
705.764	4590
706.249	4576
706.735	4551
707.22	4588
707.706	4547
708.191	4629
708.677	4612
709.163	4547
709.648	4579
710.134	4655
710.62	4607
711.106	4619
711.592	4668
712.077	4645
712.563	4543
713.049	4546
713.535	4629
714.021	4597
714.507	4568
714.993	4514
715.479	4541
715.966	4460
716.452	4462
716.938	4481
717.424	4317
717.91	4408
718.397	4358
718.883	4325
719.369	4316
719.856	4282
720.342	4356
720.829	4316
721.315	4334
721.802	4300
722.288	4334
722.775	4177
723.262	4066
723.748	4235
724.235	4204
724.722	4244
725.208	4144
725.695	4132
726.182	4126
726.669	4074
727.156	4104
727.643	4030
728.13	4043
728.617	4029
729.104	4045
729.591	4009
730.078	4064
730.565	4076
731.052	4030
731.539	4036
732.027	4000
732.514	3917
733.001	3951
733.488	3921
733.976	3937
734.463	3898
734.951	3886
735.438	3907
735.926	3859
736.413	3882
736.901	3862
737.388	3902
737.876	3879
738.364	3832
738.851	3857
739.339	3843
739.827	3878
740.314	3761
740.802	3768
741.29	3784
741.778	3741
742.266	3746
742.754	3741
743.242	3782
743.73	3723
744.218	3734
744.706	3681
745.194	3695
745.682	3648
746.17	3638
746.659	3650
747.147	3564
747.635	3583
748.123	3577
748.612	3526
749.1	3503
749.589	3550
750.077	3547
750.566	3552
751.054	3576
751.543	3582
752.031	3488
752.52	3484
753.008	3415
753.497	3428
753.986	3407
754.474	3380
754.963	3394
755.452	3336
755.941	3329
756.43	3341
756.919	3313
757.408	3271
757.896	3266
758.385	3271
758.875	3235
759.364	3222
759.853	3177
760.342	3129
760.831	3206
761.32	3161
761.809	3117
762.299	3127
762.788	3118
763.277	3102
763.767	3051
764.256	3047
764.745	3024
765.235	3087
765.724	2987
766.214	3020
766.703	2977
767.193	2906
767.683	2912
768.172	2862
768.662	2889
769.152	2872
769.641	2868
770.131	2807
770.621	2853
771.111	2817
771.601	2808
772.09	2797
772.58	2766
773.07	2776
773.56	2793
774.05	2726
774.54	2715
775.031	2712
775.521	2702
776.011	2708
776.501	2737
776.991	2660
777.482	2674
777.972	2611
778.462	2605
778.953	2619
779.443	2607
779.933	2592
780.424	2558
780.914	2578
781.405	2573
781.895	2566
782.386	2568
782.877	2554
783.367	2494
783.858	2469
784.349	2477
784.839	2468
785.33	2458
785.821	2436
786.312	2410
786.803	2418
787.293	2410
787.784	2365
788.275	2317
788.766	2287
789.257	2311
789.748	2265
790.24	2242
790.731	2258
791.222	2219
791.713	2215
792.204	2225
792.696	2175
793.187	2205
793.678	2182
794.169	2114
794.661	2144
795.152	2104
795.644	2093
796.135	2099
796.627	2109
797.118	2073
797.61	2038
798.101	2010
798.593	2029
799.085	2003
799.576	2011
800.068	1989
800.56	1999
801.052	1951
801.544	1948
802.035	1944
802.527	1922
803.019	1893
803.511	1879
804.003	1854
804.495	1862
804.987	1860
805.479	1818
805.971	1824
806.464	1835
806.956	1792
807.448	1782
807.94	1769
808.433	1758
808.925	1754
809.417	1734
809.91	1714
810.402	1662
810.894	1674
811.387	1682
811.879	1657
812.372	1673
812.865	1657
813.357	1652
813.85	1632
814.342	1617
814.835	1629
815.328	1613
815.821	1594
816.313	1587
816.806	1585
817.299	1575
817.792	1585
818.285	1553
818.778	1583
819.271	1592
819.764	1564
820.257	1574
820.75	1565
821.243	1569
821.736	1547
822.229	1558
822.722	1558
823.216	1596
