Data from lamp4bck_Subt4__20__82.txt Node

Date: Wed Apr 09 09:37:18 CEST 2025
User: fys-lab-0081
Spectrometer: S04999
Trigger mode: 0
Resolution mode: 1024 pixels
Integration Time (sec): 1.000000E-1
Scans to average: 1
Nonlinearity correction enabled: false
Boxcar width: 0
Baseline correction enabled: true
XAxis mode: Wavelengths
Number of Pixels in Spectrum: 1024
>>>>>Begin Spectral Data<<<<<
336.42	2
336.877	-1
337.334	3
337.792	1
338.249	7
338.706	3
339.164	5
339.621	2
340.079	4
340.536	8
340.994	7
341.452	4
341.909	3
342.367	3
342.825	2
343.283	8
343.741	3
344.198	7
344.656	7
345.114	6
345.572	9
346.03	10
346.488	9
346.947	6
347.405	4
347.863	7
348.321	10
348.779	9
349.238	7
349.696	12
350.154	9
350.613	8
351.071	8
351.53	11
351.988	7
352.447	8
352.905	7
353.364	8
353.823	9
354.282	13
354.74	8
355.199	9
355.658	14
356.117	11
356.576	16
357.035	13
357.494	14
357.953	19
358.412	17
358.871	12
359.33	12
359.789	16
360.249	15
360.708	21
361.167	17
361.626	19
362.086	16
362.545	20
363.005	25
363.464	15
363.924	21
364.383	25
364.843	20
365.303	22
365.762	19
366.222	21
366.682	29
367.142	28
367.601	24
368.061	24
368.521	30
368.981	27
369.441	31
369.901	36
370.361	25
370.821	29
371.282	31
371.742	29
372.202	29
372.662	32
373.123	31
373.583	30
374.043	35
374.504	29
374.964	35
375.425	37
375.885	37
376.346	36
376.806	39
377.267	44
377.728	48
378.188	42
378.649	47
379.11	45
379.571	44
380.032	46
380.493	46
380.954	49
381.414	51
381.876	54
382.337	55
382.798	55
383.259	64
383.72	60
384.181	63
384.642	61
385.104	68
385.565	74
386.026	73
386.488	73
386.949	74
387.411	77
387.872	79
388.334	82
388.795	81
389.257	86
389.719	89
390.181	86
390.642	93
391.104	92
391.566	92
392.028	102
392.49	100
392.952	101
393.414	111
393.876	106
394.338	109
394.8	114
395.262	117
395.724	117
396.186	117
396.648	123
397.111	123
397.573	123
398.035	128
398.498	132
398.96	130
399.423	133
399.885	141
400.348	136
400.81	147
401.273	143
401.736	146
402.198	149
402.661	159
403.124	154
403.587	161
404.049	167.5
404.512	174
404.975	177
405.438	168
405.901	174
406.364	176
406.827	181
407.29	183
407.754	181
408.217	181
408.68	181
409.143	191
409.607	192
410.07	186
410.533	189
410.997	195
411.46	195
411.924	204
412.387	201
412.851	214
413.314	225
413.778	218
414.242	225
414.705	229
415.169	232
415.633	230
416.097	235
416.561	235
417.024	244
417.488	235
417.952	238
418.416	246
418.88	238
419.344	241
419.809	239
420.273	246
420.737	241
421.201	242
421.665	252
422.13	255
422.594	266
423.059	274
423.523	278
423.987	277
424.452	287
424.916	298
425.381	307
425.846	307
426.31	304
426.775	306
427.24	319
427.704	309
428.169	324
428.634	318
429.099	312
429.564	318
430.029	324
430.494	327
430.959	334
431.424	323
431.889	335
432.354	336
432.819	330
433.284	344
433.75	344
434.215	367
434.68	368
435.146	375
435.611	389
436.077	400
436.542	408
437.008	420
437.473	426
437.939	430
438.404	443
438.87	452
439.336	437
439.801	437
440.267	444
440.733	452
441.199	458
441.665	451
442.131	472
442.596	462
443.062	476
443.529	494
443.995	501
444.461	505
444.927	534
445.393	534
445.859	566
446.325	564
446.792	606
447.258	600
447.724	618
448.191	645
448.657	644
449.124	671
449.59	663
450.057	700
450.523	703
450.99	719
451.457	714
451.923	722
452.39	714
452.857	735
453.324	724
453.791	745
454.257	745
454.724	757
455.191	755
455.658	746
456.125	781
456.592	764
457.059	780
457.527	797
457.994	819
458.461	822
458.928	836
459.396	837
459.863	869
460.33	863
460.798	869
461.265	870
461.732	866
462.2	887
462.668	883
463.135	897
463.603	869
464.07	889
464.538	870
465.006	904
465.474	879
465.941	887
466.409	901
466.877	884
467.345	910
467.813	905
468.281	906
468.749	909
469.217	907
469.685	912
470.153	935
470.621	935
471.09	939
471.558	979
472.026	976
472.494	1011
472.963	1017
473.431	1053
473.9	1079
474.368	1109
474.837	1132
475.305	1142
475.774	1164
476.242	1194
476.711	1190
477.18	1227
477.648	1212
478.117	1227
478.586	1212
479.055	1219
479.524	1226
479.993	1226
480.462	1216
480.93	1230
481.399	1232
481.869	1243
482.338	1233
482.807	1253
483.276	1241
483.745	1246
484.214	1280
484.684	1294
485.153	1293
485.622	1299
486.092	1339
486.561	1317
487.031	1350
487.5	1380
487.97	1390
488.439	1436
488.909	1467
489.378	1519
489.848	1518
490.318	1563
490.787	1631
491.257	1659
491.727	1666
492.197	1709
492.667	1704
493.137	1729
493.607	1740
494.077	1752
494.547	1723
495.017	1730
495.487	1738
495.957	1775
496.427	1730
496.897	1747
497.368	1773
497.838	1757
498.308	1781
498.779	1796
499.249	1809
499.719	1822
500.19	1846
500.66	1864
501.131	1883
501.602	1939
502.072	1940
502.543	1955
503.014	2021
503.484	2022
503.955	2073
504.426	2135
504.897	2153
505.368	2189
505.838	2215
506.309	2273
506.78	2352
507.251	2382
507.722	2416
508.194	2492
508.665	2542
509.136	2522
509.607	2608
510.078	2655
510.549	2655
511.021	2715
511.492	2732
511.964	2779
512.435	2819
512.906	2797
513.378	2827
513.849	2869
514.321	2869
514.793	2896
515.264	2931
515.736	2955
516.208	2988
516.679	3018
517.151	3054
517.623	3081
518.095	3119
518.567	3156
519.038	3223
519.51	3210
519.982	3266
520.454	3320
520.927	3362
521.399	3399
521.871	3437
522.343	3459
522.815	3510
523.287	3500
523.76	3515
524.232	3562
524.704	3586
525.177	3529
525.649	3560
526.122	3609
526.594	3511
527.067	3592
527.539	3648
528.012	3625
528.484	3614
528.957	3646
529.43	3651
529.903	3625
530.375	3744
530.848	3658
531.321	3702
531.794	3726
532.267	3795
532.74	3764
533.213	3764
533.686	3821
534.159	3787
534.632	3850
535.105	3856
535.578	3935
536.051	3927
536.525	3944
536.998	3968
537.471	4058
537.945	3991
538.418	4044
538.891	4079
539.365	4128
539.838	4149
540.312	4148
540.786	4189
541.259	4168
541.733	4213
542.206	4227
542.68	4184
543.154	4187
543.628	4161
544.101	4283
544.575	4278
545.049	4186
545.523	4246
545.997	4221
546.471	4272
546.945	4241
547.419	4293
547.893	4136
548.367	4198
548.842	4185
549.316	4188
549.79	4212
550.264	4184
550.739	4229
551.213	4213
551.687	4220
552.162	4296
552.636	4278
553.111	4231
553.585	4335
554.06	4280
554.534	4384
555.009	4333
555.484	4398
555.958	4446
556.433	4474
556.908	4541
557.383	4483
557.858	4611
558.333	4641
558.807	4614
559.282	4611
559.757	4731
560.232	4762
560.708	4701
561.183	4677
561.658	4741
562.133	4731
562.608	4707
563.083	4822
563.559	4696
564.034	4742
564.509	4747
564.985	4760
565.46	4687
565.936	4757
566.411	4763
566.887	4712
567.362	4748
567.838	4742
568.313	4818
568.789	4759
569.265	4748
569.74	4756
570.216	4720
570.692	4843
571.168	4876
571.644	4854
572.12	4818
572.596	4860
573.071	4857
573.547	4965
574.024	4974
574.5	5013
574.976	5055
575.452	5144
575.928	5180
576.404	5202
576.881	5389
577.357	5322
577.833	5360
578.31	5444
578.786	5497
579.262	5625
579.739	5593
580.215	5713
580.692	5682
581.169	5665
581.645	5710
582.122	5883
582.598	5852
583.075	5825
583.552	5900
584.029	5916
584.506	5894
584.982	5836
585.459	5957
585.936	5895
586.413	5956
586.89	6019
587.367	5926
587.844	6027
588.321	6012
588.799	6022
589.276	5930
589.753	5981
590.23	6037
590.707	6015
591.185	6004
591.662	5975
592.139	6000
592.617	6124
593.094	6165
593.572	6210
594.049	6247
594.527	6266
595.004	6312
595.482	6514
595.96	6467
596.437	6458
596.915	6635
597.393	6599
597.871	6808
598.349	6694
598.826	6795
599.304	6823
599.782	6945
600.26	6870
600.738	6965
601.216	6886
601.694	6962
602.173	7019
602.651	7051
603.129	6944
603.607	7005
604.085	7042
604.564	7065
605.042	7050
605.52	6976
605.999	7161
606.477	7010
606.956	7037
607.434	7077
607.913	7117
608.391	7104
608.87	7136
609.348	7082
609.827	7133
610.306	7157
610.785	7143
611.263	7193
611.742	7210
612.221	7108
612.7	7185
613.179	7210
613.658	7126
614.137	7292
614.616	7333
615.095	7147
615.574	7197
616.053	7266
616.532	7256
617.011	7310
617.491	7310
617.97	7258
618.449	7311
618.928	7362
619.408	7284
619.887	7338
620.367	7360
620.846	7462
621.326	7418
621.805	7597
622.285	7560
622.764	7573
623.244	7530
623.724	7597
624.203	7659
624.683	7541
625.163	7716
625.643	7725
626.123	7699
626.602	7925
627.082	7764
627.562	7736
628.042	7898
628.522	7862
629.002	7842
629.482	7876
629.963	7858
630.443	7782
630.923	7812
631.403	7837
631.883	7784
632.364	7789
632.844	7696
633.324	7698
633.805	7688
634.285	7612
634.766	7568
635.246	7587
635.727	7579
636.207	7557
636.688	7564
637.168	7566
637.649	7511
638.13	7478
638.611	7556
639.091	7614
639.572	7602
640.053	7551
640.534	7573
641.015	7528
641.496	7412
641.977	7623
642.458	7613
642.939	7657
643.42	7687
643.901	7698
644.382	7745
644.863	7715
645.345	7729
645.826	7723
646.307	7694
646.788	7770
647.27	7643
647.751	7708
648.233	7806
648.714	7609
649.196	7772
649.677	7720
650.159	7710
650.64	7612
651.122	7742
651.603	7622
652.085	7662
652.567	7656
653.049	7589
653.53	7633
654.012	7726
654.494	7570
654.976	7647
655.458	7616
655.94	7626
656.422	7798
656.904	7732
657.386	7651
657.868	7640
658.35	7631
658.833	7709
659.315	7773
659.797	7662
660.279	7664
660.762	7764
661.244	7706
661.726	7599
662.209	7567
662.691	7523
663.174	7353
663.656	7398
664.139	7433
664.621	7373
665.104	7334
665.587	7383
666.069	7376
666.552	7337
667.035	7265
667.517	7288
668	7322
668.483	7268
668.966	7171
669.449	7155
669.932	7164
670.415	7252
670.898	7163
671.381	7184
671.864	7207
672.347	7158
672.83	7203
673.313	7267
673.797	7262
674.28	7390
674.763	7389
675.247	7395
675.73	7366
676.213	7441
676.697	7520
677.18	7519
677.664	7577
678.147	7618
678.631	7662
679.114	7709
679.598	7692
680.082	7690
680.565	7644
681.049	7607
681.533	7638
682.017	7774
682.5	7787
682.984	7833
683.468	7769
683.952	7578
684.436	7666
684.92	7540
685.404	7550
685.888	7551
686.372	7475
686.856	7514
687.341	7590
687.825	7501
688.309	7549
688.793	7579
689.278	7471
689.762	7578
690.246	7536
690.731	7574
691.215	7562
691.7	7362
692.184	7476
692.669	7510
693.153	7588
693.638	7494
694.122	7512
694.607	7575
695.092	7459
695.577	7578
696.061	7461
696.546	7490
697.031	7493
697.516	7561
698.001	7598
698.486	7562
698.971	7660
699.456	7518
699.941	7489
700.426	7460
700.911	7465
701.396	7365
701.881	7377
702.366	7333
702.852	7325
703.337	7360
703.822	7300
704.308	7253
704.793	7271
705.278	7266
705.764	7294
706.249	7244
706.735	7273
707.22	7361
707.706	7243
708.191	7349
708.677	7320
709.163	7301
709.648	7384
710.134	7455
710.62	7363
711.106	7377
711.592	7482
712.077	7502
712.563	7350
713.049	7370
713.535	7496
714.021	7438
714.507	7416
714.993	7340
715.479	7447
715.966	7372
716.452	7391
716.938	7408
717.424	7198
717.91	7349
718.397	7280
718.883	7217
719.369	7218
719.856	7154
720.342	7232
720.829	7126
721.315	7133
721.802	7110
722.288	7209
722.775	6961
723.262	6751
723.748	6982
724.235	6929
724.722	7022
725.208	6921
725.695	6931
726.182	6913
726.669	6810
727.156	6802
727.643	6681
728.13	6663
728.617	6637
729.104	6674
729.591	6653
730.078	6752
730.565	6790
731.052	6685
731.539	6693
732.027	6635
732.514	6566
733.001	6642
733.488	6621
733.976	6646
734.463	6646
734.951	6631
735.438	6725
735.926	6661
736.413	6731
736.901	6698
737.388	6791
737.876	6760
738.364	6705
738.851	6708
739.339	6667
739.827	6700
740.314	6491
740.802	6566
741.29	6607
741.778	6518
742.266	6511
742.754	6501
743.242	6540
743.73	6416
744.218	6428
744.706	6327
745.194	6366
745.682	6312
746.17	6313
746.659	6330
747.147	6170
747.635	6201
748.123	6215
748.612	6174
749.1	6142
749.589	6188
750.077	6120
750.566	6094
751.054	6137
751.543	6171
752.031	6063
752.52	6079
753.008	5966
753.497	5965
753.986	5960
754.474	5949
754.963	6006
755.452	5910
755.941	5887
756.43	5891
756.919	5875
757.408	5850
757.896	5898
758.385	5936
758.875	5872
759.364	5817
759.853	5760
760.342	5667
760.831	5752
761.32	5686
761.809	5592
762.299	5633
762.788	5639
763.277	5607
763.767	5488
764.256	5496
764.745	5413
765.235	5520
765.724	5382
766.214	5454
766.703	5408
767.193	5319
767.683	5348
768.172	5259
768.662	5328
769.152	5303
769.641	5306
770.131	5157
770.621	5206
771.111	5160
771.601	5152
772.09	5109
772.58	5040
773.07	5041
773.56	5093
774.05	4986
774.54	4957
775.031	4926
775.521	4922
776.011	4945
776.501	5037
776.991	4956
777.482	5002
777.972	4866
778.462	4864
778.953	4908
779.443	4860
779.933	4850
780.424	4787
780.914	4821
781.405	4836
781.895	4804
782.386	4807
782.877	4789
783.367	4693
783.858	4662
784.349	4684
784.839	4651
785.33	4663
785.821	4611
786.312	4536
786.803	4532
787.293	4535
787.784	4466
788.275	4421
788.766	4400
789.257	4488
789.748	4399
790.24	4353
790.731	4394
791.222	4323
791.713	4309
792.204	4290
792.696	4165
793.187	4216
793.678	4183
794.169	4061
794.661	4129
795.152	4087
795.644	4060
796.135	4029
796.627	4060
797.118	3987
797.61	3958
798.101	3909
798.593	3958
799.085	3904
799.576	3918
800.068	3847
800.56	3867
801.052	3784
801.544	3786
802.035	3789
802.527	3726
803.019	3688
803.511	3657
804.003	3628
804.495	3658
804.987	3616
805.479	3529
805.971	3565
806.464	3566
806.956	3497
807.448	3515
807.94	3534
808.433	3512
808.925	3480
809.417	3443
809.91	3433
810.402	3354
810.894	3389
811.387	3428
811.879	3363
812.372	3388
812.865	3350
813.357	3357
813.85	3332
814.342	3326
814.835	3320
815.328	3317
815.821	3279
816.313	3278
816.806	3268
817.299	3232
817.792	3261
818.285	3240
818.778	3289
819.271	3276
819.764	3221
820.257	3206
820.75	3180
821.243	3166
821.736	3140
822.229	3179
822.722	3193
823.216	3244
