Data from lamp4bck_Subt2__93__593.txt Node

Date: Wed Apr 09 11:16:27 CEST 2025
User: fys-lab-0081
Spectrometer: S04999
Trigger mode: 0
Resolution mode: 1024 pixels
Integration Time (sec): 1.000000E-1
Scans to average: 1
Nonlinearity correction enabled: false
Boxcar width: 0
Baseline correction enabled: true
XAxis mode: Wavelengths
Number of Pixels in Spectrum: 1024
>>>>>Begin Spectral Data<<<<<
336.42	-1
336.877	3
337.334	2
337.792	0
338.249	4
338.706	3
339.164	4
339.621	2
340.079	3
340.536	7
340.994	4
341.452	3
341.909	6
342.367	3
342.825	0
343.283	7
343.741	2
344.198	4
344.656	0
345.114	4
345.572	9
346.03	1
346.488	3
346.947	3
347.405	2
347.863	3
348.321	0
348.779	7
349.238	5
349.696	7
350.154	1
350.613	6
351.071	4
351.53	8
351.988	10
352.447	4
352.905	1
353.364	5
353.823	6
354.282	7
354.74	0
355.199	7
355.658	11
356.117	7
356.576	7
357.035	2
357.494	9
357.953	5
358.412	6
358.871	5
359.33	6
359.789	3
360.249	6
360.708	13
361.167	7
361.626	10
362.086	9
362.545	11
363.005	7
363.464	12
363.924	10
364.383	10
364.843	11
365.303	16
365.762	17
366.222	13
366.682	12
367.142	13
367.601	8
368.061	11
368.521	15
368.981	10
369.441	17
369.901	16
370.361	15
370.821	18
371.282	16
371.742	17
372.202	18
372.662	20
373.123	13
373.583	19
374.043	18
374.504	16
374.964	16
375.425	22
375.885	17
376.346	23
376.806	24
377.267	19
377.728	26
378.188	21
378.649	21
379.11	24
379.571	19
380.032	26
380.493	26
380.954	30
381.414	27
381.876	28
382.337	24
382.798	28
383.259	30
383.72	33
384.181	31
384.642	32
385.104	40
385.565	38
386.026	42
386.488	40
386.949	42
387.411	42
387.872	46
388.334	48
388.795	47
389.257	48
389.719	45
390.181	49
390.642	48
391.104	45
391.566	57
392.028	57
392.49	62
392.952	59
393.414	59
393.876	62
394.338	57
394.8	59
395.262	55
395.724	66
396.186	67
396.648	69
397.111	66
397.573	72
398.035	68
398.498	69
398.96	72
399.423	71
399.885	75
400.348	75
400.81	76
401.273	79
401.736	76
402.198	85
402.661	88
403.124	85
403.587	92
404.049	94
404.512	96
404.975	93
405.438	95
405.901	99
406.364	94
406.827	95
407.29	100
407.754	102
408.217	102
408.68	100
409.143	106
409.607	106
410.07	112
410.533	107
410.997	107
411.46	114
411.924	117
412.387	118
412.851	118
413.314	116
413.778	124
414.242	123
414.705	130
415.169	131
415.633	129
416.097	126
416.561	131
417.024	134
417.488	130
417.952	136
418.416	130
418.88	127
419.344	132
419.809	139
420.273	137
420.737	139
421.201	142
421.665	145
422.13	150
422.594	153
423.059	153
423.523	154
423.987	155
424.452	161
424.916	167
425.381	171
425.846	166
426.31	177
426.775	179
427.24	181
427.704	179
428.169	185
428.634	186
429.099	184
429.564	180
430.029	185
430.494	185
430.959	190
431.424	185
431.889	196
432.354	194
432.819	196
433.284	207
433.75	203
434.215	214
434.68	211
435.146	212
435.611	216
436.077	228
436.542	228
437.008	244
437.473	242
437.939	245
438.404	249
438.87	257
439.336	254
439.801	251
440.267	256
440.733	260
441.199	261
441.665	269
442.131	276
442.596	267
443.062	278
443.529	292
443.995	293
444.461	298
444.927	312
445.393	315
445.859	331
446.325	329
446.792	354
447.258	352
447.724	364
448.191	373
448.657	382
449.124	386
449.59	384
450.057	414
450.523	411
450.99	420
451.457	417
451.923	432
452.39	418
452.857	438
453.324	430
453.791	437
454.257	442
454.724	452
455.191	446
455.658	445
456.125	466
456.592	452
457.059	466
457.527	477
457.994	482
458.461	488
458.928	498
459.396	490
459.863	508
460.33	509
460.798	511
461.265	523
461.732	519
462.2	528
462.668	528
463.135	533
463.603	521
464.07	541
464.538	522
465.006	540
465.474	531
465.941	538
466.409	532
466.877	527
467.345	541
467.813	531
468.281	545
468.749	550
469.217	548
469.685	555
470.153	569
470.621	574
471.09	575
471.558	598
472.026	603
472.494	616
472.963	622
473.431	638
473.9	654
474.368	669
474.837	683
475.305	685
475.774	695
476.242	717
476.711	719
477.18	740
477.648	736
478.117	738
478.586	742
479.055	746
479.524	746
479.993	749
480.462	746
480.93	761
481.399	753
481.869	753
482.338	753
482.807	767
483.276	763
483.745	759
484.214	781
484.684	796
485.153	799
485.622	811
486.092	827
486.561	816
487.031	849
487.5	858
487.97	869
488.439	891
488.909	913
489.378	949
489.848	953
490.318	972
490.787	1016
491.257	1016
491.727	1021
492.197	1041
492.667	1046
493.137	1050
493.607	1063
494.077	1078
494.547	1063
495.017	1061
495.487	1081
495.957	1107
496.427	1085
496.897	1088
497.368	1101
497.838	1097
498.308	1103
498.779	1121
499.249	1123
499.719	1140
500.19	1154
500.66	1159
501.131	1164
501.602	1193
502.072	1191
502.543	1212
503.014	1263
503.484	1258
503.955	1295
504.426	1346
504.897	1345
505.368	1372
505.838	1406
506.309	1433
506.78	1474
507.251	1500
507.722	1535
508.194	1576
508.665	1595
509.136	1588
509.607	1638
510.078	1653
510.549	1650
511.021	1704
511.492	1704
511.964	1725
512.435	1753
512.906	1757
513.378	1765
513.849	1801
514.321	1802
514.793	1817
515.264	1852
515.736	1875
516.208	1908
516.679	1922
517.151	1950
517.623	1952
518.095	1990
518.567	2000
519.038	2043
519.51	2038
519.982	2059
520.454	2071
520.927	2109
521.399	2150
521.871	2169
522.343	2175
522.815	2197
523.287	2210
523.76	2233
524.232	2261
524.704	2279
525.177	2243
525.649	2257
526.122	2285
526.594	2240
527.067	2292
527.539	2328
528.012	2301
528.484	2304
528.957	2318
529.43	2308
529.903	2298
530.375	2359
530.848	2316
531.321	2359
531.794	2361
532.267	2427
532.74	2383
533.213	2385
533.686	2424
534.159	2414
534.632	2477
535.105	2502
535.578	2561
536.051	2562
536.525	2571
536.998	2561
537.471	2617
537.945	2574
538.418	2605
538.891	2600
539.365	2651
539.838	2674
540.312	2673
540.786	2677
541.259	2679
541.733	2734
542.206	2745
542.68	2705
543.154	2707
543.628	2723
544.101	2797
544.575	2751
545.049	2680
545.523	2723
545.997	2744
546.471	2755
546.945	2725
547.419	2767
547.893	2662
548.367	2720
548.842	2692
549.316	2720
549.79	2744
550.264	2715
550.739	2750
551.213	2742
551.687	2742
552.162	2771
552.636	2765
553.111	2764
553.585	2856
554.06	2828
554.534	2876
555.009	2859
555.484	2906
555.958	2940
556.433	2927
556.908	2968
557.383	2952
557.858	3037
558.333	3052
558.807	3030
559.282	3063
559.757	3136
560.232	3129
560.708	3085
561.183	3057
561.658	3112
562.133	3100
562.608	3073
563.083	3142
563.559	3084
564.034	3107
564.509	3108
564.985	3101
565.46	3064
565.936	3130
566.411	3137
566.887	3100
567.362	3130
567.838	3135
568.313	3176
568.789	3117
569.265	3109
569.74	3147
570.216	3130
570.692	3178
571.168	3170
571.644	3182
572.12	3201
572.596	3239
573.071	3237
573.547	3336
574.024	3377
574.5	3391
574.976	3406
575.452	3447
575.928	3482
576.404	3494
576.881	3613
577.357	3560
577.833	3578
578.31	3669
578.786	3703
579.262	3750
579.739	3687
580.215	3807
580.692	3813
581.169	3791
581.645	3797
582.122	3901
582.598	3908
583.075	3933
583.552	3961
584.029	3939
584.506	3897
584.982	3871
585.459	3967
585.936	3899
586.413	3956
586.89	4028
587.367	3988
587.844	4042
588.321	3983
588.799	4025
589.276	4001
589.753	4067
590.23	4090
590.707	4049
591.185	4064
591.662	4083
592.139	4114
592.617	4173
593.094	4146
593.572	4198
594.049	4257
594.527	4309
595.004	4303
595.482	4426
595.96	4436
596.437	4437
596.915	4532
597.393	4436
597.871	4547
598.349	4520
598.826	4613
599.304	4607
599.782	4708
600.26	4655
600.738	4763
601.216	4733
601.694	4751
602.173	4766
602.651	4784
603.129	4727
603.607	4753
604.085	4785
604.564	4785
605.042	4800
605.52	4764
605.999	4889
606.477	4747
606.956	4731
607.434	4794
607.913	4857
608.391	4852
608.87	4842
609.348	4747
609.827	4756
610.306	4807
610.785	4836
611.263	4847
611.742	4807
612.221	4765
612.7	4826
613.179	4844
613.658	4791
614.137	4862
614.616	4900
615.095	4814
615.574	4874
616.053	4908
616.532	4857
617.011	4882
617.491	4929
617.97	4882
618.449	4926
618.928	4958
619.408	4937
619.887	4985
620.367	4998
620.846	5069
621.326	5024
621.805	5140
622.285	5135
622.764	5184
623.244	5169
623.724	5202
624.203	5241
624.683	5196
625.163	5310
625.643	5303
626.123	5286
626.602	5414
627.082	5306
627.562	5283
628.042	5364
628.522	5292
629.002	5214
629.482	5260
629.963	5285
630.443	5257
630.923	5300
631.403	5310
631.883	5248
632.364	5271
632.844	5250
633.324	5282
633.805	5310
634.285	5224
634.766	5164
635.246	5155
635.727	5156
636.207	5142
636.688	5150
637.168	5135
637.649	5089
638.13	5056
638.611	5107
639.091	5130
639.572	5141
640.053	5139
640.534	5217
641.015	5202
641.496	5111
641.977	5196
642.458	5149
642.939	5159
643.42	5165
643.901	5158
644.382	5201
644.863	5160
645.345	5133
645.826	5132
646.307	5123
646.788	5219
647.27	5121
647.751	5109
648.233	5136
648.714	5011
649.196	5156
649.677	5129
650.159	5114
650.64	5072
651.122	5153
651.603	5079
652.085	5111
652.567	5126
653.049	5092
653.53	5076
654.012	5156
654.494	5092
654.976	5190
655.458	5179
655.94	5162
656.422	5239
656.904	5138
657.386	5084
657.868	5125
658.35	5107
658.833	5161
659.315	5158
659.797	5075
660.279	5023
660.762	5055
661.244	5006
661.726	4933
662.209	4924
662.691	4927
663.174	4839
663.656	4878
664.139	4872
664.621	4803
665.104	4757
665.587	4783
666.069	4817
666.552	4816
667.035	4747
667.517	4761
668	4799
668.483	4793
668.966	4745
669.449	4733
669.932	4746
670.415	4821
670.898	4786
671.381	4801
671.864	4814
672.347	4765
672.83	4780
673.313	4787
673.797	4768
674.28	4875
674.763	4890
675.247	4895
675.73	4857
676.213	4881
676.697	4905
677.18	4923
677.664	4940
678.147	4914
678.631	4933
679.114	4957
679.598	4934
680.082	4951
680.565	4914
681.049	4882
681.533	4884
682.017	4930
682.5	4919
682.984	4936
683.468	4921
683.952	4824
684.436	4924
684.92	4830
685.404	4832
685.888	4879
686.372	4850
686.856	4856
687.341	4923
687.825	4872
688.309	4913
688.793	4936
689.278	4856
689.762	4875
690.246	4861
690.731	4870
691.215	4912
691.7	4828
692.184	4881
692.669	4854
693.153	4860
693.638	4768
694.122	4762
694.607	4829
695.092	4760
695.577	4806
696.061	4706
696.546	4693
697.031	4659
697.516	4673
698.001	4644
698.486	4613
698.971	4622
699.456	4529
699.941	4548
700.426	4553
700.911	4608
701.396	4558
701.881	4558
702.366	4498
702.852	4458
703.337	4486
703.822	4495
704.308	4515
704.793	4550
705.278	4569
705.764	4589
706.249	4567
706.735	4552
707.22	4595
707.706	4550
708.191	4625
708.677	4613
709.163	4555
709.648	4584
710.134	4655
710.62	4609
711.106	4625
711.592	4676
712.077	4657
712.563	4545
713.049	4555
713.535	4636
714.021	4597
714.507	4569
714.993	4514
715.479	4545
715.966	4463
716.452	4469
716.938	4477
717.424	4321
717.91	4404
718.397	4359
718.883	4328
719.369	4323
719.856	4293
720.342	4367
720.829	4305
721.315	4343
721.802	4305
722.288	4339
722.775	4179
723.262	4077
723.748	4238
724.235	4209
724.722	4249
725.208	4146
725.695	4134
726.182	4132
726.669	4079
727.156	4106
727.643	4046
728.13	4043
728.617	4035
729.104	4062
729.591	4015
730.078	4065
730.565	4081
731.052	4025
731.539	4040
732.027	3990
732.514	3920
733.001	3952
733.488	3928
733.976	3924
734.463	3907
734.951	3881
735.438	3911
735.926	3864
736.413	3886
736.901	3868
737.388	3904
737.876	3884
738.364	3843
738.851	3850
739.339	3853
739.827	3892
740.314	3759
740.802	3768
741.29	3785
741.778	3742
742.266	3748
742.754	3757
743.242	3780
743.73	3724
744.218	3730
744.706	3677
745.194	3687
745.682	3645
746.17	3643
746.659	3653
747.147	3572
747.635	3595
748.123	3582
748.612	3524
749.1	3511
749.589	3552
750.077	3553
750.566	3551
751.054	3582
751.543	3585
752.031	3498
752.52	3496
753.008	3419
753.497	3426
753.986	3401
754.474	3382
754.963	3394
755.452	3346
755.941	3331
756.43	3337
756.919	3328
757.408	3262
757.896	3272
758.385	3275
758.875	3237
759.364	3217
759.853	3180
760.342	3141
760.831	3211
761.32	3169
761.809	3123
762.299	3133
762.788	3121
763.277	3101
763.767	3046
764.256	3049
764.745	3033
765.235	3090
765.724	2990
766.214	3031
766.703	2976
767.193	2915
767.683	2914
768.172	2864
768.662	2888
769.152	2880
769.641	2870
770.131	2814
770.621	2859
771.111	2813
771.601	2807
772.09	2801
772.58	2767
773.07	2776
773.56	2797
774.05	2732
774.54	2715
775.031	2709
775.521	2700
776.011	2722
776.501	2739
776.991	2667
777.482	2677
777.972	2613
778.462	2614
778.953	2623
779.443	2593
779.933	2587
780.424	2563
780.914	2584
781.405	2576
781.895	2568
782.386	2570
782.877	2555
783.367	2491
783.858	2472
784.349	2484
784.839	2465
785.33	2462
785.821	2444
786.312	2416
786.803	2418
787.293	2411
787.784	2372
788.275	2328
788.766	2290
789.257	2314
789.748	2267
790.24	2242
790.731	2263
791.222	2229
791.713	2221
792.204	2227
792.696	2178
793.187	2210
793.678	2188
794.169	2126
794.661	2145
795.152	2114
795.644	2093
796.135	2103
796.627	2110
797.118	2061
797.61	2038
798.101	2018
798.593	2039
799.085	2006
799.576	2011
800.068	1985
800.56	1996
801.052	1954
801.544	1948
802.035	1950
802.527	1919
803.019	1887
803.511	1875
804.003	1861
804.495	1871
804.987	1854
805.479	1807
805.971	1819
806.464	1831
806.956	1794
807.448	1784
807.94	1776
808.433	1761
808.925	1759
809.417	1735
809.91	1721
810.402	1672
810.894	1673
811.387	1683
811.879	1655
812.372	1674
812.865	1661
813.357	1645
813.85	1635
814.342	1618
814.835	1629
815.328	1617
815.821	1593
816.313	1588
816.806	1586
817.299	1576
817.792	1589
818.285	1560
818.778	1583
819.271	1590
819.764	1565
820.257	1571
820.75	1564
821.243	1561
821.736	1546
822.229	1558
822.722	1556
823.216	1594
