Data from lamp4bck_Subt2__6__506.txt Node

Date: Wed Apr 09 11:16:16 CEST 2025
User: fys-lab-0081
Spectrometer: S04999
Trigger mode: 0
Resolution mode: 1024 pixels
Integration Time (sec): 1.000000E-1
Scans to average: 1
Nonlinearity correction enabled: false
Boxcar width: 0
Baseline correction enabled: true
XAxis mode: Wavelengths
Number of Pixels in Spectrum: 1024
>>>>>Begin Spectral Data<<<<<
336.42	-1
336.877	5
337.334	2
337.792	2
338.249	4
338.706	1
339.164	-1
339.621	6
340.079	1
340.536	5
340.994	1
341.452	6
341.909	6
342.367	3
342.825	0
343.283	3
343.741	3
344.198	5
344.656	-1
345.114	0
345.572	5
346.03	4
346.488	7
346.947	4
347.405	6
347.863	0
348.321	2
348.779	6
349.238	1
349.696	7
350.154	4
350.613	7
351.071	7
351.53	9
351.988	9
352.447	2
352.905	2
353.364	4
353.823	7
354.282	3
354.74	-1
355.199	8
355.658	10
356.117	6
356.576	5
357.035	4
357.494	6
357.953	3
358.412	10
358.871	6
359.33	9
359.789	10
360.249	10
360.708	6
361.167	10
361.626	10
362.086	9
362.545	11
363.005	7
363.464	6
363.924	13
364.383	8
364.843	12
365.303	16
365.762	17
366.222	15
366.682	8
367.142	12
367.601	13
368.061	10
368.521	15
368.981	14
369.441	18
369.901	18
370.361	15
370.821	12
371.282	15
371.742	15
372.202	20
372.662	21
373.123	16
373.583	16
374.043	21
374.504	17
374.964	19
375.425	18
375.885	19
376.346	21
376.806	27
377.267	22
377.728	25
378.188	22
378.649	23
379.11	25
379.571	20
380.032	28
380.493	25
380.954	30
381.414	25
381.876	24
382.337	24
382.798	30
383.259	34
383.72	31
384.181	30
384.642	31
385.104	35
385.565	40
386.026	43
386.488	38
386.949	40
387.411	41
387.872	44
388.334	49
388.795	44
389.257	48
389.719	46
390.181	48
390.642	47
391.104	48
391.566	52
392.028	58
392.49	62
392.952	61
393.414	60
393.876	62
394.338	59
394.8	58
395.262	56
395.724	66
396.186	64
396.648	71
397.111	65
397.573	71
398.035	71
398.498	71
398.96	74
399.423	70
399.885	70
400.348	74
400.81	80
401.273	78
401.736	76
402.198	81
402.661	86
403.124	85
403.587	91
404.049	91.5
404.512	92
404.975	94
405.438	99
405.901	98
406.364	97
406.827	97
407.29	103
407.754	98
408.217	100
408.68	97
409.143	103
409.607	109
410.07	106
410.533	105
410.997	114
411.46	113
411.924	118
412.387	114
412.851	115
413.314	118
413.778	118
414.242	121
414.705	128
415.169	122
415.633	125
416.097	121
416.561	131
417.024	129
417.488	128
417.952	133
418.416	133
418.88	132
419.344	130
419.809	137
420.273	137
420.737	133
421.201	141
421.665	143
422.13	147
422.594	151
423.059	154
423.523	155
423.987	152
424.452	159
424.916	166
425.381	173
425.846	167
426.31	173
426.775	176
427.24	179
427.704	178
428.169	183
428.634	189
429.099	181
429.564	179
430.029	184
430.494	183
430.959	183
431.424	185
431.889	192
432.354	196
432.819	187
433.284	201
433.75	201
434.215	216
434.68	209
435.146	213
435.611	221
436.077	228
436.542	230
437.008	239
437.473	243
437.939	244
438.404	252
438.87	253
439.336	249
439.801	250
440.267	254
440.733	260
441.199	262
441.665	266
442.131	269
442.596	266
443.062	278
443.529	288
443.995	293
444.461	296
444.927	310
445.393	309
445.859	323
446.325	333
446.792	350
447.258	352
447.724	362
448.191	370
448.657	377
449.124	383
449.59	381
450.057	406
450.523	411
450.99	416
451.457	412
451.923	426
452.39	417
452.857	435
453.324	428
453.791	441
454.257	436
454.724	444
455.191	443
455.658	450
456.125	461
456.592	456
457.059	462
457.527	473
457.994	485
458.461	486
458.928	495
459.396	491
459.863	507
460.33	510
460.798	508
461.265	518
461.732	514
462.2	527
462.668	525
463.135	534
463.603	518
464.07	540
464.538	520
465.006	534
465.474	529
465.941	527
466.409	537
466.877	525
467.345	535
467.813	533
468.281	541
468.749	547
469.217	544
469.685	558
470.153	564
470.621	570
471.09	571
471.558	595
472.026	598
472.494	615
472.963	618
473.431	635
473.9	650
474.368	662
474.837	675
475.305	682
475.774	696
476.242	713
476.711	712
477.18	739
477.648	734
478.117	740
478.586	737
479.055	738
479.524	740
479.993	745
480.462	747
480.93	749
481.399	749
481.869	754
482.338	749
482.807	766
483.276	760
483.745	752
484.214	776
484.684	787
485.153	797
485.622	802
486.092	830
486.561	814
487.031	847
487.5	852
487.97	862
488.439	890
488.909	916
489.378	947
489.848	947
490.318	966
490.787	1015
491.257	1011
491.727	1016
492.197	1034
492.667	1039
493.137	1051
493.607	1056
494.077	1071
494.547	1052
495.017	1058
495.487	1075
495.957	1103
496.427	1078
496.897	1075
497.368	1099
497.838	1089
498.308	1100
498.779	1117
499.249	1121
499.719	1135
500.19	1144
500.66	1147
501.131	1160
501.602	1182
502.072	1183
502.543	1206
503.014	1250
503.484	1251
503.955	1287
504.426	1334
504.897	1345
505.368	1367
505.838	1402
506.309	1423
506.78	1469
507.251	1491
507.722	1525
508.194	1566
508.665	1586
509.136	1584
509.607	1640
510.078	1639
510.549	1648
511.021	1689
511.492	1695
511.964	1716
512.435	1744
512.906	1741
513.378	1758
513.849	1787
514.321	1784
514.793	1812
515.264	1838
515.736	1862
516.208	1901
516.679	1912
517.151	1939
517.623	1950
518.095	1973
518.567	1993
519.038	2029
519.51	2030
519.982	2045
520.454	2066
520.927	2104
521.399	2138
521.871	2163
522.343	2166
522.815	2190
523.287	2193
523.76	2220
524.232	2251
524.704	2268
525.177	2241
525.649	2243
526.122	2270
526.594	2222
527.067	2280
527.539	2312
528.012	2292
528.484	2289
528.957	2303
529.43	2292
529.903	2282
530.375	2361
530.848	2298
531.321	2338
531.794	2351
532.267	2413
532.74	2376
533.213	2367
533.686	2401
534.159	2395
534.632	2462
535.105	2487
535.578	2538
536.051	2547
536.525	2552
536.998	2543
537.471	2603
537.945	2560
538.418	2585
538.891	2587
539.365	2633
539.838	2655
540.312	2651
540.786	2662
541.259	2658
541.733	2716
542.206	2731
542.68	2685
543.154	2688
543.628	2711
544.101	2770
544.575	2733
545.049	2659
545.523	2708
545.997	2724
546.471	2732
546.945	2712
547.419	2746
547.893	2645
548.367	2705
548.842	2685
549.316	2698
549.79	2726
550.264	2693
550.739	2728
551.213	2724
551.687	2722
552.162	2745
552.636	2740
553.111	2745
553.585	2844
554.06	2803
554.534	2855
555.009	2838
555.484	2883
555.958	2915
556.433	2905
556.908	2949
557.383	2937
557.858	3008
558.333	3020
558.807	3007
559.282	3037
559.757	3120
560.232	3107
560.708	3057
561.183	3033
561.658	3089
562.133	3072
562.608	3048
563.083	3130
563.559	3073
564.034	3085
564.509	3089
564.985	3083
565.46	3039
565.936	3110
566.411	3112
566.887	3077
567.362	3113
567.838	3114
568.313	3154
568.789	3099
569.265	3085
569.74	3125
570.216	3105
570.692	3155
571.168	3151
571.644	3159
572.12	3178
572.596	3215
573.071	3206
573.547	3314
574.024	3357
574.5	3366
574.976	3368
575.452	3429
575.928	3453
576.404	3475
576.881	3589
577.357	3534
577.833	3555
578.31	3655
578.786	3686
579.262	3724
579.739	3673
580.215	3788
580.692	3791
581.169	3766
581.645	3767
582.122	3874
582.598	3888
583.075	3913
583.552	3936
584.029	3914
584.506	3872
584.982	3844
585.459	3941
585.936	3882
586.413	3937
586.89	4003
587.367	3958
587.844	4004
588.321	3971
588.799	3997
589.276	3969
589.753	4048
590.23	4055
590.707	4034
591.185	4040
591.662	4057
592.139	4096
592.617	4140
593.094	4120
593.572	4163
594.049	4220
594.527	4279
595.004	4289
595.482	4398
595.96	4414
596.437	4412
596.915	4498
597.393	4406
597.871	4509
598.349	4487
598.826	4582
599.304	4584
599.782	4671
600.26	4623
600.738	4736
601.216	4694
601.694	4717
602.173	4746
602.651	4751
603.129	4689
603.607	4719
604.085	4755
604.564	4758
605.042	4762
605.52	4733
605.999	4855
606.477	4716
606.956	4712
607.434	4771
607.913	4830
608.391	4810
608.87	4810
609.348	4720
609.827	4733
610.306	4759
610.785	4799
611.263	4822
611.742	4792
612.221	4735
612.7	4790
613.179	4807
613.658	4761
614.137	4838
614.616	4873
615.095	4788
615.574	4837
616.053	4867
616.532	4820
617.011	4848
617.491	4896
617.97	4857
618.449	4901
618.928	4925
619.408	4894
619.887	4957
620.367	4966
620.846	5033
621.326	4992
621.805	5115
622.285	5104
622.764	5145
623.244	5135
623.724	5158
624.203	5205
624.683	5170
625.163	5272
625.643	5271
626.123	5247
626.602	5373
627.082	5276
627.562	5249
628.042	5340
628.522	5263
629.002	5168
629.482	5226
629.963	5262
630.443	5230
630.923	5261
631.403	5277
631.883	5219
632.364	5236
632.844	5211
633.324	5249
633.805	5272
634.285	5183
634.766	5135
635.246	5135
635.727	5120
636.207	5121
636.688	5127
637.168	5115
637.649	5053
638.13	5016
638.611	5089
639.091	5099
639.572	5103
640.053	5103
640.534	5166
641.015	5177
641.496	5074
641.977	5158
642.458	5103
642.939	5124
643.42	5128
643.901	5121
644.382	5152
644.863	5113
645.345	5099
645.826	5087
646.307	5092
646.788	5171
647.27	5071
647.751	5073
648.233	5106
648.714	4979
649.196	5118
649.677	5087
650.159	5088
650.64	5031
651.122	5118
651.603	5028
652.085	5078
652.567	5103
653.049	5057
653.53	5039
654.012	5119
654.494	5052
654.976	5159
655.458	5144
655.94	5120
656.422	5205
656.904	5113
657.386	5051
657.868	5081
658.35	5078
658.833	5120
659.315	5126
659.797	5035
660.279	4983
660.762	5010
661.244	4967
661.726	4911
662.209	4896
662.691	4897
663.174	4805
663.656	4847
664.139	4841
664.621	4766
665.104	4720
665.587	4743
666.069	4785
666.552	4784
667.035	4703
667.517	4715
668	4768
668.483	4760
668.966	4714
669.449	4708
669.932	4712
670.415	4775
670.898	4746
671.381	4764
671.864	4776
672.347	4725
672.83	4757
673.313	4753
673.797	4737
674.28	4830
674.763	4845
675.247	4857
675.73	4812
676.213	4843
676.697	4868
677.18	4888
677.664	4896
678.147	4883
678.631	4903
679.114	4918
679.598	4896
680.082	4931
680.565	4885
681.049	4852
681.533	4850
682.017	4887
682.5	4887
682.984	4900
683.468	4884
683.952	4785
684.436	4885
684.92	4800
685.404	4812
685.888	4849
686.372	4810
686.856	4830
687.341	4883
687.825	4829
688.309	4876
688.793	4913
689.278	4813
689.762	4843
690.246	4807
690.731	4827
691.215	4877
691.7	4792
692.184	4849
692.669	4824
693.153	4819
693.638	4722
694.122	4727
694.607	4793
695.092	4720
695.577	4768
696.061	4673
696.546	4663
697.031	4616
697.516	4621
698.001	4599
698.486	4575
698.971	4592
699.456	4488
699.941	4506
700.426	4504
700.911	4560
701.396	4531
701.881	4531
702.366	4457
702.852	4427
703.337	4452
703.822	4458
704.308	4479
704.793	4521
705.278	4537
705.764	4556
706.249	4528
706.735	4526
707.22	4553
707.706	4511
708.191	4591
708.677	4580
709.163	4519
709.648	4553
710.134	4617
710.62	4572
711.106	4586
711.592	4645
712.077	4610
712.563	4518
713.049	4508
713.535	4601
714.021	4563
714.507	4532
714.993	4478
715.479	4509
715.966	4427
716.452	4435
716.938	4427
717.424	4281
717.91	4359
718.397	4314
718.883	4269
719.369	4289
719.856	4252
720.342	4335
720.829	4270
721.315	4293
721.802	4263
722.288	4305
722.775	4148
723.262	4033
723.748	4196
724.235	4164
724.722	4206
725.208	4103
725.695	4089
726.182	4092
726.669	4045
727.156	4072
727.643	4009
728.13	4018
728.617	4003
729.104	4024
729.591	3992
730.078	4026
730.565	4041
731.052	3990
731.539	4012
732.027	3967
732.514	3882
733.001	3930
733.488	3888
733.976	3903
734.463	3873
734.951	3854
735.438	3884
735.926	3833
736.413	3851
736.901	3826
737.388	3873
737.876	3854
738.364	3814
738.851	3817
739.339	3821
739.827	3841
740.314	3732
740.802	3749
741.29	3753
741.778	3709
742.266	3718
742.754	3710
743.242	3747
743.73	3683
744.218	3698
744.706	3646
745.194	3659
745.682	3619
746.17	3615
746.659	3625
747.147	3542
747.635	3565
748.123	3548
748.612	3499
749.1	3482
749.589	3521
750.077	3524
750.566	3517
751.054	3544
751.543	3555
752.031	3456
752.52	3460
753.008	3384
753.497	3393
753.986	3373
754.474	3349
754.963	3370
755.452	3307
755.941	3300
756.43	3309
756.919	3286
757.408	3242
757.896	3237
758.385	3242
758.875	3206
759.364	3190
759.853	3150
760.342	3098
760.831	3176
761.32	3141
761.809	3096
762.299	3107
762.788	3093
763.277	3069
763.767	3010
764.256	3019
764.745	3004
765.235	3057
765.724	2958
766.214	2993
766.703	2946
767.193	2883
767.683	2885
768.172	2831
768.662	2861
769.152	2831
769.641	2843
770.131	2769
770.621	2829
771.111	2783
771.601	2784
772.09	2773
772.58	2743
773.07	2755
773.56	2765
774.05	2704
774.54	2700
775.031	2688
775.521	2679
776.011	2691
776.501	2713
776.991	2646
777.482	2651
777.972	2582
778.462	2585
778.953	2601
779.443	2574
779.933	2555
780.424	2533
780.914	2557
781.405	2564
781.895	2545
782.386	2546
782.877	2529
783.367	2470
783.858	2448
784.349	2460
784.839	2451
785.33	2446
785.821	2414
786.312	2387
786.803	2398
787.293	2388
787.784	2343
788.275	2301
788.766	2268
789.257	2288
789.748	2240
790.24	2229
790.731	2240
791.222	2199
791.713	2193
792.204	2204
792.696	2156
793.187	2186
793.678	2174
794.169	2100
794.661	2120
795.152	2098
795.644	2074
796.135	2086
796.627	2091
797.118	2048
797.61	2017
798.101	1992
798.593	2016
799.085	1981
799.576	1991
800.068	1970
800.56	1977
801.052	1927
801.544	1931
802.035	1929
802.527	1905
803.019	1875
803.511	1863
804.003	1838
804.495	1847
804.987	1838
805.479	1796
805.971	1805
806.464	1815
806.956	1776
807.448	1766
807.94	1759
808.433	1747
808.925	1744
809.417	1726
809.91	1708
810.402	1652
810.894	1661
811.387	1667
811.879	1639
812.372	1657
812.865	1647
813.357	1630
813.85	1617
814.342	1605
814.835	1608
815.328	1598
815.821	1581
816.313	1575
816.806	1575
817.299	1565
817.792	1580
818.285	1539
818.778	1570
819.271	1581
819.764	1553
820.257	1558
820.75	1546
821.243	1547
821.736	1532
822.229	1545
822.722	1537
823.216	1580
