Data from lamp4bck_Subt4__22__84.txt Node

Date: Wed Apr 09 09:37:18 CEST 2025
User: fys-lab-0081
Spectrometer: S04999
Trigger mode: 0
Resolution mode: 1024 pixels
Integration Time (sec): 1.000000E-1
Scans to average: 1
Nonlinearity correction enabled: false
Boxcar width: 0
Baseline correction enabled: true
XAxis mode: Wavelengths
Number of Pixels in Spectrum: 1024
>>>>>Begin Spectral Data<<<<<
336.42	4
336.877	4
337.334	3
337.792	1
338.249	10
338.706	5
339.164	3
339.621	4
340.079	8
340.536	11
340.994	10
341.452	3
341.909	7
342.367	2
342.825	3
343.283	7
343.741	2
344.198	5
344.656	6
345.114	4
345.572	5
346.03	7
346.488	11
346.947	5
347.405	8
347.863	5
348.321	12
348.779	7
349.238	7
349.696	4
350.154	8
350.613	11
351.071	11
351.53	14
351.988	9
352.447	8
352.905	11
353.364	6
353.823	12
354.282	10
354.74	7
355.199	13
355.658	16
356.117	15
356.576	13
357.035	11
357.494	17
357.953	18
358.412	18
358.871	10
359.33	17
359.789	20
360.249	9
360.708	18
361.167	19
361.626	20
362.086	15
362.545	21
363.005	24
363.464	16
363.924	20
364.383	22
364.843	14
365.303	24
365.762	22
366.222	23
366.682	29
367.142	24
367.601	25
368.061	23
368.521	30
368.981	25
369.441	28
369.901	32
370.361	30
370.821	28
371.282	29
371.742	33
372.202	35
372.662	33
373.123	32
373.583	34
374.043	33
374.504	28
374.964	38
375.425	33
375.885	36
376.346	39
376.806	39
377.267	38
377.728	44
378.188	46
378.649	44
379.11	45
379.571	42
380.032	47
380.493	46
380.954	50
381.414	45
381.876	53
382.337	58
382.798	62
383.259	59
383.72	59
384.181	65
384.642	61
385.104	69
385.565	78
386.026	73
386.488	75
386.949	73
387.411	75
387.872	79
388.334	85
388.795	85
389.257	89
389.719	91
390.181	84
390.642	95
391.104	93
391.566	90
392.028	100
392.49	100
392.952	103
393.414	104
393.876	104
394.338	111
394.8	112
395.262	117
395.724	116
396.186	120
396.648	120
397.111	124
397.573	127
398.035	129
398.498	126
398.96	125
399.423	134
399.885	141
400.348	139
400.81	149
401.273	147
401.736	145
402.198	151
402.661	157
403.124	158
403.587	161
404.049	167.5
404.512	174
404.975	175
405.438	172
405.901	176
406.364	179
406.827	181
407.29	186
407.754	184
408.217	182
408.68	177
409.143	185
409.607	189
410.07	193
410.533	190
410.997	198
411.46	195
411.924	202
412.387	206
412.851	211
413.314	218
413.778	217
414.242	227
414.705	226
415.169	230
415.633	233
416.097	233
416.561	232
417.024	239
417.488	237
417.952	240
418.416	248
418.88	241
419.344	241
419.809	239
420.273	252
420.737	247
421.201	244
421.665	258
422.13	253
422.594	265
423.059	269
423.523	276
423.987	281
424.452	288
424.916	300
425.381	300
425.846	305
426.31	306
426.775	308
427.24	322
427.704	312
428.169	322
428.634	320
429.099	316
429.564	314
430.029	325
430.494	323
430.959	329
431.424	320
431.889	332
432.354	339
432.819	332
433.284	346
433.75	349
434.215	366
434.68	370
435.146	375
435.611	390
436.077	402
436.542	413
437.008	421
437.473	423
437.939	427
438.404	442
438.87	450
439.336	439
439.801	434
440.267	449
440.733	460
441.199	456
441.665	453
442.131	477
442.596	465
443.062	475
443.529	490
443.995	498
444.461	508
444.927	539
445.393	536
445.859	560
446.325	566
446.792	600
447.258	596
447.724	614
448.191	640
448.657	647
449.124	670
449.59	658
450.057	701
450.523	705
450.99	723
451.457	710
451.923	725
452.39	722
452.857	732
453.324	722
453.791	737
454.257	744
454.724	754
455.191	761
455.658	746
456.125	774
456.592	766
457.059	786
457.527	797
457.994	827
458.461	823
458.928	841
459.396	837
459.863	864
460.33	857
460.798	858
461.265	873
461.732	865
462.2	884
462.668	881
463.135	906
463.603	874
464.07	891
464.538	873
465.006	902
465.474	883
465.941	889
466.409	904
466.877	886
467.345	916
467.813	904
468.281	910
468.749	911
469.217	908
469.685	919
470.153	933
470.621	935
471.09	940
471.558	981
472.026	979
472.494	1010
472.963	1021
473.431	1053
473.9	1077
474.368	1109
474.837	1127
475.305	1147
475.774	1166
476.242	1196
476.711	1190
477.18	1223
477.648	1213
478.117	1228
478.586	1215
479.055	1210
479.524	1220
479.993	1217
480.462	1215
480.93	1232
481.399	1238
481.869	1245
482.338	1239
482.807	1254
483.276	1247
483.745	1247
484.214	1279
484.684	1294
485.153	1295
485.622	1302
486.092	1346
486.561	1319
487.031	1352
487.5	1382
487.97	1390
488.439	1427
488.909	1473
489.378	1520
489.848	1517
490.318	1566
490.787	1632
491.257	1659
491.727	1677
492.197	1712
492.667	1705
493.137	1726
493.607	1744
494.077	1758
494.547	1725
495.017	1719
495.487	1750
495.957	1773
496.427	1736
496.897	1756
497.368	1772
497.838	1757
498.308	1783
498.779	1793
499.249	1809
499.719	1820
500.19	1857
500.66	1868
501.131	1892
501.602	1932
502.072	1946
502.543	1952
503.014	2026
503.484	2018
503.955	2069
504.426	2136
504.897	2150
505.368	2194
505.838	2211
506.309	2269
506.78	2349
507.251	2381
507.722	2414
508.194	2496
508.665	2542
509.136	2522
509.607	2608
510.078	2654
510.549	2655
511.021	2718
511.492	2732
511.964	2773
512.435	2819
512.906	2802
513.378	2828
513.849	2873
514.321	2871
514.793	2900
515.264	2934
515.736	2951
516.208	2998
516.679	3026
517.151	3060
517.623	3073
518.095	3123
518.567	3152
519.038	3219
519.51	3206
519.982	3261
520.454	3324
520.927	3361
521.399	3390
521.871	3442
522.343	3463
522.815	3517
523.287	3502
523.76	3519
524.232	3566
524.704	3576
525.177	3532
525.649	3556
526.122	3608
526.594	3515
527.067	3600
527.539	3652
528.012	3625
528.484	3618
528.957	3648
529.43	3661
529.903	3630
530.375	3748
530.848	3660
531.321	3712
531.794	3727
532.267	3809
532.74	3757
533.213	3773
533.686	3824
534.159	3792
534.632	3857
535.105	3861
535.578	3936
536.051	3936
536.525	3939
536.998	3961
537.471	4057
537.945	3988
538.418	4052
538.891	4084
539.365	4131
539.838	4155
540.312	4160
540.786	4199
541.259	4174
541.733	4220
542.206	4227
542.68	4188
543.154	4189
543.628	4171
544.101	4293
544.575	4277
545.049	4192
545.523	4246
545.997	4216
546.471	4282
546.945	4245
547.419	4288
547.893	4137
548.367	4210
548.842	4189
549.316	4199
549.79	4207
550.264	4185
550.739	4244
551.213	4217
551.687	4227
552.162	4293
552.636	4276
553.111	4237
553.585	4339
554.06	4286
554.534	4378
555.009	4336
555.484	4396
555.958	4451
556.433	4478
556.908	4545
557.383	4480
557.858	4605
558.333	4648
558.807	4609
559.282	4618
559.757	4730
560.232	4767
560.708	4711
561.183	4675
561.658	4734
562.133	4728
562.608	4715
563.083	4820
563.559	4696
564.034	4749
564.509	4751
564.985	4766
565.46	4687
565.936	4764
566.411	4766
566.887	4717
567.362	4750
567.838	4740
568.313	4829
568.789	4763
569.265	4744
569.74	4759
570.216	4718
570.692	4842
571.168	4886
571.644	4853
572.12	4830
572.596	4860
573.071	4866
573.547	4971
574.024	4979
574.5	5022
574.976	5059
575.452	5146
575.928	5184
576.404	5210
576.881	5395
577.357	5332
577.833	5362
578.31	5457
578.786	5498
579.262	5627
579.739	5592
580.215	5722
580.692	5687
581.169	5662
581.645	5713
582.122	5890
582.598	5850
583.075	5821
583.552	5899
584.029	5914
584.506	5878
584.982	5834
585.459	5956
585.936	5905
586.413	5961
586.89	6034
587.367	5934
587.844	6028
588.321	6013
588.799	6034
589.276	5928
589.753	5982
590.23	6029
590.707	6031
591.185	6017
591.662	5985
592.139	6009
592.617	6131
593.094	6167
593.572	6217
594.049	6252
594.527	6266
595.004	6309
595.482	6520
595.96	6460
596.437	6473
596.915	6637
597.393	6603
597.871	6810
598.349	6689
598.826	6792
599.304	6816
599.782	6946
600.26	6877
600.738	6969
601.216	6898
601.694	6964
602.173	7032
602.651	7049
603.129	6953
603.607	7014
604.085	7038
604.564	7058
605.042	7055
605.52	6986
605.999	7162
606.477	7000
606.956	7037
607.434	7080
607.913	7123
608.391	7105
608.87	7144
609.348	7102
609.827	7134
610.306	7158
610.785	7146
611.263	7194
611.742	7205
612.221	7107
612.7	7186
613.179	7216
613.658	7133
614.137	7288
614.616	7341
615.095	7148
615.574	7209
616.053	7260
616.532	7263
617.011	7309
617.491	7308
617.97	7247
618.449	7320
618.928	7361
619.408	7289
619.887	7347
620.367	7364
620.846	7478
621.326	7423
621.805	7597
622.285	7552
622.764	7566
623.244	7539
623.724	7585
624.203	7649
624.683	7545
625.163	7726
625.643	7734
626.123	7699
626.602	7937
627.082	7781
627.562	7735
628.042	7903
628.522	7868
629.002	7847
629.482	7886
629.963	7856
630.443	7792
630.923	7813
631.403	7848
631.883	7787
632.364	7789
632.844	7712
633.324	7692
633.805	7696
634.285	7617
634.766	7576
635.246	7603
635.727	7578
636.207	7573
636.688	7574
637.168	7568
637.649	7517
638.13	7478
638.611	7558
639.091	7614
639.572	7610
640.053	7544
640.534	7589
641.015	7545
641.496	7418
641.977	7628
642.458	7613
642.939	7665
643.42	7697
643.901	7702
644.382	7730
644.863	7717
645.345	7718
645.826	7722
646.307	7701
646.788	7773
647.27	7657
647.751	7713
648.233	7804
648.714	7620
649.196	7775
649.677	7719
650.159	7714
650.64	7621
651.122	7749
651.603	7624
652.085	7650
652.567	7664
653.049	7603
653.53	7634
654.012	7726
654.494	7574
654.976	7652
655.458	7625
655.94	7637
656.422	7783
656.904	7722
657.386	7654
657.868	7651
658.35	7641
658.833	7713
659.315	7772
659.797	7666
660.279	7669
660.762	7767
661.244	7707
661.726	7600
662.209	7572
662.691	7530
663.174	7348
663.656	7394
664.139	7428
664.621	7384
665.104	7330
665.587	7386
666.069	7390
666.552	7343
667.035	7265
667.517	7294
668	7332
668.483	7276
668.966	7185
669.449	7158
669.932	7178
670.415	7248
670.898	7163
671.381	7191
671.864	7218
672.347	7165
672.83	7201
673.313	7271
673.797	7273
674.28	7387
674.763	7383
675.247	7404
675.73	7360
676.213	7454
676.697	7522
677.18	7538
677.664	7582
678.147	7624
678.631	7659
679.114	7718
679.598	7698
680.082	7697
680.565	7650
681.049	7613
681.533	7634
682.017	7767
682.5	7783
682.984	7820
683.468	7761
683.952	7575
684.436	7659
684.92	7553
685.404	7557
685.888	7556
686.372	7478
686.856	7499
687.341	7593
687.825	7515
688.309	7550
688.793	7580
689.278	7475
689.762	7582
690.246	7540
690.731	7578
691.215	7555
691.7	7370
692.184	7483
692.669	7531
693.153	7590
693.638	7490
694.122	7506
694.607	7581
695.092	7459
695.577	7575
696.061	7460
696.546	7489
697.031	7499
697.516	7583
698.001	7592
698.486	7564
698.971	7668
699.456	7501
699.941	7491
700.426	7456
700.911	7473
701.396	7362
701.881	7367
702.366	7336
702.852	7330
703.337	7367
703.822	7320
704.308	7263
704.793	7263
705.278	7275
705.764	7316
706.249	7265
706.735	7273
707.22	7378
707.706	7237
708.191	7344
708.677	7339
709.163	7299
709.648	7379
710.134	7458
710.62	7370
711.106	7385
711.592	7494
712.077	7507
712.563	7361
713.049	7368
713.535	7484
714.021	7432
714.507	7419
714.993	7346
715.479	7437
715.966	7382
716.452	7393
716.938	7413
717.424	7204
717.91	7347
718.397	7272
718.883	7224
719.369	7230
719.856	7153
720.342	7242
720.829	7128
721.315	7139
721.802	7113
722.288	7209
722.775	6958
723.262	6742
723.748	6993
724.235	6930
724.722	7033
725.208	6921
725.695	6930
726.182	6921
726.669	6814
727.156	6807
727.643	6679
728.13	6670
728.617	6644
729.104	6673
729.591	6657
730.078	6752
730.565	6795
731.052	6685
731.539	6708
732.027	6644
732.514	6580
733.001	6633
733.488	6619
733.976	6642
734.463	6652
734.951	6626
735.438	6723
735.926	6676
736.413	6733
736.901	6699
737.388	6790
737.876	6754
738.364	6707
738.851	6724
739.339	6656
739.827	6697
740.314	6495
740.802	6565
741.29	6608
741.778	6531
742.266	6529
742.754	6500
743.242	6542
743.73	6414
744.218	6413
744.706	6339
745.194	6367
745.682	6299
746.17	6305
746.659	6328
747.147	6168
747.635	6208
748.123	6217
748.612	6178
749.1	6134
749.589	6194
750.077	6130
750.566	6096
751.054	6136
751.543	6165
752.031	6066
752.52	6084
753.008	5963
753.497	5976
753.986	5976
754.474	5962
754.963	6016
755.452	5909
755.941	5897
756.43	5894
756.919	5881
757.408	5867
757.896	5907
758.385	5932
758.875	5866
759.364	5823
759.853	5769
760.342	5657
760.831	5765
761.32	5687
761.809	5593
762.299	5633
762.788	5638
763.277	5605
763.767	5493
764.256	5493
764.745	5420
765.235	5527
765.724	5384
766.214	5456
766.703	5419
767.193	5336
767.683	5348
768.172	5256
768.662	5318
769.152	5305
769.641	5300
770.131	5158
770.621	5217
771.111	5155
771.601	5151
772.09	5101
772.58	5041
773.07	5053
773.56	5099
774.05	4980
774.54	4960
775.031	4937
775.521	4930
776.011	4945
776.501	5031
776.991	4958
777.482	5006
777.972	4872
778.462	4866
778.953	4902
779.443	4867
779.933	4847
780.424	4782
780.914	4825
781.405	4841
781.895	4807
782.386	4817
782.877	4791
783.367	4699
783.858	4673
784.349	4679
784.839	4652
785.33	4664
785.821	4605
786.312	4534
786.803	4541
787.293	4535
787.784	4466
788.275	4426
788.766	4395
789.257	4486
789.748	4396
790.24	4357
790.731	4392
791.222	4332
791.713	4294
792.204	4289
792.696	4159
793.187	4213
793.678	4188
794.169	4059
794.661	4131
795.152	4091
795.644	4061
796.135	4035
796.627	4060
797.118	3993
797.61	3962
798.101	3909
798.593	3965
799.085	3893
799.576	3909
800.068	3852
800.56	3862
801.052	3785
801.544	3793
802.035	3802
802.527	3731
803.019	3691
803.511	3660
804.003	3625
804.495	3655
804.987	3615
805.479	3532
805.971	3563
806.464	3576
806.956	3507
807.448	3509
807.94	3537
808.433	3515
808.925	3485
809.417	3441
809.91	3437
810.402	3356
810.894	3393
811.387	3417
811.879	3363
812.372	3391
812.865	3353
813.357	3366
813.85	3332
814.342	3330
814.835	3327
815.328	3315
815.821	3271
816.313	3272
816.806	3273
817.299	3236
817.792	3261
818.285	3242
818.778	3288
819.271	3284
819.764	3216
820.257	3208
820.75	3183
821.243	3170
821.736	3136
822.229	3179
822.722	3191
823.216	3248
