Data from lamp4bck_Subt2__33__533.txt Node

Date: Wed Apr 09 11:16:20 CEST 2025
User: fys-lab-0081
Spectrometer: S04999
Trigger mode: 0
Resolution mode: 1024 pixels
Integration Time (sec): 1.000000E-1
Scans to average: 1
Nonlinearity correction enabled: false
Boxcar width: 0
Baseline correction enabled: true
XAxis mode: Wavelengths
Number of Pixels in Spectrum: 1024
>>>>>Begin Spectral Data<<<<<
336.42	1
336.877	5
337.334	1
337.792	1
338.249	6
338.706	7
339.164	0
339.621	1
340.079	5
340.536	4
340.994	5
341.452	11
341.909	4
342.367	4
342.825	-1
343.283	6
343.741	5
344.198	9
344.656	0
345.114	2
345.572	8
346.03	4
346.488	5
346.947	4
347.405	6
347.863	1
348.321	4
348.779	10
349.238	6
349.696	6
350.154	0
350.613	5
351.071	1
351.53	10
351.988	9
352.447	5
352.905	3
353.364	3
353.823	7
354.282	6
354.74	1
355.199	8
355.658	12
356.117	7
356.576	9
357.035	5
357.494	9
357.953	6
358.412	10
358.871	11
359.33	8
359.789	6
360.249	9
360.708	8
361.167	12
361.626	11
362.086	8
362.545	11
363.005	10
363.464	12
363.924	9
364.383	6
364.843	10
365.303	13
365.762	17
366.222	15
366.682	11
367.142	7
367.601	11
368.061	12
368.521	13
368.981	10
369.441	20
369.901	19
370.361	12
370.821	14
371.282	14
371.742	20
372.202	16
372.662	19
373.123	19
373.583	20
374.043	21
374.504	16
374.964	18
375.425	20
375.885	18
376.346	22
376.806	27
377.267	22
377.728	26
378.188	26
378.649	18
379.11	23
379.571	19
380.032	28
380.493	26
380.954	29
381.414	28
381.876	29
382.337	30
382.798	34
383.259	30
383.72	35
384.181	30
384.642	34
385.104	36
385.565	38
386.026	39
386.488	36
386.949	37
387.411	41
387.872	48
388.334	47
388.795	50
389.257	49
389.719	43
390.181	45
390.642	47
391.104	51
391.566	52
392.028	57
392.49	61
392.952	59
393.414	61
393.876	67
394.338	57
394.8	56
395.262	56
395.724	68
396.186	67
396.648	67
397.111	68
397.573	73
398.035	67
398.498	71
398.96	73
399.423	73
399.885	71
400.348	79
400.81	78
401.273	77
401.736	78
402.198	87
402.661	92
403.124	84
403.587	96
404.049	95
404.512	94
404.975	94
405.438	93
405.901	98
406.364	98
406.827	102
407.29	103
407.754	96
408.217	103
408.68	100
409.143	107
409.607	112
410.07	110
410.533	105
410.997	110
411.46	112
411.924	118
412.387	115
412.851	120
413.314	118
413.778	120
414.242	122
414.705	129
415.169	128
415.633	126
416.097	128
416.561	128
417.024	130
417.488	132
417.952	141
418.416	131
418.88	132
419.344	132
419.809	138
420.273	138
420.737	137
421.201	140
421.665	148
422.13	151
422.594	155
423.059	153
423.523	156
423.987	154
424.452	165
424.916	163
425.381	169
425.846	167
426.31	178
426.775	180
427.24	181
427.704	179
428.169	186
428.634	185
429.099	182
429.564	182
430.029	186
430.494	184
430.959	187
431.424	185
431.889	200
432.354	201
432.819	194
433.284	204
433.75	206
434.215	212
434.68	211
435.146	211
435.611	226
436.077	229
436.542	230
437.008	243
437.473	245
437.939	242
438.404	251
438.87	259
439.336	257
439.801	249
440.267	259
440.733	268
441.199	262
441.665	269
442.131	277
442.596	271
443.062	283
443.529	294
443.995	297
444.461	297
444.927	313
445.393	313
445.859	322
446.325	332
446.792	356
447.258	352
447.724	361
448.191	381
448.657	383
449.124	388
449.59	387
450.057	416
450.523	414
450.99	427
451.457	419
451.923	428
452.39	424
452.857	440
453.324	433
453.791	442
454.257	442
454.724	448
455.191	453
455.658	450
456.125	467
456.592	458
457.059	468
457.527	474
457.994	488
458.461	490
458.928	502
459.396	498
459.863	512
460.33	509
460.798	512
461.265	521
461.732	524
462.2	533
462.668	529
463.135	537
463.603	521
464.07	546
464.538	529
465.006	542
465.474	531
465.941	543
466.409	546
466.877	532
467.345	546
467.813	544
468.281	546
468.749	555
469.217	551
469.685	562
470.153	571
470.621	577
471.09	578
471.558	597
472.026	605
472.494	621
472.963	625
473.431	638
473.9	660
474.368	670
474.837	684
475.305	688
475.774	699
476.242	721
476.711	721
477.18	742
477.648	742
478.117	743
478.586	745
479.055	746
479.524	748
479.993	750
480.462	753
480.93	760
481.399	753
481.869	768
482.338	755
482.807	768
483.276	760
483.745	762
484.214	786
484.684	801
485.153	803
485.622	812
486.092	835
486.561	822
487.031	850
487.5	865
487.97	877
488.439	902
488.909	922
489.378	955
489.848	957
490.318	972
490.787	1017
491.257	1022
491.727	1028
492.197	1046
492.667	1044
493.137	1060
493.607	1071
494.077	1080
494.547	1068
495.017	1068
495.487	1087
495.957	1108
496.427	1084
496.897	1090
497.368	1106
497.838	1099
498.308	1119
498.779	1124
499.249	1131
499.719	1144
500.19	1154
500.66	1161
501.131	1170
501.602	1199
502.072	1195
502.543	1218
503.014	1264
503.484	1265
503.955	1301
504.426	1352
504.897	1350
505.368	1384
505.838	1416
506.309	1437
506.78	1483
507.251	1510
507.722	1541
508.194	1580
508.665	1609
509.136	1594
509.607	1653
510.078	1657
510.549	1663
511.021	1701
511.492	1711
511.964	1736
512.435	1764
512.906	1759
513.378	1780
513.849	1809
514.321	1813
514.793	1828
515.264	1859
515.736	1880
516.208	1917
516.679	1942
517.151	1953
517.623	1966
518.095	2000
518.567	2008
519.038	2051
519.51	2049
519.982	2070
520.454	2078
520.927	2115
521.399	2165
521.871	2181
522.343	2180
522.815	2201
523.287	2218
523.76	2248
524.232	2278
524.704	2289
525.177	2253
525.649	2265
526.122	2290
526.594	2253
527.067	2306
527.539	2330
528.012	2312
528.484	2309
528.957	2334
529.43	2316
529.903	2303
530.375	2372
530.848	2325
531.321	2366
531.794	2370
532.267	2435
532.74	2401
533.213	2388
533.686	2432
534.159	2426
534.632	2488
535.105	2514
535.578	2572
536.051	2574
536.525	2575
536.998	2571
537.471	2627
537.945	2587
538.418	2624
538.891	2611
539.365	2671
539.838	2686
540.312	2683
540.786	2694
541.259	2686
541.733	2747
542.206	2759
542.68	2713
543.154	2714
543.628	2733
544.101	2798
544.575	2755
545.049	2689
545.523	2739
545.997	2755
546.471	2766
546.945	2740
547.419	2777
547.893	2680
548.367	2730
548.842	2709
549.316	2728
549.79	2747
550.264	2718
550.739	2756
551.213	2752
551.687	2748
552.162	2786
552.636	2772
553.111	2776
553.585	2869
554.06	2843
554.534	2887
555.009	2871
555.484	2911
555.958	2940
556.433	2943
556.908	2978
557.383	2973
557.858	3050
558.333	3051
558.807	3042
559.282	3073
559.757	3146
560.232	3141
560.708	3088
561.183	3075
561.658	3124
562.133	3105
562.608	3072
563.083	3154
563.559	3107
564.034	3125
564.509	3114
564.985	3112
565.46	3073
565.936	3141
566.411	3142
566.887	3105
567.362	3140
567.838	3144
568.313	3190
568.789	3121
569.265	3119
569.74	3152
570.216	3136
570.692	3188
571.168	3182
571.644	3189
572.12	3204
572.596	3250
573.071	3248
573.547	3354
574.024	3387
574.5	3403
574.976	3416
575.452	3461
575.928	3485
576.404	3505
576.881	3625
577.357	3570
577.833	3587
578.31	3683
578.786	3724
579.262	3760
579.739	3704
580.215	3817
580.692	3828
581.169	3793
581.645	3809
582.122	3916
582.598	3923
583.075	3954
583.552	3970
584.029	3950
584.506	3911
584.982	3877
585.459	3986
585.936	3921
586.413	3970
586.89	4041
587.367	3988
587.844	4051
588.321	4003
588.799	4042
589.276	4010
589.753	4069
590.23	4094
590.707	4061
591.185	4084
591.662	4090
592.139	4144
592.617	4180
593.094	4155
593.572	4209
594.049	4267
594.527	4322
595.004	4327
595.482	4455
595.96	4450
596.437	4453
596.915	4544
597.393	4447
597.871	4564
598.349	4530
598.826	4629
599.304	4630
599.782	4719
600.26	4670
600.738	4773
601.216	4752
601.694	4773
602.173	4776
602.651	4797
603.129	4739
603.607	4779
604.085	4798
604.564	4809
605.042	4817
605.52	4781
605.999	4913
606.477	4773
606.956	4757
607.434	4818
607.913	4879
608.391	4862
608.87	4855
609.348	4768
609.827	4772
610.306	4811
610.785	4847
611.263	4861
611.742	4824
612.221	4782
612.7	4833
613.179	4865
613.658	4813
614.137	4882
614.616	4917
615.095	4834
615.574	4887
616.053	4913
616.532	4872
617.011	4898
617.491	4946
617.97	4906
618.449	4936
618.928	4968
619.408	4947
619.887	5011
620.367	5018
620.846	5080
621.326	5038
621.805	5172
622.285	5148
622.764	5186
623.244	5190
623.724	5210
624.203	5251
624.683	5207
625.163	5331
625.643	5329
626.123	5300
626.602	5431
627.082	5321
627.562	5303
628.042	5387
628.522	5314
629.002	5233
629.482	5276
629.963	5299
630.443	5278
630.923	5316
631.403	5325
631.883	5262
632.364	5284
632.844	5254
633.324	5303
633.805	5331
634.285	5229
634.766	5181
635.246	5188
635.727	5165
636.207	5157
636.688	5163
637.168	5159
637.649	5097
638.13	5067
638.611	5126
639.091	5150
639.572	5155
640.053	5150
640.534	5215
641.015	5221
641.496	5133
641.977	5206
642.458	5165
642.939	5176
643.42	5182
643.901	5177
644.382	5218
644.863	5169
645.345	5154
645.826	5148
646.307	5142
646.788	5234
647.27	5133
647.751	5128
648.233	5151
648.714	5029
649.196	5172
649.677	5145
650.159	5132
650.64	5090
651.122	5165
651.603	5083
652.085	5130
652.567	5150
653.049	5105
653.53	5088
654.012	5177
654.494	5106
654.976	5207
655.458	5193
655.94	5176
656.422	5262
656.904	5162
657.386	5096
657.868	5132
658.35	5124
658.833	5170
659.315	5166
659.797	5088
660.279	5044
660.762	5060
661.244	5006
661.726	4947
662.209	4943
662.691	4937
663.174	4860
663.656	4889
664.139	4889
664.621	4821
665.104	4773
665.587	4799
666.069	4830
666.552	4828
667.035	4757
667.517	4770
668	4817
668.483	4805
668.966	4770
669.449	4747
669.932	4764
670.415	4832
670.898	4791
671.381	4807
671.864	4824
672.347	4778
672.83	4804
673.313	4802
673.797	4787
674.28	4883
674.763	4906
675.247	4906
675.73	4865
676.213	4893
676.697	4923
677.18	4935
677.664	4962
678.147	4928
678.631	4949
679.114	4967
679.598	4956
680.082	4980
680.565	4936
681.049	4914
681.533	4907
682.017	4936
682.5	4936
682.984	4938
683.468	4935
683.952	4841
684.436	4934
684.92	4839
685.404	4851
685.888	4893
686.372	4855
686.856	4876
687.341	4925
687.825	4884
688.309	4924
688.793	4946
689.278	4869
689.762	4891
690.246	4860
690.731	4883
691.215	4925
691.7	4840
692.184	4891
692.669	4870
693.153	4862
693.638	4777
694.122	4774
694.607	4830
695.092	4762
695.577	4820
696.061	4717
696.546	4711
697.031	4669
697.516	4682
698.001	4659
698.486	4625
698.971	4631
699.456	4538
699.941	4555
700.426	4565
700.911	4623
701.396	4566
701.881	4574
702.366	4501
702.852	4465
703.337	4507
703.822	4513
704.308	4522
704.793	4565
705.278	4578
705.764	4606
706.249	4581
706.735	4558
707.22	4604
707.706	4558
708.191	4639
708.677	4620
709.163	4567
709.648	4587
710.134	4658
710.62	4618
711.106	4640
711.592	4693
712.077	4670
712.563	4559
713.049	4558
713.535	4650
714.021	4618
714.507	4581
714.993	4533
715.479	4548
715.966	4480
716.452	4473
716.938	4481
717.424	4329
717.91	4422
718.397	4372
718.883	4327
719.369	4328
719.856	4288
720.342	4378
720.829	4326
721.315	4354
721.802	4313
722.288	4345
722.775	4185
723.262	4084
723.748	4253
724.235	4211
724.722	4255
725.208	4150
725.695	4137
726.182	4136
726.669	4086
727.156	4121
727.643	4052
728.13	4060
728.617	4037
729.104	4062
729.591	4027
730.078	4080
730.565	4086
731.052	4041
731.539	4052
732.027	4011
732.514	3934
733.001	3967
733.488	3932
733.976	3944
734.463	3922
734.951	3894
735.438	3922
735.926	3869
736.413	3897
736.901	3877
737.388	3914
737.876	3901
738.364	3847
738.851	3864
739.339	3862
739.827	3895
740.314	3776
740.802	3778
741.29	3800
741.778	3752
742.266	3752
742.754	3752
743.242	3788
743.73	3736
744.218	3736
744.706	3695
745.194	3708
745.682	3654
746.17	3660
746.659	3664
747.147	3570
747.635	3605
748.123	3588
748.612	3540
749.1	3511
749.589	3563
750.077	3556
750.566	3554
751.054	3595
751.543	3591
752.031	3502
752.52	3492
753.008	3434
753.497	3434
753.986	3412
754.474	3392
754.963	3410
755.452	3343
755.941	3340
756.43	3353
756.919	3330
757.408	3279
757.896	3280
758.385	3279
758.875	3245
759.364	3233
759.853	3194
760.342	3135
760.831	3204
761.32	3173
761.809	3129
762.299	3136
762.788	3124
763.277	3102
763.767	3051
764.256	3061
764.745	3038
765.235	3094
765.724	2998
766.214	3029
766.703	2992
767.193	2919
767.683	2922
768.172	2869
768.662	2898
769.152	2882
769.641	2883
770.131	2809
770.621	2867
771.111	2821
771.601	2813
772.09	2813
772.58	2774
773.07	2795
773.56	2796
774.05	2726
774.54	2727
775.031	2715
775.521	2715
776.011	2725
776.501	2740
776.991	2677
777.482	2674
777.972	2617
778.462	2619
778.953	2637
779.443	2607
779.933	2598
780.424	2565
780.914	2583
781.405	2585
781.895	2567
782.386	2577
782.877	2546
783.367	2491
783.858	2475
784.349	2489
784.839	2469
785.33	2472
785.821	2445
786.312	2426
786.803	2423
787.293	2408
787.784	2368
788.275	2328
788.766	2290
789.257	2315
789.748	2273
790.24	2249
790.731	2265
791.222	2228
791.713	2220
792.204	2235
792.696	2181
793.187	2213
793.678	2190
794.169	2122
794.661	2152
795.152	2120
795.644	2099
796.135	2105
796.627	2112
797.118	2076
797.61	2042
798.101	2017
798.593	2040
799.085	2004
799.576	2019
800.068	1994
800.56	2002
801.052	1950
801.544	1953
802.035	1955
802.527	1927
803.019	1900
803.511	1877
804.003	1859
804.495	1868
804.987	1855
805.479	1818
805.971	1829
806.464	1840
806.956	1797
807.448	1779
807.94	1775
808.433	1773
808.925	1764
809.417	1743
809.91	1725
810.402	1670
810.894	1683
811.387	1691
811.879	1664
812.372	1680
812.865	1665
813.357	1651
813.85	1637
814.342	1628
814.835	1627
815.328	1620
815.821	1599
816.313	1593
816.806	1593
817.299	1581
817.792	1596
818.285	1559
818.778	1586
819.271	1595
819.764	1571
820.257	1575
820.75	1565
821.243	1568
821.736	1545
822.229	1561
822.722	1559
823.216	1598
