Data from lamp4bck_Subt2__24__524.txt Node

Date: Wed Apr 09 11:16:19 CEST 2025
User: fys-lab-0081
Spectrometer: S04999
Trigger mode: 0
Resolution mode: 1024 pixels
Integration Time (sec): 1.000000E-1
Scans to average: 1
Nonlinearity correction enabled: false
Boxcar width: 0
Baseline correction enabled: true
XAxis mode: Wavelengths
Number of Pixels in Spectrum: 1024
>>>>>Begin Spectral Data<<<<<
336.42	-4
336.877	2
337.334	4
337.792	4
338.249	3
338.706	1
339.164	3
339.621	8
340.079	5
340.536	0
340.994	2
341.452	5
341.909	9
342.367	2
342.825	-1
343.283	7
343.741	1
344.198	5
344.656	3
345.114	3
345.572	7
346.03	2
346.488	2
346.947	3
347.405	3
347.863	1
348.321	2
348.779	7
349.238	3
349.696	5
350.154	0
350.613	1
351.071	6
351.53	10
351.988	10
352.447	5
352.905	2
353.364	3
353.823	9
354.282	7
354.74	1
355.199	6
355.658	9
356.117	7
356.576	9
357.035	5
357.494	3
357.953	9
358.412	12
358.871	7
359.33	5
359.789	4
360.249	8
360.708	7
361.167	12
361.626	6
362.086	8
362.545	13
363.005	10
363.464	8
363.924	10
364.383	10
364.843	12
365.303	15
365.762	12
366.222	8
366.682	11
367.142	13
367.601	12
368.061	11
368.521	14
368.981	17
369.441	17
369.901	16
370.361	13
370.821	13
371.282	14
371.742	12
372.202	18
372.662	19
373.123	12
373.583	14
374.043	24
374.504	17
374.964	16
375.425	20
375.885	18
376.346	23
376.806	20
377.267	21
377.728	26
378.188	24
378.649	26
379.11	25
379.571	19
380.032	28
380.493	29
380.954	33
381.414	26
381.876	28
382.337	26
382.798	28
383.259	34
383.72	33
384.181	32
384.642	33
385.104	38
385.565	35
386.026	40
386.488	40
386.949	40
387.411	43
387.872	45
388.334	45
388.795	43
389.257	46
389.719	47
390.181	43
390.642	48
391.104	50
391.566	56
392.028	56
392.49	66
392.952	59
393.414	58
393.876	62
394.338	62
394.8	59
395.262	59
395.724	63
396.186	63
396.648	65
397.111	66
397.573	73
398.035	69
398.498	70
398.96	73
399.423	70
399.885	73
400.348	79
400.81	79
401.273	76
401.736	80
402.198	90
402.661	90
403.124	81
403.587	92
404.049	92.5
404.512	93
404.975	96
405.438	93
405.901	100
406.364	101
406.827	96
407.29	98
407.754	95
408.217	101
408.68	101
409.143	106
409.607	111
410.07	108
410.533	103
410.997	108
411.46	110
411.924	118
412.387	117
412.851	114
413.314	121
413.778	120
414.242	123
414.705	123
415.169	126
415.633	132
416.097	131
416.561	129
417.024	131
417.488	131
417.952	133
418.416	132
418.88	129
419.344	129
419.809	136
420.273	138
420.737	134
421.201	143
421.665	146
422.13	148
422.594	151
423.059	152
423.523	156
423.987	156
424.452	163
424.916	162
425.381	169
425.846	167
426.31	179
426.775	179
427.24	181
427.704	180
428.169	183
428.634	186
429.099	185
429.564	183
430.029	185
430.494	183
430.959	187
431.424	185
431.889	194
432.354	199
432.819	188
433.284	207
433.75	204
434.215	212
434.68	208
435.146	213
435.611	220
436.077	234
436.542	232
437.008	238
437.473	240
437.939	243
438.404	248
438.87	255
439.336	255
439.801	252
440.267	256
440.733	260
441.199	264
441.665	267
442.131	276
442.596	265
443.062	278
443.529	288
443.995	296
444.461	298
444.927	308
445.393	307
445.859	323
446.325	331
446.792	354
447.258	352
447.724	363
448.191	375
448.657	382
449.124	385
449.59	387
450.057	407
450.523	413
450.99	420
451.457	414
451.923	426
452.39	422
452.857	436
453.324	429
453.791	440
454.257	439
454.724	448
455.191	447
455.658	448
456.125	463
456.592	457
457.059	470
457.527	470
457.994	484
458.461	485
458.928	501
459.396	496
459.863	506
460.33	507
460.798	513
461.265	518
461.732	512
462.2	533
462.668	528
463.135	535
463.603	518
464.07	543
464.538	525
465.006	537
465.474	530
465.941	536
466.409	540
466.877	519
467.345	544
467.813	539
468.281	546
468.749	551
469.217	545
469.685	559
470.153	574
470.621	565
471.09	571
471.558	600
472.026	604
472.494	622
472.963	622
473.431	638
473.9	654
474.368	673
474.837	679
475.305	687
475.774	700
476.242	717
476.711	716
477.18	745
477.648	733
478.117	740
478.586	741
479.055	744
479.524	750
479.993	749
480.462	750
480.93	752
481.399	754
481.869	758
482.338	752
482.807	770
483.276	760
483.745	757
484.214	777
484.684	798
485.153	801
485.622	808
486.092	831
486.561	810
487.031	850
487.5	855
487.97	870
488.439	896
488.909	914
489.378	955
489.848	948
490.318	970
490.787	1018
491.257	1019
491.727	1024
492.197	1039
492.667	1042
493.137	1053
493.607	1066
494.077	1076
494.547	1052
495.017	1058
495.487	1085
495.957	1107
496.427	1085
496.897	1078
497.368	1101
497.838	1097
498.308	1109
498.779	1122
499.249	1129
499.719	1133
500.19	1148
500.66	1153
501.131	1163
501.602	1189
502.072	1182
502.543	1212
503.014	1258
503.484	1252
503.955	1291
504.426	1345
504.897	1349
505.368	1372
505.838	1412
506.309	1432
506.78	1477
507.251	1500
507.722	1532
508.194	1572
508.665	1593
509.136	1592
509.607	1641
510.078	1651
510.549	1655
511.021	1699
511.492	1698
511.964	1727
512.435	1749
512.906	1745
513.378	1765
513.849	1801
514.321	1800
514.793	1815
515.264	1848
515.736	1866
516.208	1906
516.679	1931
517.151	1950
517.623	1948
518.095	1986
518.567	1999
519.038	2041
519.51	2036
519.982	2056
520.454	2070
520.927	2103
521.399	2149
521.871	2166
522.343	2167
522.815	2199
523.287	2201
523.76	2235
524.232	2263
524.704	2274
525.177	2241
525.649	2257
526.122	2281
526.594	2235
527.067	2287
527.539	2311
528.012	2307
528.484	2298
528.957	2315
529.43	2308
529.903	2293
530.375	2358
530.848	2309
531.321	2353
531.794	2362
532.267	2419
532.74	2388
533.213	2369
533.686	2410
534.159	2414
534.632	2474
535.105	2491
535.578	2558
536.051	2564
536.525	2562
536.998	2560
537.471	2607
537.945	2572
538.418	2602
538.891	2603
539.365	2653
539.838	2668
540.312	2673
540.786	2677
541.259	2678
541.733	2723
542.206	2747
542.68	2698
543.154	2702
543.628	2727
544.101	2782
544.575	2743
545.049	2673
545.523	2723
545.997	2734
546.471	2745
546.945	2718
547.419	2760
547.893	2660
548.367	2717
548.842	2689
549.316	2711
549.79	2741
550.264	2706
550.739	2740
551.213	2734
551.687	2738
552.162	2768
552.636	2751
553.111	2756
553.585	2848
554.06	2816
554.534	2873
555.009	2854
555.484	2891
555.958	2921
556.433	2921
556.908	2964
557.383	2954
557.858	3036
558.333	3038
558.807	3022
559.282	3049
559.757	3128
560.232	3115
560.708	3072
561.183	3053
561.658	3107
562.133	3090
562.608	3052
563.083	3143
563.559	3077
564.034	3103
564.509	3091
564.985	3098
565.46	3056
565.936	3129
566.411	3132
566.887	3086
567.362	3122
567.838	3128
568.313	3172
568.789	3107
569.265	3102
569.74	3139
570.216	3117
570.692	3169
571.168	3164
571.644	3179
572.12	3195
572.596	3241
573.071	3237
573.547	3332
574.024	3370
574.5	3387
574.976	3400
575.452	3440
575.928	3466
576.404	3489
576.881	3612
577.357	3552
577.833	3559
578.31	3656
578.786	3698
579.262	3742
579.739	3687
580.215	3801
580.692	3805
581.169	3777
581.645	3777
582.122	3896
582.598	3898
583.075	3924
583.552	3962
584.029	3925
584.506	3881
584.982	3865
585.459	3962
585.936	3903
586.413	3959
586.89	4029
587.367	3980
587.844	4026
588.321	3987
588.799	4018
589.276	3992
589.753	4070
590.23	4073
590.707	4050
591.185	4054
591.662	4075
592.139	4112
592.617	4157
593.094	4145
593.572	4190
594.049	4254
594.527	4309
595.004	4305
595.482	4423
595.96	4425
596.437	4432
596.915	4521
597.393	4430
597.871	4547
598.349	4505
598.826	4608
599.304	4595
599.782	4703
600.26	4643
600.738	4745
601.216	4724
601.694	4740
602.173	4751
602.651	4778
603.129	4708
603.607	4750
604.085	4775
604.564	4781
605.042	4797
605.52	4764
605.999	4885
606.477	4735
606.956	4735
607.434	4796.5
607.913	4858
608.391	4838
608.87	4825
609.348	4745
609.827	4754
610.306	4798
610.785	4830
611.263	4846
611.742	4806
612.221	4768
612.7	4826
613.179	4836
613.658	4777
614.137	4871
614.616	4894
615.095	4805
615.574	4864
616.053	4893
616.532	4846
617.011	4878
617.491	4920
617.97	4869
618.449	4930
618.928	4944
619.408	4922
619.887	4987
620.367	4989
620.846	5052
621.326	5016
621.805	5134
622.285	5120
622.764	5162
623.244	5167
623.724	5197
624.203	5226
624.683	5188
625.163	5295
625.643	5297
626.123	5277
626.602	5399
627.082	5289
627.562	5277
628.042	5371
628.522	5286
629.002	5202
629.482	5248
629.963	5268
630.443	5260
630.923	5291
631.403	5305
631.883	5241
632.364	5266
632.844	5230
633.324	5279
633.805	5300
634.285	5209
634.766	5159
635.246	5148
635.727	5144
636.207	5139
636.688	5149
637.168	5141
637.649	5078
638.13	5037
638.611	5098
639.091	5120
639.572	5136
640.053	5125
640.534	5195
641.015	5200
641.496	5111
641.977	5183
642.458	5130
642.939	5155
643.42	5159
643.901	5156
644.382	5183
644.863	5139
645.345	5120
645.826	5126
646.307	5126
646.788	5210
647.27	5115
647.751	5105
648.233	5130
648.714	5005
649.196	5149
649.677	5110
650.159	5107
650.64	5073
651.122	5141
651.603	5062
652.085	5102
652.567	5122
653.049	5074
653.53	5073
654.012	5138
654.494	5081
654.976	5184
655.458	5174
655.94	5156
656.422	5239
656.904	5135
657.386	5071
657.868	5112
658.35	5104
658.833	5151
659.315	5144
659.797	5060
660.279	5015
660.762	5048
661.244	4998
661.726	4927
662.209	4921
662.691	4909
663.174	4839
663.656	4874
664.139	4861
664.621	4792
665.104	4752
665.587	4782
666.069	4806
666.552	4816
667.035	4741
667.517	4739
668	4796
668.483	4782
668.966	4742
669.449	4729
669.932	4742
670.415	4815
670.898	4771
671.381	4788
671.864	4804
672.347	4757
672.83	4791
673.313	4775
673.797	4759
674.28	4866
674.763	4873
675.247	4884
675.73	4840
676.213	4874
676.697	4900
677.18	4910
677.664	4926
678.147	4897
678.631	4923
679.114	4951
679.598	4928
680.082	4956
680.565	4911
681.049	4887
681.533	4882
682.017	4922
682.5	4918
682.984	4920
683.468	4914
683.952	4830
684.436	4911
684.92	4818
685.404	4828
685.888	4878
686.372	4848
686.856	4858
687.341	4910
687.825	4859
688.309	4899
688.793	4927
689.278	4849
689.762	4865
690.246	4848
690.731	4866
691.215	4904
691.7	4817
692.184	4871
692.669	4839
693.153	4843
693.638	4751
694.122	4757
694.607	4815
695.092	4755
695.577	4800
696.061	4702
696.546	4689
697.031	4643
697.516	4659
698.001	4637
698.486	4595
698.971	4620
699.456	4520
699.941	4546
700.426	4540
700.911	4588
701.396	4552
701.881	4562
702.366	4489
702.852	4453
703.337	4470
703.822	4486
704.308	4501
704.793	4545
705.278	4554
705.764	4591
706.249	4573
706.735	4546
707.22	4584
707.706	4542
708.191	4625
708.677	4613
709.163	4546
709.648	4566
710.134	4643
710.62	4598
711.106	4614
711.592	4667
712.077	4649
712.563	4548
713.049	4544
713.535	4633
714.021	4592
714.507	4558
714.993	4511
715.479	4541
715.966	4462
716.452	4467
716.938	4459
717.424	4315
717.91	4385
718.397	4351
718.883	4321
719.369	4313
719.856	4274
720.342	4354
720.829	4303
721.315	4332
721.802	4298
722.288	4327
722.775	4162
723.262	4075
723.748	4224
724.235	4196
724.722	4235
725.208	4128
725.695	4123
726.182	4117
726.669	4070
727.156	4102
727.643	4031
728.13	4040
728.617	4021
729.104	4053
729.591	4008
730.078	4053
730.565	4073
731.052	4019
731.539	4030
732.027	3986
732.514	3922
733.001	3950
733.488	3919
733.976	3932
734.463	3899
734.951	3882
735.438	3902
735.926	3848
736.413	3877
736.901	3856
737.388	3894
737.876	3870
738.364	3837
738.851	3850
739.339	3850
739.827	3878
740.314	3749
740.802	3767
741.29	3787
741.778	3739
742.266	3739
742.754	3739
743.242	3779
743.73	3720
744.218	3716
744.706	3671
745.194	3687
745.682	3635
746.17	3639
746.659	3641
747.147	3565
747.635	3584
748.123	3574
748.612	3529
749.1	3499
749.589	3545
750.077	3549
750.566	3550
751.054	3575
751.543	3581
752.031	3493
752.52	3485
753.008	3415
753.497	3419
753.986	3402
754.474	3378
754.963	3390
755.452	3334
755.941	3328
756.43	3336
756.919	3320
757.408	3266
757.896	3264
758.385	3269
758.875	3231
759.364	3224
759.853	3179
760.342	3129
760.831	3199
761.32	3160
761.809	3108
762.299	3129
762.788	3117
763.277	3092
763.767	3048
764.256	3042
764.745	3025
765.235	3079
765.724	2981
766.214	3027
766.703	2973
767.193	2903
767.683	2908
768.172	2856
768.662	2891
769.152	2863
769.641	2868
770.131	2804
770.621	2845
771.111	2814
771.601	2804
772.09	2797
772.58	2769
773.07	2772
773.56	2784
774.05	2725
774.54	2717
775.031	2709
775.521	2698
776.011	2713
776.501	2736
776.991	2663
777.482	2669
777.972	2605
778.462	2606
778.953	2621
779.443	2600
779.933	2575
780.424	2555
780.914	2584
781.405	2573
781.895	2555
782.386	2562
782.877	2540
783.367	2486
783.858	2461
784.349	2476
784.839	2466
785.33	2464
785.821	2433
786.312	2409
786.803	2418
787.293	2402
787.784	2364
788.275	2317
788.766	2279
789.257	2309
789.748	2266
790.24	2247
790.731	2256
791.222	2221
791.713	2205
792.204	2223
792.696	2171
793.187	2201
793.678	2183
794.169	2113
794.661	2146
795.152	2112
795.644	2090
796.135	2106
796.627	2111
797.118	2065
797.61	2032
798.101	2007
798.593	2029
799.085	2002
799.576	2006
800.068	1988
800.56	1994
801.052	1949
801.544	1941
802.035	1945
802.527	1918
803.019	1888
803.511	1876
804.003	1855
804.495	1866
804.987	1853
805.479	1803
805.971	1826
806.464	1825
806.956	1789
807.448	1779
807.94	1769
808.433	1760
808.925	1754
809.417	1733
809.91	1719
810.402	1662
810.894	1675
811.387	1682
811.879	1650
812.372	1669
812.865	1653
813.357	1646
813.85	1633
814.342	1617
814.835	1625
815.328	1613
815.821	1589
816.313	1587
816.806	1588
817.299	1577
817.792	1588
818.285	1563
818.778	1582
819.271	1586
819.764	1564
820.257	1568
820.75	1563
821.243	1560
821.736	1545
822.229	1553
822.722	1553
823.216	1589
