Data from lamp4bck_Subt4__13__75.txt Node

Date: Wed Apr 09 09:37:17 CEST 2025
User: fys-lab-0081
Spectrometer: S04999
Trigger mode: 0
Resolution mode: 1024 pixels
Integration Time (sec): 1.000000E-1
Scans to average: 1
Nonlinearity correction enabled: false
Boxcar width: 0
Baseline correction enabled: true
XAxis mode: Wavelengths
Number of Pixels in Spectrum: 1024
>>>>>Begin Spectral Data<<<<<
336.42	1
336.877	5
337.334	6
337.792	0
338.249	4
338.706	6
339.164	-2
339.621	1
340.079	5
340.536	9
340.994	11
341.452	1
341.909	4
342.367	2
342.825	7
343.283	2
343.741	2
344.198	6
344.656	3
345.114	7
345.572	7
346.03	10
346.488	10
346.947	7
347.405	13
347.863	5
348.321	9
348.779	4
349.238	11
349.696	9
350.154	6
350.613	8
351.071	9
351.53	7
351.988	9
352.447	9
352.905	11
353.364	13
353.823	8
354.282	13
354.74	8
355.199	11
355.658	15
356.117	15
356.576	15
357.035	15
357.494	15
357.953	18
358.412	12
358.871	11
359.33	14
359.789	17
360.249	14
360.708	19
361.167	16
361.626	22
362.086	18
362.545	20
363.005	26
363.464	18
363.924	19
364.383	25
364.843	16
365.303	23
365.762	24
366.222	20
366.682	23
367.142	23
367.601	25
368.061	28
368.521	27
368.981	26
369.441	31
369.901	30
370.361	26
370.821	28
371.282	28
371.742	31
372.202	31
372.662	32
373.123	34
373.583	31
374.043	34
374.504	30
374.964	35
375.425	37
375.885	39
376.346	39
376.806	39
377.267	39
377.728	44
378.188	43
378.649	43
379.11	47
379.571	44
380.032	42
380.493	43
380.954	52
381.414	47
381.876	54
382.337	56
382.798	62
383.259	67
383.72	60
384.181	63
384.642	60
385.104	67
385.565	80
386.026	71
386.488	72
386.949	75
387.411	79
387.872	78
388.334	82
388.795	83
389.257	94
389.719	89
390.181	83
390.642	94
391.104	93
391.566	91
392.028	99
392.49	97
392.952	105
393.414	111
393.876	108
394.338	109
394.8	109
395.262	120
395.724	119
396.186	123
396.648	119
397.111	121
397.573	126
398.035	124
398.498	127
398.96	127
399.423	132
399.885	142
400.348	136
400.81	148
401.273	139
401.736	150
402.198	153
402.661	157
403.124	157
403.587	166
404.049	168.5
404.512	171
404.975	174
405.438	174
405.901	176
406.364	183
406.827	182
407.29	184
407.754	179
408.217	180
408.68	180
409.143	182
409.607	188
410.07	191
410.533	193
410.997	199
411.46	198
411.924	204
412.387	203
412.851	211
413.314	220
413.778	218
414.242	223
414.705	231
415.169	228
415.633	229
416.097	230
416.561	238
417.024	241
417.488	236
417.952	243
418.416	242
418.88	243
419.344	246
419.809	240
420.273	247
420.737	242
421.201	243
421.665	257
422.13	256
422.594	261
423.059	274
423.523	274
423.987	280
424.452	287
424.916	299
425.381	296
425.846	303
426.31	308
426.775	308
427.24	320
427.704	311
428.169	324
428.634	323
429.099	319
429.564	314
430.029	324
430.494	324
430.959	332
431.424	318
431.889	329
432.354	341
432.819	335
433.284	346
433.75	344
434.215	362
434.68	370
435.146	378
435.611	393
436.077	401
436.542	412
437.008	420
437.473	427
437.939	434
438.404	439
438.87	448
439.336	440
439.801	436
440.267	444
440.733	455
441.199	460
441.665	456
442.131	473
442.596	467
443.062	472
443.529	500
443.995	500
444.461	508
444.927	533
445.393	540
445.859	564
446.325	566
446.792	605
447.258	602
447.724	620
448.191	642
448.657	647
449.124	669
449.59	662
450.057	701
450.523	703
450.99	718
451.457	713
451.923	727
452.39	718
452.857	736
453.324	719
453.791	739
454.257	745
454.724	748
455.191	753
455.658	750
456.125	781
456.592	772
457.059	776
457.527	795
457.994	823
458.461	821
458.928	838
459.396	838
459.863	864
460.33	862
460.798	866
461.265	875
461.732	865
462.2	886
462.668	884
463.135	897
463.603	879
464.07	896
464.538	871
465.006	902
465.474	889
465.941	889
466.409	904
466.877	890
467.345	917
467.813	908
468.281	912
468.749	910
469.217	907
469.685	921
470.153	940
470.621	930
471.09	935
471.558	976
472.026	985
472.494	1012
472.963	1024
473.431	1057
473.9	1078
474.368	1113
474.837	1130
475.305	1151
475.774	1165
476.242	1194
476.711	1192
477.18	1226
477.648	1212
478.117	1228
478.586	1218
479.055	1213
479.524	1232
479.993	1218
480.462	1218
480.93	1237
481.399	1235
481.869	1241
482.338	1237
482.807	1253
483.276	1245
483.745	1250
484.214	1286
484.684	1305
485.153	1289
485.622	1300
486.092	1348
486.561	1314
487.031	1350
487.5	1380
487.97	1398
488.439	1428
488.909	1478
489.378	1519
489.848	1521
490.318	1566
490.787	1631
491.257	1659
491.727	1672
492.197	1709
492.667	1707
493.137	1728
493.607	1741
494.077	1750
494.547	1721
495.017	1728
495.487	1754
495.957	1775
496.427	1734
496.897	1757
497.368	1781
497.838	1764
498.308	1787
498.779	1794
499.249	1806
499.719	1824
500.19	1856
500.66	1867
501.131	1887
501.602	1940
502.072	1947
502.543	1961
503.014	2020
503.484	2025
503.955	2080
504.426	2144
504.897	2154
505.368	2184
505.838	2221
506.309	2281
506.78	2350
507.251	2379
507.722	2415
508.194	2498
508.665	2535
509.136	2528
509.607	2610
510.078	2653
510.549	2664
511.021	2720
511.492	2740
511.964	2784
512.435	2821
512.906	2797
513.378	2836
513.849	2872
514.321	2870
514.793	2907
515.264	2932
515.736	2951
516.208	2995
516.679	3024
517.151	3060
517.623	3075
518.095	3121
518.567	3159
519.038	3228
519.51	3213
519.982	3270
520.454	3325
520.927	3361
521.399	3403
521.871	3431
522.343	3469
522.815	3518
523.287	3506
523.76	3524
524.232	3572
524.704	3587
525.177	3537
525.649	3559
526.122	3607
526.594	3519
527.067	3602
527.539	3664
528.012	3630
528.484	3626
528.957	3646
529.43	3657
529.903	3637
530.375	3736
530.848	3663
531.321	3714
531.794	3728
532.267	3812
532.74	3758
533.213	3778
533.686	3833
534.159	3790
534.632	3861
535.105	3862
535.578	3929
536.051	3942
536.525	3957
536.998	3969
537.471	4061
537.945	3993
538.418	4058
538.891	4084
539.365	4135
539.838	4162
540.312	4165
540.786	4200
541.259	4180
541.733	4220
542.206	4233
542.68	4187
543.154	4192
543.628	4174
544.101	4298
544.575	4284
545.049	4188
545.523	4254
545.997	4229
546.471	4275
546.945	4249
547.419	4299
547.893	4138
548.367	4213
548.842	4184
549.316	4204
549.79	4211
550.264	4188
550.739	4240
551.213	4219
551.687	4234
552.162	4299
552.636	4275
553.111	4243
553.585	4353
554.06	4290
554.534	4391
555.009	4346
555.484	4391
555.958	4451
556.433	4484
556.908	4545
557.383	4489
557.858	4614
558.333	4654
558.807	4620
559.282	4621
559.757	4733
560.232	4766
560.708	4701
561.183	4683
561.658	4731
562.133	4735
562.608	4710
563.083	4840
563.559	4694
564.034	4746
564.509	4762
564.985	4778
565.46	4696
565.936	4761
566.411	4762
566.887	4719
567.362	4771
567.838	4751
568.313	4826
568.789	4762
569.265	4759
569.74	4776
570.216	4718
570.692	4837
571.168	4887
571.644	4857
572.12	4826
572.596	4862
573.071	4868
573.547	4977
574.024	4970
574.5	5022
574.976	5071
575.452	5144
575.928	5190
576.404	5214
576.881	5388
577.357	5339
577.833	5363
578.31	5465
578.786	5502
579.262	5630
579.739	5598
580.215	5717
580.692	5695
581.169	5671
581.645	5724
582.122	5894
582.598	5862
583.075	5831
583.552	5900
584.029	5923
584.506	5895
584.982	5840
585.459	5963
585.936	5910
586.413	5970
586.89	6038
587.367	5931
587.844	6029
588.321	6029
588.799	6034
589.276	5932
589.753	5983
590.23	6034
590.707	6026
591.185	6011
591.662	5983
592.139	6014
592.617	6131
593.094	6172
593.572	6206
594.049	6259
594.527	6263
595.004	6313
595.482	6532
595.96	6471
596.437	6468
596.915	6649
597.393	6616
597.871	6809
598.349	6696
598.826	6796
599.304	6827
599.782	6961
600.26	6870
600.738	6973
601.216	6906
601.694	6969
602.173	7037
602.651	7064
603.129	6957
603.607	7016
604.085	7044
604.564	7065
605.042	7049
605.52	6978
605.999	7175
606.477	7012
606.956	7034
607.434	7086.5
607.913	7139
608.391	7115
608.87	7136
609.348	7099
609.827	7132
610.306	7158
610.785	7150
611.263	7198
611.742	7211
612.221	7107
612.7	7190
613.179	7225
613.658	7139
614.137	7284
614.616	7343
615.095	7165
615.574	7216
616.053	7273
616.532	7271
617.011	7320
617.491	7313
617.97	7255
618.449	7302
618.928	7376
619.408	7284
619.887	7344
620.367	7371
620.846	7466
621.326	7427
621.805	7599
622.285	7558
622.764	7568
623.244	7545
623.724	7603
624.203	7663
624.683	7545
625.163	7724
625.643	7734
626.123	7710
626.602	7940
627.082	7789
627.562	7744
628.042	7908
628.522	7874
629.002	7855
629.482	7872
629.963	7861
630.443	7798
630.923	7821
631.403	7848
631.883	7790
632.364	7794
632.844	7705
633.324	7692
633.805	7691
634.285	7624
634.766	7583
635.246	7599
635.727	7583
636.207	7570
636.688	7573
637.168	7580
637.649	7516
638.13	7495
638.611	7567
639.091	7626
639.572	7613
640.053	7557
640.534	7584
641.015	7551
641.496	7427
641.977	7644
642.458	7623
642.939	7659
643.42	7698
643.901	7707
644.382	7734
644.863	7721
645.345	7722
645.826	7726
646.307	7712
646.788	7782
647.27	7652
647.751	7717
648.233	7812
648.714	7624
649.196	7789
649.677	7724
650.159	7732
650.64	7632
651.122	7756
651.603	7634
652.085	7671
652.567	7670
653.049	7596
653.53	7627
654.012	7728
654.494	7575
654.976	7653
655.458	7633
655.94	7640
656.422	7810
656.904	7724
657.386	7654
657.868	7642
658.35	7629
658.833	7726
659.315	7774
659.797	7671
660.279	7663
660.762	7770
661.244	7719
661.726	7597
662.209	7574
662.691	7535
663.174	7356
663.656	7408
664.139	7439
664.621	7381
665.104	7339
665.587	7397
666.069	7401
666.552	7361
667.035	7267
667.517	7293
668	7332
668.483	7287
668.966	7191
669.449	7162
669.932	7180
670.415	7253
670.898	7176
671.381	7194
671.864	7230
672.347	7158
672.83	7195
673.313	7277
673.797	7279
674.28	7399
674.763	7389
675.247	7407
675.73	7373
676.213	7462
676.697	7509
677.18	7528
677.664	7584
678.147	7615
678.631	7672
679.114	7719
679.598	7700
680.082	7706
680.565	7653
681.049	7618
681.533	7644
682.017	7777
682.5	7797
682.984	7835
683.468	7773
683.952	7579
684.436	7666
684.92	7554
685.404	7553
685.888	7568
686.372	7484
686.856	7503
687.341	7600
687.825	7514
688.309	7572
688.793	7580
689.278	7486
689.762	7572
690.246	7551
690.731	7573
691.215	7579
691.7	7362
692.184	7494
692.669	7523
693.153	7593
693.638	7499
694.122	7515
694.607	7577
695.092	7478
695.577	7576
696.061	7462
696.546	7492
697.031	7488
697.516	7579
698.001	7603
698.486	7582
698.971	7677
699.456	7515
699.941	7495
700.426	7453
700.911	7472
701.396	7373
701.881	7394
702.366	7344
702.852	7335
703.337	7363
703.822	7317
704.308	7270
704.793	7267
705.278	7276
705.764	7304
706.249	7264
706.735	7270
707.22	7365
707.706	7240
708.191	7348
708.677	7351
709.163	7300
709.648	7384
710.134	7446
710.62	7378
711.106	7398
711.592	7507
712.077	7514
712.563	7350
713.049	7376
713.535	7500
714.021	7446
714.507	7418
714.993	7337
715.479	7455
715.966	7377
716.452	7398
716.938	7406
717.424	7208
717.91	7349
718.397	7282
718.883	7229
719.369	7226
719.856	7157
720.342	7248
720.829	7140
721.315	7138
721.802	7115
722.288	7212
722.775	6968
723.262	6749
723.748	6993
724.235	6938
724.722	7047
725.208	6916
725.695	6933
726.182	6919
726.669	6824
727.156	6819
727.643	6685
728.13	6668
728.617	6646
729.104	6673
729.591	6661
730.078	6756
730.565	6792
731.052	6680
731.539	6695
732.027	6648
732.514	6568
733.001	6642
733.488	6623
733.976	6643
734.463	6664
734.951	6635
735.438	6729
735.926	6674
736.413	6735
736.901	6699
737.388	6792
737.876	6754
738.364	6704
738.851	6720
739.339	6673
739.827	6687
740.314	6486
740.802	6562
741.29	6619
741.778	6522
742.266	6518
742.754	6499
743.242	6549
743.73	6423
744.218	6415
744.706	6329
745.194	6371
745.682	6311
746.17	6318
746.659	6344
747.147	6166
747.635	6209
748.123	6214
748.612	6177
749.1	6139
749.589	6184
750.077	6130
750.566	6100
751.054	6137
751.543	6176
752.031	6071
752.52	6089
753.008	5963
753.497	5975
753.986	5966
754.474	5966
754.963	6026
755.452	5922
755.941	5897
756.43	5891
756.919	5877
757.408	5864
757.896	5898
758.385	5940
758.875	5867
759.364	5806
759.853	5772
760.342	5665
760.831	5760
761.32	5688
761.809	5598
762.299	5639
762.788	5637
763.277	5607
763.767	5497
764.256	5484
764.745	5423
765.235	5526
765.724	5377
766.214	5447
766.703	5405
767.193	5346
767.683	5352
768.172	5270
768.662	5317
769.152	5309
769.641	5301
770.131	5148
770.621	5205
771.111	5155
771.601	5150
772.09	5108
772.58	5043
773.07	5049
773.56	5091
774.05	4987
774.54	4964
775.031	4938
775.521	4927
776.011	4959
776.501	5047
776.991	4969
777.482	5013
777.972	4878
778.462	4870
778.953	4914
779.443	4871
779.933	4850
780.424	4787
780.914	4830
781.405	4842
781.895	4799
782.386	4817
782.877	4792
783.367	4701
783.858	4670
784.349	4683
784.839	4661
785.33	4658
785.821	4600
786.312	4527
786.803	4539
787.293	4539
787.784	4459
788.275	4434
788.766	4404
789.257	4491
789.748	4395
790.24	4359
790.731	4399
791.222	4331
791.713	4301
792.204	4294
792.696	4165
793.187	4223
793.678	4188
794.169	4062
794.661	4121
795.152	4084
795.644	4059
796.135	4039
796.627	4060
797.118	3988
797.61	3958
798.101	3916
798.593	3957
799.085	3899
799.576	3906
800.068	3858
800.56	3872
801.052	3785
801.544	3784
802.035	3806
802.527	3731
803.019	3687
803.511	3654
804.003	3631
804.495	3659
804.987	3615
805.479	3534
805.971	3562
806.464	3573
806.956	3506
807.448	3517
807.94	3543
808.433	3521
808.925	3487
809.417	3444
809.91	3433
810.402	3360
810.894	3395
811.387	3428
811.879	3365
812.372	3388
812.865	3355
813.357	3351
813.85	3340
814.342	3329
814.835	3328
815.328	3322
815.821	3274
816.313	3280
816.806	3281
817.299	3240
817.792	3262
818.285	3247
818.778	3291
819.271	3285
819.764	3213
820.257	3199
820.75	3177
821.243	3169
821.736	3138
822.229	3187
822.722	3193
823.216	3256
