Data from lamp4bck_Subt2__73__573.txt Node

Date: Wed Apr 09 11:16:25 CEST 2025
User: fys-lab-0081
Spectrometer: S04999
Trigger mode: 0
Resolution mode: 1024 pixels
Integration Time (sec): 1.000000E-1
Scans to average: 1
Nonlinearity correction enabled: false
Boxcar width: 0
Baseline correction enabled: true
XAxis mode: Wavelengths
Number of Pixels in Spectrum: 1024
>>>>>Begin Spectral Data<<<<<
336.42	3
336.877	3
337.334	2
337.792	0
338.249	4
338.706	4
339.164	3
339.621	2
340.079	4
340.536	9
340.994	7
341.452	5
341.909	8
342.367	5
342.825	0
343.283	9
343.741	3
344.198	0
344.656	2
345.114	3
345.572	7
346.03	2
346.488	1
346.947	3
347.405	6
347.863	2
348.321	0
348.779	6
349.238	4
349.696	8
350.154	-3
350.613	4
351.071	6
351.53	12
351.988	7
352.447	5
352.905	1
353.364	6
353.823	5
354.282	3
354.74	1
355.199	9
355.658	10
356.117	4
356.576	3
357.035	4
357.494	9
357.953	5
358.412	5
358.871	4
359.33	6
359.789	6
360.249	10
360.708	5
361.167	8
361.626	8
362.086	8
362.545	9
363.005	6
363.464	10
363.924	12
364.383	7
364.843	9
365.303	12
365.762	13
366.222	15
366.682	12
367.142	10
367.601	11
368.061	13
368.521	17
368.981	11
369.441	15
369.901	14
370.361	13
370.821	16
371.282	15
371.742	17
372.202	19
372.662	17
373.123	13
373.583	19
374.043	21
374.504	14
374.964	14
375.425	24
375.885	19
376.346	22
376.806	23
377.267	21
377.728	27
378.188	25
378.649	23
379.11	27
379.571	20
380.032	26
380.493	28
380.954	28
381.414	28
381.876	29
382.337	27
382.798	33
383.259	31
383.72	34
384.181	30
384.642	34
385.104	34
385.565	38
386.026	44
386.488	36
386.949	39
387.411	41
387.872	45
388.334	48
388.795	46
389.257	47
389.719	45
390.181	47
390.642	49
391.104	54
391.566	52
392.028	51
392.49	57
392.952	59
393.414	60
393.876	63
394.338	56
394.8	61
395.262	55
395.724	67
396.186	65
396.648	66
397.111	68
397.573	72
398.035	70
398.498	69
398.96	71
399.423	76
399.885	75
400.348	75
400.81	80
401.273	78
401.736	77
402.198	87
402.661	90
403.124	87
403.587	92
404.049	91
404.512	90
404.975	94
405.438	94
405.901	100
406.364	95
406.827	101
407.29	102
407.754	99
408.217	102
408.68	99
409.143	106
409.607	114
410.07	107
410.533	104
410.997	107
411.46	108
411.924	117
412.387	119
412.851	116
413.314	117
413.778	116
414.242	125
414.705	131
415.169	129
415.633	124
416.097	126
416.561	130
417.024	134
417.488	126
417.952	137
418.416	129
418.88	130
419.344	131
419.809	134
420.273	141
420.737	136
421.201	139
421.665	146
422.13	147
422.594	151
423.059	151
423.523	155
423.987	155
424.452	159
424.916	167
425.381	169
425.846	169
426.31	176
426.775	175
427.24	182
427.704	178
428.169	184
428.634	191
429.099	183
429.564	181
430.029	186
430.494	183
430.959	184
431.424	183
431.889	195
432.354	195
432.819	191
433.284	201
433.75	202
434.215	213
434.68	212
435.146	211
435.611	220
436.077	230
436.542	232
437.008	245
437.473	242
437.939	241
438.404	254
438.87	260
439.336	253
439.801	252
440.267	257
440.733	269
441.199	264
441.665	266
442.131	271
442.596	266
443.062	277
443.529	293
443.995	298
444.461	298
444.927	310
445.393	311
445.859	326
446.325	329
446.792	358
447.258	348
447.724	368
448.191	378
448.657	374
449.124	387
449.59	386
450.057	411
450.523	409
450.99	423
451.457	415
451.923	428
452.39	422
452.857	438
453.324	435
453.791	441
454.257	439
454.724	450
455.191	449
455.658	453
456.125	466
456.592	458
457.059	463
457.527	478
457.994	488
458.461	487
458.928	495
459.396	492
459.863	514
460.33	508
460.798	505
461.265	520
461.732	521
462.2	537
462.668	525
463.135	538
463.603	511
464.07	545
464.538	524
465.006	536
465.474	531
465.941	531
466.409	537
466.877	524
467.345	544
467.813	538
468.281	545
468.749	551
469.217	548
469.685	558
470.153	573
470.621	572
471.09	576
471.558	600
472.026	602
472.494	620
472.963	626
473.431	641
473.9	650
474.368	671
474.837	686
475.305	682
475.774	699
476.242	715
476.711	723
477.18	745
477.648	732
478.117	740
478.586	743
479.055	741
479.524	744
479.993	752
480.462	753
480.93	753
481.399	752
481.869	759
482.338	751
482.807	769
483.276	761
483.745	759
484.214	786
484.684	793
485.153	801
485.622	808
486.092	835
486.561	814
487.031	848
487.5	855
487.97	865
488.439	898
488.909	920
489.378	953
489.848	948
490.318	971
490.787	1012
491.257	1015
491.727	1027
492.197	1044
492.667	1045
493.137	1058
493.607	1064
494.077	1076
494.547	1064
495.017	1067
495.487	1078
495.957	1112
496.427	1088
496.897	1084
497.368	1106
497.838	1096
498.308	1110
498.779	1119
499.249	1123
499.719	1137
500.19	1154
500.66	1154
501.131	1163
501.602	1188
502.072	1188
502.543	1218
503.014	1259
503.484	1257
503.955	1297
504.426	1342
504.897	1348
505.368	1371
505.838	1406
506.309	1434
506.78	1479
507.251	1504
507.722	1526
508.194	1574
508.665	1597
509.136	1591
509.607	1645
510.078	1659
510.549	1655
511.021	1701
511.492	1700
511.964	1732
512.435	1753
512.906	1751
513.378	1769
513.849	1806
514.321	1797
514.793	1819
515.264	1853
515.736	1874
516.208	1914
516.679	1927
517.151	1950
517.623	1953
518.095	1986
518.567	2002
519.038	2046
519.51	2043
519.982	2057
520.454	2071
520.927	2109
521.399	2158
521.871	2167
522.343	2175
522.815	2205
523.287	2212
523.76	2239
524.232	2265
524.704	2281
525.177	2256
525.649	2266
526.122	2285
526.594	2241
527.067	2292
527.539	2329
528.012	2307
528.484	2303
528.957	2319
529.43	2307
529.903	2299
530.375	2367
530.848	2315
531.321	2357
531.794	2363
532.267	2433
532.74	2398
533.213	2380
533.686	2422
534.159	2414
534.632	2478
535.105	2503
535.578	2562
536.051	2570
536.525	2565
536.998	2563
537.471	2621
537.945	2570
538.418	2614
538.891	2600
539.365	2652
539.838	2682
540.312	2668
540.786	2684
541.259	2674
541.733	2730
542.206	2749
542.68	2708
543.154	2708
543.628	2723
544.101	2789
544.575	2749
545.049	2671
545.523	2732
545.997	2737
546.471	2748
546.945	2730
547.419	2770
547.893	2667
548.367	2719
548.842	2700
549.316	2725
549.79	2741
550.264	2710
550.739	2750
551.213	2742
551.687	2745
552.162	2770
552.636	2762
553.111	2766
553.585	2861
554.06	2823
554.534	2879
555.009	2865
555.484	2902
555.958	2930
556.433	2931
556.908	2976
557.383	2955
557.858	3034
558.333	3050
558.807	3041
559.282	3053
559.757	3138
560.232	3125
560.708	3081
561.183	3061
561.658	3114
562.133	3097
562.608	3070
563.083	3144
563.559	3089
564.034	3109
564.509	3107
564.985	3101
565.46	3064
565.936	3131
566.411	3130
566.887	3098
567.362	3135
567.838	3133
568.313	3177
568.789	3112
569.265	3111
569.74	3147
570.216	3125
570.692	3174
571.168	3178
571.644	3180
572.12	3196
572.596	3237
573.071	3244
573.547	3342
574.024	3378
574.5	3390
574.976	3398
575.452	3457
575.928	3478
576.404	3493
576.881	3616
577.357	3563
577.833	3574
578.31	3664
578.786	3702
579.262	3744
579.739	3689
580.215	3812
580.692	3816
581.169	3785
581.645	3802
582.122	3899
582.598	3913
583.075	3941
583.552	3963
584.029	3933
584.506	3893
584.982	3874
585.459	3972
585.936	3913
586.413	3966
586.89	4034
587.367	3983
587.844	4038
588.321	3996
588.799	4030
589.276	4001
589.753	4066
590.23	4087
590.707	4051
591.185	4065
591.662	4082
592.139	4120
592.617	4167
593.094	4154
593.572	4202
594.049	4256
594.527	4308
595.004	4318
595.482	4441
595.96	4437
596.437	4447
596.915	4529
597.393	4447
597.871	4552
598.349	4519
598.826	4611
599.304	4609
599.782	4708
600.26	4647
600.738	4756
601.216	4748
601.694	4748
602.173	4773
602.651	4780
603.129	4719
603.607	4754
604.085	4780
604.564	4788
605.042	4810
605.52	4769
605.999	4888
606.477	4751
606.956	4746
607.434	4806
607.913	4866
608.391	4852
608.87	4846
609.348	4761
609.827	4758
610.306	4811
610.785	4844
611.263	4854
611.742	4813
612.221	4760
612.7	4826
613.179	4847
613.658	4794
614.137	4867
614.616	4913
615.095	4806
615.574	4878
616.053	4905
616.532	4858
617.011	4881
617.491	4925
617.97	4890
618.449	4929
618.928	4970
619.408	4936
619.887	4991
620.367	5002
620.846	5068
621.326	5031
621.805	5146
622.285	5141
622.764	5174
623.244	5178
623.724	5208
624.203	5241
624.683	5201
625.163	5306
625.643	5317
626.123	5286
626.602	5421
627.082	5302
627.562	5292
628.042	5383
628.522	5298
629.002	5210
629.482	5267
629.963	5292
630.443	5254
630.923	5300
631.403	5320
631.883	5248
632.364	5276
632.844	5233
633.324	5289
633.805	5306
634.285	5221
634.766	5175
635.246	5163
635.727	5147
636.207	5145
636.688	5157
637.168	5159
637.649	5085
638.13	5058
638.611	5108
639.091	5128
639.572	5135
640.053	5147
640.534	5206
641.015	5211
641.496	5111
641.977	5193
642.458	5146
642.939	5157
643.42	5167
643.901	5156
644.382	5195
644.863	5155
645.345	5144
645.826	5132
646.307	5122
646.788	5225
647.27	5128
647.751	5108
648.233	5129
648.714	5016
649.196	5150
649.677	5117
650.159	5108
650.64	5073
651.122	5159
651.603	5078
652.085	5115
652.567	5142
653.049	5102
653.53	5084
654.012	5154
654.494	5092
654.976	5195
655.458	5183
655.94	5155
656.422	5243
656.904	5157
657.386	5084
657.868	5115
658.35	5112
658.833	5166
659.315	5160
659.797	5074
660.279	5032
660.762	5067
661.244	5003
661.726	4938
662.209	4918
662.691	4928
663.174	4849
663.656	4879
664.139	4878
664.621	4807
665.104	4763
665.587	4774
666.069	4822
666.552	4822
667.035	4751
667.517	4760
668	4808
668.483	4792
668.966	4762
669.449	4742
669.932	4749
670.415	4812
670.898	4784
671.381	4801
671.864	4803
672.347	4764
672.83	4788
673.313	4790
673.797	4771
674.28	4865
674.763	4880
675.247	4884
675.73	4849
676.213	4889
676.697	4914
677.18	4929
677.664	4949
678.147	4918
678.631	4936
679.114	4960
679.598	4944
680.082	4962
680.565	4917
681.049	4895
681.533	4888
682.017	4933
682.5	4929
682.984	4932
683.468	4934
683.952	4829
684.436	4928
684.92	4833
685.404	4840
685.888	4885
686.372	4857
686.856	4865
687.341	4917
687.825	4868
688.309	4914
688.793	4939
689.278	4857
689.762	4881
690.246	4864
690.731	4873
691.215	4911
691.7	4826
692.184	4885
692.669	4861
693.153	4857
693.638	4769
694.122	4768
694.607	4822
695.092	4762
695.577	4800
696.061	4699
696.546	4703
697.031	4652
697.516	4679
698.001	4652
698.486	4609
698.971	4629
699.456	4525
699.941	4539
700.426	4549
700.911	4603
701.396	4569
701.881	4569
702.366	4490
702.852	4457
703.337	4488
703.822	4490
704.308	4522
704.793	4562
705.278	4571
705.764	4593
706.249	4577
706.735	4553
707.22	4586
707.706	4550
708.191	4629
708.677	4615
709.163	4559
709.648	4582
710.134	4662
710.62	4617
711.106	4618
711.592	4682
712.077	4661
712.563	4550
713.049	4548
713.535	4636
714.021	4605
714.507	4576
714.993	4511
715.479	4546
715.966	4472
716.452	4465
716.938	4470
717.424	4329
717.91	4408
718.397	4366
718.883	4325
719.369	4329
719.856	4290
720.342	4375
720.829	4318
721.315	4347
721.802	4297
722.288	4348
722.775	4174
723.262	4080
723.748	4241
724.235	4205
724.722	4248
725.208	4146
725.695	4124
726.182	4128
726.669	4090
727.156	4107
727.643	4049
728.13	4049
728.617	4035
729.104	4062
729.591	4013
730.078	4067
730.565	4078
731.052	4039
731.539	4045
732.027	3994
732.514	3921
733.001	3954
733.488	3925
733.976	3936
734.463	3909
734.951	3895
735.438	3912
735.926	3862
736.413	3881
736.901	3866
737.388	3909
737.876	3882
738.364	3837
738.851	3858
739.339	3860
739.827	3891
740.314	3769
740.802	3769
741.29	3788
741.778	3756
742.266	3750
742.754	3752
743.242	3787
743.73	3720
744.218	3738
744.706	3682
745.194	3701
745.682	3643
746.17	3650
746.659	3651
747.147	3572
747.635	3595
748.123	3580
748.612	3537
749.1	3512
749.589	3551
750.077	3543
750.566	3554
751.054	3576
751.543	3589
752.031	3495
752.52	3491
753.008	3426
753.497	3430
753.986	3411
754.474	3377
754.963	3401
755.452	3343
755.941	3339
756.43	3347
756.919	3327
757.408	3275
757.896	3261
758.385	3282
758.875	3238
759.364	3232
759.853	3187
760.342	3133
760.831	3209
761.32	3167
761.809	3112
762.299	3138
762.788	3118
763.277	3111
763.767	3050
764.256	3050
764.745	3023
765.235	3094
765.724	2988
766.214	3031
766.703	2974
767.193	2913
767.683	2912
768.172	2866
768.662	2891
769.152	2874
769.641	2880
770.131	2808
770.621	2849
771.111	2810
771.601	2810
772.09	2794
772.58	2768
773.07	2782
773.56	2794
774.05	2731
774.54	2721
775.031	2708
775.521	2705
776.011	2721
776.501	2740
776.991	2671
777.482	2678
777.972	2611
778.462	2612
778.953	2622
779.443	2607
779.933	2588
780.424	2565
780.914	2582
781.405	2581
781.895	2564
782.386	2575
782.877	2550
783.367	2491
783.858	2477
784.349	2486
784.839	2464
785.33	2466
785.821	2441
786.312	2423
786.803	2413
787.293	2414
787.784	2367
788.275	2322
788.766	2284
789.257	2316
789.748	2272
790.24	2250
790.731	2262
791.222	2225
791.713	2216
792.204	2228
792.696	2181
793.187	2204
793.678	2190
794.169	2113
794.661	2144
795.152	2119
795.644	2097
796.135	2099
796.627	2116
797.118	2072
797.61	2041
798.101	2015
798.593	2039
799.085	2003
799.576	2013
800.068	1985
800.56	2005
801.052	1955
801.544	1953
802.035	1956
802.527	1921
803.019	1893
803.511	1882
804.003	1855
804.495	1860
804.987	1854
805.479	1816
805.971	1829
806.464	1830
806.956	1785
807.448	1781
807.94	1768
808.433	1765
808.925	1754
809.417	1736
809.91	1716
810.402	1669
810.894	1680
811.387	1681
811.879	1654
812.372	1678
812.865	1658
813.357	1650
813.85	1639
814.342	1625
814.835	1627
815.328	1617
815.821	1593
816.313	1588
816.806	1588
817.299	1574
817.792	1590
818.285	1563
818.778	1588
819.271	1591
819.764	1574
820.257	1577
820.75	1562
821.243	1563
821.736	1550
822.229	1559
822.722	1555
823.216	1594
