Data from lamp4bck_Subt2__23__523.txt Node

Date: Wed Apr 09 11:16:19 CEST 2025
User: fys-lab-0081
Spectrometer: S04999
Trigger mode: 0
Resolution mode: 1024 pixels
Integration Time (sec): 1.000000E-1
Scans to average: 1
Nonlinearity correction enabled: false
Boxcar width: 0
Baseline correction enabled: true
XAxis mode: Wavelengths
Number of Pixels in Spectrum: 1024
>>>>>Begin Spectral Data<<<<<
336.42	-1
336.877	3
337.334	1
337.792	6
338.249	3
338.706	4
339.164	3
339.621	2
340.079	6
340.536	6
340.994	3
341.452	4
341.909	6
342.367	4
342.825	1
343.283	4
343.741	7
344.198	3
344.656	2
345.114	2
345.572	5
346.03	2
346.488	4
346.947	2
347.405	3
347.863	4
348.321	3
348.779	6
349.238	2
349.696	6
350.154	1
350.613	5
351.071	3
351.53	6
351.988	6
352.447	6
352.905	4
353.364	3
353.823	4
354.282	6
354.74	4
355.199	6
355.658	5
356.117	4
356.576	7
357.035	4
357.494	8
357.953	3
358.412	8
358.871	12
359.33	8
359.789	4
360.249	7
360.708	7
361.167	9
361.626	10
362.086	8
362.545	9
363.005	10
363.464	13
363.924	14
364.383	6
364.843	8
365.303	15
365.762	15
366.222	14
366.682	13
367.142	11
367.601	15
368.061	9
368.521	12
368.981	11
369.441	21
369.901	17
370.361	15
370.821	12
371.282	15
371.742	16
372.202	18
372.662	21
373.123	13
373.583	19
374.043	19
374.504	16
374.964	19
375.425	21
375.885	22
376.346	24
376.806	23
377.267	15
377.728	27
378.188	26
378.649	21
379.11	25
379.571	18
380.032	28
380.493	28
380.954	28
381.414	24
381.876	27
382.337	30
382.798	33
383.259	30
383.72	32
384.181	34
384.642	37
385.104	37
385.565	37
386.026	40
386.488	41
386.949	42
387.411	43
387.872	42
388.334	48
388.795	49
389.257	48
389.719	46
390.181	46
390.642	51
391.104	50
391.566	55
392.028	51
392.49	63
392.952	63
393.414	60
393.876	59
394.338	60
394.8	64
395.262	59
395.724	68
396.186	64
396.648	65
397.111	65
397.573	72
398.035	69
398.498	69
398.96	73
399.423	70
399.885	74
400.348	79
400.81	78
401.273	77
401.736	76
402.198	87
402.661	87
403.124	82
403.587	91
404.049	91
404.512	91
404.975	93
405.438	94
405.901	100
406.364	101
406.827	97
407.29	96
407.754	100
408.217	102
408.68	100
409.143	104
409.607	106
410.07	108
410.533	107
410.997	108
411.46	111
411.924	115
412.387	119
412.851	113
413.314	118
413.778	120
414.242	121
414.705	127
415.169	129
415.633	130
416.097	127
416.561	132
417.024	133
417.488	130
417.952	134
418.416	128
418.88	130
419.344	131
419.809	137
420.273	139
420.737	138
421.201	142
421.665	145
422.13	148
422.594	151
423.059	153
423.523	159
423.987	153
424.452	163
424.916	164
425.381	169
425.846	170
426.31	177
426.775	177
427.24	181
427.704	182
428.169	180
428.634	185
429.099	186
429.564	181
430.029	182
430.494	182
430.959	188
431.424	181
431.889	196
432.354	200
432.819	189
433.284	202
433.75	203
434.215	217
434.68	212
435.146	209
435.611	222
436.077	228
436.542	225
437.008	237
437.473	242
437.939	243
438.404	249
438.87	257
439.336	252
439.801	248
440.267	260
440.733	263
441.199	263
441.665	260
442.131	270
442.596	265
443.062	278
443.529	293
443.995	297
444.461	298
444.927	311
445.393	312
445.859	327
446.325	330
446.792	351
447.258	353
447.724	363
448.191	376
448.657	376
449.124	385
449.59	382
450.057	409
450.523	414
450.99	421
451.457	412
451.923	429
452.39	422
452.857	433
453.324	429
453.791	436
454.257	443
454.724	444
455.191	443
455.658	449
456.125	467
456.592	457
457.059	462
457.527	469
457.994	485
458.461	490
458.928	495
459.396	489
459.863	510
460.33	508
460.798	508
461.265	521
461.732	517
462.2	530
462.668	527
463.135	532
463.603	513
464.07	540
464.538	519
465.006	540
465.474	530
465.941	535
466.409	536
466.877	527
467.345	541
467.813	534
468.281	542
468.749	547
469.217	545
469.685	554
470.153	570
470.621	569
471.09	576
471.558	595
472.026	601
472.494	618
472.963	624
473.431	636
473.9	654
474.368	669
474.837	681
475.305	689
475.774	694
476.242	715
476.711	715
477.18	739
477.648	735
478.117	739
478.586	744
479.055	744
479.524	747
479.993	749
480.462	748
480.93	751
481.399	751
481.869	758
482.338	750
482.807	762
483.276	758
483.745	756
484.214	778
484.684	795
485.153	799
485.622	804
486.092	827
486.561	816
487.031	851
487.5	860
487.97	869
488.439	895
488.909	915
489.378	950
489.848	948
490.318	970
490.787	1016
491.257	1018
491.727	1023
492.197	1035
492.667	1037
493.137	1054
493.607	1065
494.077	1071
494.547	1057
495.017	1057
495.487	1085
495.957	1104
496.427	1082
496.897	1082
497.368	1100
497.838	1096
498.308	1104
498.779	1112
499.249	1123
499.719	1132
500.19	1147
500.66	1157
501.131	1164
501.602	1186
502.072	1189
502.543	1211
503.014	1260
503.484	1250
503.955	1286
504.426	1345
504.897	1344
505.368	1371
505.838	1402
506.309	1431
506.78	1471
507.251	1503
507.722	1531
508.194	1573
508.665	1597
509.136	1591
509.607	1634
510.078	1642
510.549	1652
511.021	1689
511.492	1699
511.964	1717
512.435	1751
512.906	1746
513.378	1762
513.849	1798
514.321	1796
514.793	1819
515.264	1849
515.736	1867
516.208	1914
516.679	1923
517.151	1936
517.623	1951
518.095	1984
518.567	1998
519.038	2040
519.51	2026
519.982	2053
520.454	2065
520.927	2111
521.399	2150
521.871	2154
522.343	2162
522.815	2194
523.287	2205
523.76	2234
524.232	2261
524.704	2274
525.177	2239
525.649	2246
526.122	2274
526.594	2228
527.067	2287
527.539	2313
528.012	2301
528.484	2291
528.957	2307
529.43	2301
529.903	2292
530.375	2360
530.848	2307
531.321	2341
531.794	2360
532.267	2415
532.74	2392
533.213	2364
533.686	2405
534.159	2406
534.632	2467
535.105	2485
535.578	2554
536.051	2559
536.525	2558
536.998	2551
537.471	2616
537.945	2567
538.418	2597
538.891	2595
539.365	2641
539.838	2663
540.312	2659
540.786	2671
541.259	2674
541.733	2719
542.206	2733
542.68	2695
543.154	2697
543.628	2719
544.101	2772
544.575	2737
545.049	2672
545.523	2716
545.997	2733
546.471	2744
546.945	2719
547.419	2764
547.893	2658
548.367	2709
548.842	2680
549.316	2707
549.79	2740
550.264	2698
550.739	2733
551.213	2734
551.687	2736
552.162	2767
552.636	2755
553.111	2748
553.585	2852
554.06	2817
554.534	2871
555.009	2852
555.484	2891
555.958	2918
556.433	2912
556.908	2959
557.383	2946
557.858	3027
558.333	3034
558.807	3020
559.282	3044
559.757	3130
560.232	3115
560.708	3064
561.183	3052
561.658	3099
562.133	3088
562.608	3054
563.083	3135
563.559	3081
564.034	3093
564.509	3092
564.985	3092
565.46	3051
565.936	3112
566.411	3121
566.887	3089
567.362	3120
567.838	3125
568.313	3166
568.789	3101
569.265	3110
569.74	3135
570.216	3114
570.692	3163
571.168	3161
571.644	3178
572.12	3189
572.596	3226
573.071	3228
573.547	3331
574.024	3372
574.5	3382
574.976	3391
575.452	3433
575.928	3468
576.404	3492
576.881	3594
577.357	3549
577.833	3561
578.31	3655
578.786	3696
579.262	3747
579.739	3693
580.215	3798
580.692	3806
581.169	3782
581.645	3774
582.122	3887
582.598	3896
583.075	3923
583.552	3950
584.029	3927
584.506	3881
584.982	3865
585.459	3962
585.936	3896
586.413	3946
586.89	4016
587.367	3967
587.844	4028
588.321	3985
588.799	4015
589.276	3990
589.753	4056
590.23	4071
590.707	4032
591.185	4063
591.662	4074
592.139	4098
592.617	4158
593.094	4132
593.572	4185
594.049	4238
594.527	4296
595.004	4297
595.482	4423
595.96	4426
596.437	4434
596.915	4519
597.393	4432
597.871	4528
598.349	4507
598.826	4604
599.304	4604
599.782	4696
600.26	4637
600.738	4750
601.216	4705
601.694	4732
602.173	4753
602.651	4771
603.129	4708
603.607	4743
604.085	4758
604.564	4770
605.042	4793
605.52	4755
605.999	4874
606.477	4739
606.956	4728
607.434	4791
607.913	4854
608.391	4835
608.87	4816
609.348	4740
609.827	4749
610.306	4793
610.785	4815
611.263	4838
611.742	4805
612.221	4754
612.7	4820
613.179	4836
613.658	4780
614.137	4857
614.616	4884
615.095	4796
615.574	4857
616.053	4881
616.532	4845
617.011	4869
617.491	4905
617.97	4863
618.449	4921
618.928	4947
619.408	4921
619.887	4975
620.367	4983
620.846	5051
621.326	5015
621.805	5128
622.285	5119
622.764	5163
623.244	5162
623.724	5194
624.203	5231
624.683	5180
625.163	5299
625.643	5298
626.123	5278
626.602	5402
627.082	5292
627.562	5279
628.042	5358
628.522	5286
629.002	5198
629.482	5244
629.963	5274
630.443	5245
630.923	5284
631.403	5302
631.883	5239
632.364	5259
632.844	5227
633.324	5266
633.805	5296
634.285	5200
634.766	5155
635.246	5159
635.727	5134
636.207	5132
636.688	5147
637.168	5136
637.649	5077
638.13	5042
638.611	5102
639.091	5120
639.572	5123
640.053	5127
640.534	5197
641.015	5192
641.496	5096
641.977	5182
642.458	5129
642.939	5136
643.42	5150
643.901	5145
644.382	5180
644.863	5141
645.345	5120
645.826	5118
646.307	5109
646.788	5190
647.27	5109
647.751	5098
648.233	5127
648.714	4996
649.196	5138
649.677	5103
650.159	5100
650.64	5056
651.122	5145
651.603	5064
652.085	5092
652.567	5120
653.049	5077
653.53	5075
654.012	5138
654.494	5077
654.976	5179
655.458	5159
655.94	5153
656.422	5224
656.904	5136
657.386	5071
657.868	5102
658.35	5097
658.833	5142
659.315	5138
659.797	5052
660.279	5015
660.762	5038
661.244	4981
661.726	4926
662.209	4920
662.691	4912
663.174	4827
663.656	4865
664.139	4856
664.621	4787
665.104	4741
665.587	4756
666.069	4800
666.552	4806
667.035	4733
667.517	4743
668	4791
668.483	4780
668.966	4739
669.449	4735
669.932	4740
670.415	4802
670.898	4772
671.381	4789
671.864	4793
672.347	4748
672.83	4780
673.313	4776
673.797	4753
674.28	4857
674.763	4869
675.247	4876
675.73	4838
676.213	4871
676.697	4895
677.18	4905
677.664	4929
678.147	4891
678.631	4925
679.114	4939
679.598	4917
680.082	4949
680.565	4904
681.049	4886
681.533	4871
682.017	4911
682.5	4908
682.984	4925
683.468	4904
683.952	4807
684.436	4899
684.92	4819
685.404	4826
685.888	4878
686.372	4833
686.856	4847
687.341	4902
687.825	4864
688.309	4900
688.793	4925
689.278	4856
689.762	4877
690.246	4844
690.731	4853
691.215	4897
691.7	4803
692.184	4876
692.669	4832
693.153	4839
693.638	4751
694.122	4748
694.607	4810
695.092	4743
695.577	4791
696.061	4698
696.546	4685
697.031	4638
697.516	4663
698.001	4628
698.486	4601
698.971	4622
699.456	4516
699.941	4530
700.426	4537
700.911	4597
701.396	4551
701.881	4555
702.366	4476
702.852	4447
703.337	4476
703.822	4475
704.308	4498
704.793	4533
705.278	4559
705.764	4576
706.249	4555
706.735	4539
707.22	4575
707.706	4535
708.191	4613
708.677	4594
709.163	4544
709.648	4570
710.134	4643
710.62	4597
711.106	4604
711.592	4672
712.077	4642
712.563	4538
713.049	4533
713.535	4613
714.021	4592
714.507	4554
714.993	4493
715.479	4522
715.966	4450
716.452	4457
716.938	4457
717.424	4310
717.91	4396
718.397	4349
718.883	4303
719.369	4310
719.856	4274
720.342	4348
720.829	4298
721.315	4331
721.802	4289
722.288	4327
722.775	4166
723.262	4071
723.748	4231
724.235	4193
724.722	4235
725.208	4127
725.695	4119
726.182	4114
726.669	4064
727.156	4090
727.643	4027
728.13	4040
728.617	4024
729.104	4046
729.591	4014
730.078	4053
730.565	4066
731.052	4016
731.539	4030
732.027	3983
732.514	3912
733.001	3951
733.488	3913
733.976	3924
734.463	3902
734.951	3881
735.438	3894
735.926	3852
736.413	3872
736.901	3852
737.388	3895
737.876	3868
738.364	3835
738.851	3834
739.339	3845
739.827	3874
740.314	3750
740.802	3763
741.29	3782
741.778	3735
742.266	3732
742.754	3734
743.242	3773
743.73	3714
744.218	3723
744.706	3672
745.194	3687
745.682	3636
746.17	3636
746.659	3638
747.147	3557
747.635	3585
748.123	3568
748.612	3524
749.1	3507
749.589	3542
750.077	3535
750.566	3542
751.054	3572
751.543	3579
752.031	3484
752.52	3475
753.008	3409
753.497	3410
753.986	3402
754.474	3370
754.963	3388
755.452	3326
755.941	3322
756.43	3333
756.919	3312
757.408	3262
757.896	3260
758.385	3264
758.875	3234
759.364	3208
759.853	3181
760.342	3132
760.831	3201
761.32	3168
761.809	3113
762.299	3127
762.788	3104
763.277	3088
763.767	3047
764.256	3036
764.745	3021
765.235	3072
765.724	2984
766.214	3017
766.703	2975
767.193	2909
767.683	2900
768.172	2863
768.662	2888
769.152	2860
769.641	2858
770.131	2801
770.621	2847
771.111	2808
771.601	2807
772.09	2791
772.58	2757
773.07	2775
773.56	2786
774.05	2720
774.54	2717
775.031	2702
775.521	2693
776.011	2714
776.501	2734
776.991	2657
777.482	2670
777.972	2609
778.462	2599
778.953	2616
779.443	2597
779.933	2584
780.424	2550
780.914	2578
781.405	2575
781.895	2549
782.386	2560
782.877	2549
783.367	2483
783.858	2464
784.349	2476
784.839	2456
785.33	2467
785.821	2431
786.312	2406
786.803	2414
787.293	2403
787.784	2360
788.275	2320
788.766	2277
789.257	2308
789.748	2262
790.24	2243
790.731	2253
791.222	2213
791.713	2216
792.204	2222
792.696	2174
793.187	2197
793.678	2177
794.169	2111
794.661	2138
795.152	2110
795.644	2096
796.135	2105
796.627	2108
797.118	2061
797.61	2037
798.101	2004
798.593	2036
799.085	1998
799.576	2011
800.068	1981
800.56	1985
801.052	1947
801.544	1948
802.035	1950
802.527	1913
803.019	1893
803.511	1874
804.003	1851
804.495	1866
804.987	1848
805.479	1814
805.971	1814
806.464	1828
806.956	1786
807.448	1784
807.94	1769
808.433	1758
808.925	1759
809.417	1736
809.91	1716
810.402	1661
810.894	1673
811.387	1679
811.879	1648
812.372	1674
812.865	1655
813.357	1641
813.85	1627
814.342	1619
814.835	1618
815.328	1610
815.821	1594
816.313	1590
816.806	1586
817.299	1579
817.792	1586
818.285	1555
818.778	1580
819.271	1589
819.764	1563
820.257	1567
820.75	1557
821.243	1563
821.736	1545
822.229	1552
822.722	1552
823.216	1594
