Data from lamp4bck_Subt2__5__505.txt Node

Date: Wed Apr 09 11:16:16 CEST 2025
User: fys-lab-0081
Spectrometer: S04999
Trigger mode: 0
Resolution mode: 1024 pixels
Integration Time (sec): 1.000000E-1
Scans to average: 1
Nonlinearity correction enabled: false
Boxcar width: 0
Baseline correction enabled: true
XAxis mode: Wavelengths
Number of Pixels in Spectrum: 1024
>>>>>Begin Spectral Data<<<<<
336.42	1
336.877	3
337.334	0
337.792	5
338.249	3
338.706	8
339.164	5
339.621	0
340.079	4
340.536	5
340.994	6
341.452	6
341.909	6
342.367	1
342.825	0
343.283	6
343.741	1
344.198	2
344.656	1
345.114	1
345.572	2
346.03	1
346.488	4
346.947	5
347.405	5
347.863	1
348.321	3
348.779	6
349.238	4
349.696	6
350.154	4
350.613	6
351.071	6
351.53	13
351.988	9
352.447	3
352.905	3
353.364	2
353.823	7
354.282	6
354.74	-1
355.199	9
355.658	7
356.117	9
356.576	10
357.035	7
357.494	5
357.953	3
358.412	9
358.871	8
359.33	6
359.789	6
360.249	7
360.708	7
361.167	12
361.626	11
362.086	5
362.545	10
363.005	14
363.464	11
363.924	8
364.383	11
364.843	9
365.303	15
365.762	13
366.222	8
366.682	11
367.142	14
367.601	16
368.061	12
368.521	11
368.981	12
369.441	19
369.901	19
370.361	15
370.821	13
371.282	15
371.742	16
372.202	15
372.662	19
373.123	13
373.583	16
374.043	21
374.504	15
374.964	16
375.425	19
375.885	20
376.346	25
376.806	26
377.267	18
377.728	24
378.188	24
378.649	23
379.11	21
379.571	19
380.032	28
380.493	25
380.954	31
381.414	28
381.876	29
382.337	29
382.798	30
383.259	31
383.72	31
384.181	31
384.642	30
385.104	32
385.565	40
386.026	39
386.488	42
386.949	42
387.411	39
387.872	45
388.334	46
388.795	46
389.257	49
389.719	46
390.181	50
390.642	53
391.104	50
391.566	51
392.028	57
392.49	59
392.952	57
393.414	57
393.876	63
394.338	51
394.8	59
395.262	55
395.724	64
396.186	63
396.648	67
397.111	67
397.573	72
398.035	67
398.498	69
398.96	73
399.423	67
399.885	71
400.348	76
400.81	78
401.273	78
401.736	79
402.198	82
402.661	86
403.124	82
403.587	96
404.049	93.5
404.512	91
404.975	92
405.438	100
405.901	99
406.364	98
406.827	99
407.29	98
407.754	98
408.217	102
408.68	101
409.143	103
409.607	110
410.07	112
410.533	107
410.997	111
411.46	110
411.924	117
412.387	114
412.851	114
413.314	122
413.778	115
414.242	122
414.705	130
415.169	126
415.633	126
416.097	124
416.561	130
417.024	132
417.488	131
417.952	138
418.416	133
418.88	124
419.344	127
419.809	134
420.273	137
420.737	135
421.201	141
421.665	143
422.13	143
422.594	153
423.059	151
423.523	154
423.987	154
424.452	160
424.916	165
425.381	169
425.846	165
426.31	177
426.775	181
427.24	177
427.704	176
428.169	180
428.634	184
429.099	184
429.564	180
430.029	181
430.494	184
430.959	183
431.424	186
431.889	191
432.354	198
432.819	190
433.284	201
433.75	200
434.215	211
434.68	208
435.146	210
435.611	220
436.077	225
436.542	229
437.008	240
437.473	242
437.939	238
438.404	250
438.87	255
439.336	249
439.801	251
440.267	258
440.733	261
441.199	258
441.665	269
442.131	272
442.596	266
443.062	277
443.529	284
443.995	294
444.461	298
444.927	309
445.393	309
445.859	323
446.325	328
446.792	353
447.258	345
447.724	357
448.191	374
448.657	377
449.124	384
449.59	382
450.057	408
450.523	416
450.99	416
451.457	411
451.923	425
452.39	419
452.857	436
453.324	429
453.791	434
454.257	442
454.724	443
455.191	446
455.658	446
456.125	462
456.592	453
457.059	464
457.527	466
457.994	485
458.461	485
458.928	492
459.396	490
459.863	507
460.33	500
460.798	507
461.265	517
461.732	514
462.2	531
462.668	524
463.135	531
463.603	515
464.07	540
464.538	524
465.006	534
465.474	528
465.941	532
466.409	537
466.877	522
467.345	540
467.813	539
468.281	541
468.749	549
469.217	541
469.685	553
470.153	570
470.621	567
471.09	569
471.558	599
472.026	598
472.494	615
472.963	622
473.431	634
473.9	651
474.368	667
474.837	674
475.305	686
475.774	693
476.242	709
476.711	716
477.18	739
477.648	730
478.117	731
478.586	741
479.055	740
479.524	743
479.993	743
480.462	747
480.93	750
481.399	747
481.869	757
482.338	749
482.807	761
483.276	754
483.745	750
484.214	777
484.684	792
485.153	793
485.622	804
486.092	825
486.561	809
487.031	842
487.5	843
487.97	861
488.439	886
488.909	918
489.378	948
489.848	945
490.318	972
490.787	1006
491.257	1012
491.727	1017
492.197	1038
492.667	1040
493.137	1042
493.607	1056
494.077	1069
494.547	1052
495.017	1059
495.487	1072
495.957	1098
496.427	1079
496.897	1075
497.368	1093
497.838	1092
498.308	1100
498.779	1116
499.249	1116
499.719	1132
500.19	1143
500.66	1146
501.131	1160
501.602	1178
502.072	1184
502.543	1201
503.014	1249
503.484	1249
503.955	1286
504.426	1330
504.897	1337
505.368	1369
505.838	1393
506.309	1420
506.78	1461
507.251	1492
507.722	1523
508.194	1569
508.665	1583
509.136	1577
509.607	1639
510.078	1640
510.549	1642
511.021	1690
511.492	1688
511.964	1712
512.435	1743
512.906	1742
513.378	1751
513.849	1790
514.321	1791
514.793	1813
515.264	1832
515.736	1854
516.208	1895
516.679	1919
517.151	1939
517.623	1934
518.095	1978
518.567	1987
519.038	2028
519.51	2027
519.982	2042
520.454	2061
520.927	2091
521.399	2142
521.871	2150
522.343	2158
522.815	2181
523.287	2193
523.76	2220
524.232	2247
524.704	2256
525.177	2226
525.649	2241
526.122	2267
526.594	2225
527.067	2277
527.539	2312
528.012	2290
528.484	2286
528.957	2306
529.43	2296
529.903	2278
530.375	2352
530.848	2300
531.321	2338
531.794	2338
532.267	2411
532.74	2373
533.213	2357
533.686	2400
534.159	2402
534.632	2460
535.105	2485
535.578	2537
536.051	2555
536.525	2549
536.998	2538
537.471	2599
537.945	2562
538.418	2590
538.891	2586
539.365	2636
539.838	2656
540.312	2652
540.786	2653
541.259	2657
541.733	2708
542.206	2727
542.68	2686
543.154	2684
543.628	2702
544.101	2767
544.575	2727
545.049	2656
545.523	2704
545.997	2713
546.471	2730
546.945	2707
547.419	2743
547.893	2642
548.367	2704
548.842	2672
549.316	2691
549.79	2715
550.264	2700
550.739	2723
551.213	2720
551.687	2721
552.162	2747
552.636	2729
553.111	2734
553.585	2843
554.06	2812
554.534	2850
555.009	2838
555.484	2882
555.958	2903
556.433	2904
556.908	2945
557.383	2932
557.858	3010
558.333	3018
558.807	3006
559.282	3032
559.757	3103
560.232	3106
560.708	3054
561.183	3037
561.658	3089
562.133	3075
562.608	3040
563.083	3124
563.559	3061
564.034	3085
564.509	3082
564.985	3080
565.46	3040
565.936	3105
566.411	3109
566.887	3079
567.362	3099
567.838	3111
568.313	3149
568.789	3095
569.265	3086
569.74	3122
570.216	3099
570.692	3148
571.168	3149
571.644	3157
572.12	3177
572.596	3211
573.071	3215
573.547	3321
574.024	3355
574.5	3369
574.976	3374
575.452	3420
575.928	3441
576.404	3474
576.881	3579
577.357	3529
577.833	3551
578.31	3644
578.786	3682
579.262	3721
579.739	3656
580.215	3779
580.692	3789
581.169	3758
581.645	3766
582.122	3867
582.598	3887
583.075	3901
583.552	3931
584.029	3904
584.506	3869
584.982	3835
585.459	3947
585.936	3883
586.413	3925
586.89	3999
587.367	3949
587.844	4001
588.321	3968
588.799	3996
589.276	3963
589.753	4032
590.23	4050
590.707	4030
591.185	4028
591.662	4056
592.139	4091
592.617	4133
593.094	4119
593.572	4158
594.049	4237
594.527	4283
595.004	4281
595.482	4405
595.96	4404
596.437	4412
596.915	4491
597.393	4404
597.871	4509
598.349	4492
598.826	4583
599.304	4580
599.782	4667
600.26	4613
600.738	4717
601.216	4694
601.694	4715
602.173	4732
602.651	4744
603.129	4680
603.607	4718
604.085	4745
604.564	4757
605.042	4764
605.52	4730
605.999	4853
606.477	4714
606.956	4703
607.434	4763.5
607.913	4824
608.391	4810
608.87	4804
609.348	4713
609.827	4728
610.306	4767
610.785	4799
611.263	4814
611.742	4779
612.221	4728
612.7	4792
613.179	4809
613.658	4754
614.137	4833
614.616	4867
615.095	4775
615.574	4835
616.053	4861
616.532	4817
617.011	4844
617.491	4889
617.97	4846
618.449	4893
618.928	4920
619.408	4890
619.887	4951
620.367	4959
620.846	5030
621.326	4997
621.805	5105
622.285	5099
622.764	5135
623.244	5127
623.724	5149
624.203	5198
624.683	5164
625.163	5270
625.643	5271
626.123	5246
626.602	5372
627.082	5262
627.562	5240
628.042	5337
628.522	5260
629.002	5171
629.482	5223
629.963	5243
630.443	5222
630.923	5262
631.403	5263
631.883	5205
632.364	5232
632.844	5200
633.324	5248
633.805	5270
634.285	5183
634.766	5133
635.246	5133
635.727	5121
636.207	5111
636.688	5121
637.168	5112
637.649	5057
638.13	5024
638.611	5073
639.091	5094
639.572	5100
640.053	5102
640.534	5167
641.015	5163
641.496	5079
641.977	5158
642.458	5101
642.939	5123
643.42	5132
643.901	5125
644.382	5157
644.863	5106
645.345	5086
645.826	5087
646.307	5081
646.788	5165
647.27	5080
647.751	5059
648.233	5095
648.714	4983
649.196	5110
649.677	5078
650.159	5072
650.64	5023
651.122	5112
651.603	5038
652.085	5071
652.567	5096
653.049	5050
653.53	5054
654.012	5103
654.494	5050
654.976	5149
655.458	5132
655.94	5127
656.422	5207
656.904	5098
657.386	5041
657.868	5077
658.35	5068
658.833	5109
659.315	5122
659.797	5029
660.279	4990
660.762	5017
661.244	4957
661.726	4900
662.209	4894
662.691	4886
663.174	4797
663.656	4837
664.139	4833
664.621	4757
665.104	4720
665.587	4744
666.069	4777
666.552	4776
667.035	4700
667.517	4709
668	4761
668.483	4758
668.966	4711
669.449	4700
669.932	4712
670.415	4776
670.898	4751
671.381	4761
671.864	4773
672.347	4721
672.83	4752
673.313	4748
673.797	4727
674.28	4830
674.763	4846
675.247	4847
675.73	4808
676.213	4847
676.697	4856
677.18	4887
677.664	4893
678.147	4873
678.631	4903
679.114	4915
679.598	4895
680.082	4922
680.565	4879
681.049	4856
681.533	4847
682.017	4886
682.5	4885
682.984	4894
683.468	4877
683.952	4788
684.436	4884
684.92	4793
685.404	4788
685.888	4842
686.372	4814
686.856	4823
687.341	4879
687.825	4820
688.309	4875
688.793	4898
689.278	4817
689.762	4832
690.246	4813
690.731	4814
691.215	4877
691.7	4782
692.184	4838
692.669	4809
693.153	4811
693.638	4733
694.122	4715
694.607	4771
695.092	4709
695.577	4759
696.061	4666
696.546	4652
697.031	4608
697.516	4619
698.001	4598
698.486	4570
698.971	4586
699.456	4489
699.941	4509
700.426	4507
700.911	4563
701.396	4510
701.881	4529
702.366	4452
702.852	4426
703.337	4446
703.822	4455
704.308	4476
704.793	4514
705.278	4534
705.764	4543
706.249	4530
706.735	4506
707.22	4547
707.706	4503
708.191	4590
708.677	4575
709.163	4516
709.648	4536
710.134	4618
710.62	4568
711.106	4582
711.592	4639
712.077	4606
712.563	4516
713.049	4497
713.535	4603
714.021	4558
714.507	4532
714.993	4471
715.479	4497
715.966	4426
716.452	4429
716.938	4432
717.424	4273
717.91	4354
718.397	4314
718.883	4273
719.369	4285
719.856	4232
720.342	4328
720.829	4262
721.315	4299
721.802	4260
722.288	4298
722.775	4135
723.262	4035
723.748	4193
724.235	4168
724.722	4204
725.208	4105
725.695	4095
726.182	4083
726.669	4047
727.156	4066
727.643	4004
728.13	4007
728.617	3998
729.104	4036
729.591	3986
730.078	4030
730.565	4039
731.052	3997
731.539	4006
732.027	3960
732.514	3879
733.001	3913
733.488	3878
733.976	3905
734.463	3873
734.951	3855
735.438	3878
735.926	3835
736.413	3849
736.901	3837
737.388	3865
737.876	3851
738.364	3809
738.851	3821
739.339	3817
739.827	3845
740.314	3727
740.802	3746
741.29	3759
741.778	3701
742.266	3713
742.754	3719
743.242	3751
743.73	3679
744.218	3691
744.706	3650
745.194	3661
745.682	3614
746.17	3608
746.659	3619
747.147	3535
747.635	3566
748.123	3544
748.612	3499
749.1	3479
749.589	3522
750.077	3516
750.566	3517
751.054	3546
751.543	3547
752.031	3455
752.52	3445
753.008	3382
753.497	3399
753.986	3371
754.474	3345
754.963	3369
755.452	3302
755.941	3298
756.43	3308
756.919	3292
757.408	3238
757.896	3236
758.385	3238
758.875	3212
759.364	3190
759.853	3148
760.342	3098
760.831	3176
761.32	3138
761.809	3088
762.299	3098
762.788	3090
763.277	3066
763.767	3015
764.256	3010
764.745	2995
765.235	3056
765.724	2954
766.214	2995
766.703	2948
767.193	2877
767.683	2877
768.172	2836
768.662	2860
769.152	2841
769.641	2841
770.131	2776
770.621	2825
771.111	2782
771.601	2784
772.09	2775
772.58	2742
773.07	2756
773.56	2766
774.05	2703
774.54	2693
775.031	2681
775.521	2674
776.011	2685
776.501	2712
776.991	2640
777.482	2648
777.972	2585
778.462	2576
778.953	2597
779.443	2575
779.933	2558
780.424	2527
780.914	2551
781.405	2550
781.895	2542
782.386	2550
782.877	2530
783.367	2465
783.858	2445
784.349	2447
784.839	2445
785.33	2448
785.821	2417
786.312	2391
786.803	2393
787.293	2387
787.784	2346
788.275	2302
788.766	2267
789.257	2295
789.748	2247
790.24	2222
790.731	2239
791.222	2204
791.713	2202
792.204	2204
792.696	2152
793.187	2182
793.678	2175
794.169	2100
794.661	2121
795.152	2096
795.644	2074
796.135	2085
796.627	2092
797.118	2044
797.61	2022
798.101	1990
798.593	2020
799.085	1974
799.576	1986
800.068	1966
800.56	1976
801.052	1932
801.544	1934
802.035	1923
802.527	1895
803.019	1877
803.511	1856
804.003	1833
804.495	1846
804.987	1837
805.479	1797
805.971	1814
806.464	1812
806.956	1773
807.448	1766
807.94	1760
808.433	1747
808.925	1742
809.417	1716
809.91	1697
810.402	1648
810.894	1664
811.387	1666
811.879	1641
812.372	1663
812.865	1644
813.357	1628
813.85	1616
814.342	1603
814.835	1601
815.328	1600
815.821	1583
816.313	1576
816.806	1574
817.299	1563
817.792	1571
818.285	1542
818.778	1571
819.271	1581
819.764	1555
820.257	1563
820.75	1546
821.243	1547
821.736	1533
822.229	1545
822.722	1539
823.216	1574
