Data from lamp4bck_Subt2__82__582.txt Node

Date: Wed Apr 09 11:16:26 CEST 2025
User: fys-lab-0081
Spectrometer: S04999
Trigger mode: 0
Resolution mode: 1024 pixels
Integration Time (sec): 1.000000E-1
Scans to average: 1
Nonlinearity correction enabled: false
Boxcar width: 0
Baseline correction enabled: true
XAxis mode: Wavelengths
Number of Pixels in Spectrum: 1024
>>>>>Begin Spectral Data<<<<<
336.42	3
336.877	3
337.334	1
337.792	1
338.249	3
338.706	2
339.164	2
339.621	1
340.079	3
340.536	4
340.994	0
341.452	10
341.909	7
342.367	-1
342.825	1
343.283	10
343.741	5
344.198	1
344.656	3
345.114	2
345.572	6
346.03	1
346.488	3
346.947	1
347.405	6
347.863	4
348.321	2
348.779	9
349.238	5
349.696	7
350.154	0
350.613	4
351.071	8
351.53	11
351.988	4
352.447	4
352.905	0
353.364	8
353.823	6
354.282	2
354.74	0
355.199	6
355.658	11
356.117	3
356.576	5
357.035	3
357.494	9
357.953	5
358.412	8
358.871	7
359.33	6
359.789	7
360.249	6
360.708	7
361.167	11
361.626	10
362.086	11
362.545	8
363.005	10
363.464	8
363.924	9
364.383	8
364.843	13
365.303	15
365.762	12
366.222	9
366.682	10
367.142	10
367.601	14
368.061	15
368.521	14
368.981	11
369.441	21
369.901	15
370.361	13
370.821	14
371.282	16
371.742	15
372.202	19
372.662	15
373.123	17
373.583	18
374.043	25
374.504	17
374.964	20
375.425	18
375.885	20
376.346	22
376.806	23
377.267	20
377.728	19
378.188	23
378.649	22
379.11	25
379.571	19
380.032	23
380.493	27
380.954	32
381.414	26
381.876	25
382.337	28
382.798	30
383.259	38
383.72	35
384.181	29
384.642	35
385.104	34
385.565	36
386.026	40
386.488	41
386.949	41
387.411	41
387.872	43
388.334	47
388.795	49
389.257	49
389.719	45
390.181	51
390.642	46
391.104	49
391.566	55
392.028	52
392.49	60
392.952	58
393.414	59
393.876	61
394.338	55
394.8	58
395.262	62
395.724	67
396.186	66
396.648	65
397.111	66
397.573	69
398.035	69
398.498	71
398.96	75
399.423	69
399.885	74
400.348	79
400.81	80
401.273	78
401.736	77
402.198	88
402.661	94
403.124	82
403.587	92
404.049	91.5
404.512	91
404.975	95
405.438	96
405.901	101
406.364	98
406.827	100
407.29	97
407.754	100
408.217	99
408.68	97
409.143	106
409.607	116
410.07	109
410.533	102
410.997	108
411.46	110
411.924	117
412.387	116
412.851	115
413.314	116
413.778	120
414.242	123
414.705	132
415.169	130
415.633	122
416.097	125
416.561	130
417.024	135
417.488	133
417.952	132
418.416	130
418.88	125
419.344	126
419.809	137
420.273	139
420.737	135
421.201	139
421.665	142
422.13	149
422.594	155
423.059	154
423.523	156
423.987	154
424.452	164
424.916	166
425.381	168
425.846	164
426.31	181
426.775	180
427.24	181
427.704	176
428.169	184
428.634	183
429.099	184
429.564	184
430.029	186
430.494	185
430.959	186
431.424	181
431.889	194
432.354	196
432.819	191
433.284	207
433.75	204
434.215	216
434.68	209
435.146	212
435.611	221
436.077	232
436.542	232
437.008	241
437.473	244
437.939	240
438.404	252
438.87	261
439.336	252
439.801	251
440.267	260
440.733	264
441.199	268
441.665	263
442.131	273
442.596	270
443.062	280
443.529	293
443.995	298
444.461	297
444.927	309
445.393	314
445.859	324
446.325	333
446.792	353
447.258	349
447.724	361
448.191	375
448.657	384
449.124	385
449.59	383
450.057	411
450.523	413
450.99	418
451.457	418
451.923	428
452.39	421
452.857	438
453.324	431
453.791	439
454.257	441
454.724	449
455.191	443
455.658	450
456.125	465
456.592	458
457.059	465
457.527	471
457.994	489
458.461	489
458.928	497
459.396	492
459.863	510
460.33	511
460.798	508
461.265	519
461.732	516
462.2	531
462.668	525
463.135	528
463.603	518
464.07	539
464.538	525
465.006	539
465.474	530
465.941	536
466.409	538
466.877	524
467.345	542
467.813	535
468.281	544
468.749	553
469.217	544
469.685	552
470.153	573
470.621	572
471.09	569
471.558	599
472.026	598
472.494	621
472.963	626
473.431	643
473.9	650
474.368	668
474.837	679
475.305	683
475.774	695
476.242	714
476.711	720
477.18	744
477.648	733
478.117	738
478.586	744
479.055	745
479.524	748
479.993	748
480.462	745
480.93	757
481.399	753
481.869	761
482.338	749
482.807	768
483.276	763
483.745	754
484.214	781
484.684	797
485.153	802
485.622	803
486.092	828
486.561	817
487.031	847
487.5	856
487.97	869
488.439	893
488.909	917
489.378	951
489.848	949
490.318	973
490.787	1014
491.257	1013
491.727	1023
492.197	1040
492.667	1050
493.137	1049
493.607	1063
494.077	1076
494.547	1061
495.017	1057
495.487	1075
495.957	1109
496.427	1089
496.897	1081
497.368	1103
497.838	1092
498.308	1107
498.779	1116
499.249	1127
499.719	1138
500.19	1148
500.66	1153
501.131	1165
501.602	1193
502.072	1192
502.543	1212
503.014	1261
503.484	1260
503.955	1296
504.426	1342
504.897	1349
505.368	1367
505.838	1405
506.309	1428
506.78	1470
507.251	1500
507.722	1530
508.194	1575
508.665	1599
509.136	1592
509.607	1641
510.078	1653
510.549	1651
511.021	1698
511.492	1698
511.964	1723
512.435	1752
512.906	1746
513.378	1764
513.849	1796
514.321	1797
514.793	1820
515.264	1848
515.736	1864
516.208	1906
516.679	1931
517.151	1944
517.623	1953
518.095	1981
518.567	2002
519.038	2045
519.51	2037
519.982	2052
520.454	2068
520.927	2104
521.399	2153
521.871	2164
522.343	2171
522.815	2198
523.287	2204
523.76	2230
524.232	2258
524.704	2274
525.177	2245
525.649	2256
526.122	2279
526.594	2234
527.067	2290
527.539	2321
528.012	2303
528.484	2299
528.957	2322
529.43	2306
529.903	2298
530.375	2360
530.848	2314
531.321	2356
531.794	2359
532.267	2422
532.74	2399
533.213	2383
533.686	2414
534.159	2414
534.632	2470
535.105	2500
535.578	2566
536.051	2572
536.525	2561
536.998	2559
537.471	2617
537.945	2574
538.418	2611
538.891	2601
539.365	2655
539.838	2669
540.312	2669
540.786	2678
541.259	2672
541.733	2726
542.206	2744
542.68	2702
543.154	2698
543.628	2728
544.101	2791
544.575	2751
545.049	2675
545.523	2726
545.997	2739
546.471	2746
546.945	2727
547.419	2764
547.893	2667
548.367	2720
548.842	2690
549.316	2712
549.79	2742
550.264	2717
550.739	2746
551.213	2739
551.687	2738
552.162	2769
552.636	2761
553.111	2762
553.585	2855
554.06	2815
554.534	2873
555.009	2856
555.484	2901
555.958	2932
556.433	2922
556.908	2964
557.383	2951
557.858	3034
558.333	3041
558.807	3028
559.282	3054
559.757	3131
560.232	3122
560.708	3076
561.183	3063
561.658	3110
562.133	3092
562.608	3062
563.083	3143
563.559	3086
564.034	3106
564.509	3115
564.985	3103
565.46	3061
565.936	3126
566.411	3129
566.887	3095
567.362	3131
567.838	3138
568.313	3178
568.789	3114
569.265	3106
569.74	3145
570.216	3129
570.692	3174
571.168	3169
571.644	3174
572.12	3196
572.596	3231
573.071	3232
573.547	3343
574.024	3385
574.5	3387
574.976	3400
575.452	3449
575.928	3474
576.404	3499
576.881	3612
577.357	3555
577.833	3571
578.31	3672
578.786	3697
579.262	3748
579.739	3688
580.215	3811
580.692	3807
581.169	3780
581.645	3790
582.122	3892
582.598	3909
583.075	3934
583.552	3960
584.029	3928
584.506	3886
584.982	3871
585.459	3977
585.936	3912
586.413	3960
586.89	4027
587.367	3987
587.844	4036
588.321	3989
588.799	4029
589.276	3992
589.753	4068
590.23	4073
590.707	4054
591.185	4065
591.662	4072
592.139	4107
592.617	4169
593.094	4141
593.572	4192
594.049	4253
594.527	4307
595.004	4311
595.482	4428
595.96	4438
596.437	4439
596.915	4526
597.393	4436
597.871	4551
598.349	4519
598.826	4609
599.304	4607
599.782	4699
600.26	4654
600.738	4748
601.216	4729
601.694	4741
602.173	4759
602.651	4780
603.129	4716
603.607	4747
604.085	4774
604.564	4788
605.042	4791
605.52	4761
605.999	4880
606.477	4747
606.956	4741
607.434	4800.5
607.913	4860
608.391	4839
608.87	4836
609.348	4746
609.827	4756
610.306	4796
610.785	4833
611.263	4847
611.742	4814
612.221	4755
612.7	4829
613.179	4843
613.658	4790
614.137	4869
614.616	4907
615.095	4809
615.574	4871
616.053	4891
616.532	4854
617.011	4882
617.491	4914
617.97	4878
618.449	4929
618.928	4955
619.408	4927
619.887	4985
620.367	5006
620.846	5055
621.326	5019
621.805	5141
622.285	5135
622.764	5170
623.244	5162
623.724	5195
624.203	5236
624.683	5193
625.163	5310
625.643	5306
626.123	5285
626.602	5410
627.082	5297
627.562	5280
628.042	5369
628.522	5295
629.002	5205
629.482	5255
629.963	5287
630.443	5249
630.923	5296
631.403	5310
631.883	5241
632.364	5273
632.844	5235
633.324	5274
633.805	5302
634.285	5222
634.766	5159
635.246	5157
635.727	5146
636.207	5142
636.688	5144
637.168	5139
637.649	5083
638.13	5051
638.611	5106
639.091	5131
639.572	5134
640.053	5129
640.534	5192
641.015	5197
641.496	5109
641.977	5193
642.458	5138
642.939	5160
643.42	5163
643.901	5162
644.382	5187
644.863	5144
645.345	5133
645.826	5132
646.307	5123
646.788	5212
647.27	5117
647.751	5104
648.233	5127
648.714	5001
649.196	5146
649.677	5110
650.159	5106
650.64	5068
651.122	5148
651.603	5064
652.085	5113
652.567	5124
653.049	5092
653.53	5076
654.012	5162
654.494	5085
654.976	5188
655.458	5175
655.94	5159
656.422	5237
656.904	5135
657.386	5073
657.868	5110
658.35	5111
658.833	5152
659.315	5156
659.797	5071
660.279	5015
660.762	5050
661.244	5000
661.726	4938
662.209	4931
662.691	4927
663.174	4835
663.656	4870
664.139	4864
664.621	4793
665.104	4751
665.587	4775
666.069	4815
666.552	4808
667.035	4740
667.517	4754
668	4794
668.483	4792
668.966	4747
669.449	4730
669.932	4746
670.415	4818
670.898	4781
671.381	4786
671.864	4816
672.347	4767
672.83	4792
673.313	4786
673.797	4761
674.28	4866
674.763	4882
675.247	4895
675.73	4853
676.213	4883
676.697	4899
677.18	4917
677.664	4927
678.147	4905
678.631	4927
679.114	4952
679.598	4936
680.082	4955
680.565	4913
681.049	4895
681.533	4874
682.017	4921
682.5	4923
682.984	4934
683.468	4918
683.952	4826
684.436	4919
684.92	4828
685.404	4834
685.888	4880
686.372	4846
686.856	4857
687.341	4916
687.825	4863
688.309	4903
688.793	4929
689.278	4850
689.762	4877
690.246	4841
690.731	4865
691.215	4901
691.7	4816
692.184	4884
692.669	4843
693.153	4843
693.638	4755
694.122	4762
694.607	4817
695.092	4753
695.577	4799
696.061	4693
696.546	4678
697.031	4647
697.516	4658
698.001	4642
698.486	4601
698.971	4630
699.456	4526
699.941	4535
700.426	4543
700.911	4604
701.396	4556
701.881	4556
702.366	4498
702.852	4464
703.337	4481
703.822	4489
704.308	4511
704.793	4556
705.278	4566
705.764	4591
706.249	4567
706.735	4554
707.22	4591
707.706	4550
708.191	4625
708.677	4621
709.163	4561
709.648	4579
710.134	4648
710.62	4612
711.106	4615
711.592	4686
712.077	4657
712.563	4547
713.049	4542
713.535	4637
714.021	4594
714.507	4562
714.993	4508
715.479	4541
715.966	4469
716.452	4467
716.938	4463
717.424	4330
717.91	4408
718.397	4364
718.883	4318
719.369	4323
719.856	4283
720.342	4369
720.829	4313
721.315	4337
721.802	4301
722.288	4329
722.775	4174
723.262	4079
723.748	4230
724.235	4203
724.722	4244
725.208	4149
725.695	4130
726.182	4120
726.669	4072
727.156	4100
727.643	4046
728.13	4038
728.617	4029
729.104	4056
729.591	4003
730.078	4066
730.565	4079
731.052	4027
731.539	4035
732.027	3990
732.514	3915
733.001	3951
733.488	3925
733.976	3935
734.463	3911
734.951	3880
735.438	3907
735.926	3863
736.413	3877
736.901	3869
737.388	3903
737.876	3872
738.364	3833
738.851	3853
739.339	3846
739.827	3888
740.314	3761
740.802	3773
741.29	3785
741.778	3745
742.266	3738
742.754	3741
743.242	3777
743.73	3725
744.218	3729
744.706	3677
745.194	3698
745.682	3645
746.17	3644
746.659	3641
747.147	3563
747.635	3597
748.123	3581
748.612	3533
749.1	3511
749.589	3552
750.077	3548
750.566	3541
751.054	3580
751.543	3582
752.031	3496
752.52	3492
753.008	3423
753.497	3428
753.986	3396
754.474	3379
754.963	3395
755.452	3332
755.941	3335
756.43	3345
756.919	3314
757.408	3263
757.896	3266
758.385	3271
758.875	3238
759.364	3221
759.853	3183
760.342	3135
760.831	3203
761.32	3170
761.809	3118
762.299	3122
762.788	3119
763.277	3104
763.767	3049
764.256	3043
764.745	3037
765.235	3089
765.724	2990
766.214	3028
766.703	2979
767.193	2905
767.683	2911
768.172	2868
768.662	2903
769.152	2868
769.641	2873
770.131	2812
770.621	2854
771.111	2809
771.601	2806
772.09	2803
772.58	2771
773.07	2777
773.56	2785
774.05	2729
774.54	2716
775.031	2705
775.521	2711
776.011	2717
776.501	2734
776.991	2663
777.482	2676
777.972	2609
778.462	2608
778.953	2628
779.443	2605
779.933	2580
780.424	2560
780.914	2580
781.405	2582
781.895	2571
782.386	2565
782.877	2544
783.367	2492
783.858	2469
784.349	2477
784.839	2462
785.33	2463
785.821	2440
786.312	2414
786.803	2418
787.293	2406
787.784	2359
788.275	2323
788.766	2287
789.257	2316
789.748	2269
790.24	2245
790.731	2252
791.222	2222
791.713	2211
792.204	2236
792.696	2179
793.187	2198
793.678	2186
794.169	2111
794.661	2143
795.152	2111
795.644	2093
796.135	2097
796.627	2109
797.118	2069
797.61	2038
798.101	2007
798.593	2036
799.085	2003
799.576	2013
800.068	1987
800.56	1997
801.052	1957
801.544	1951
802.035	1948
802.527	1918
803.019	1891
803.511	1877
804.003	1849
804.495	1863
804.987	1853
805.479	1812
805.971	1828
806.464	1830
806.956	1794
807.448	1784
807.94	1779
808.433	1762
808.925	1758
809.417	1730
809.91	1721
810.402	1674
810.894	1677
811.387	1683
811.879	1655
812.372	1674
812.865	1657
813.357	1649
813.85	1632
814.342	1628
814.835	1631
815.328	1611
815.821	1593
816.313	1595
816.806	1591
817.299	1576
817.792	1587
818.285	1557
818.778	1587
819.271	1587
819.764	1568
820.257	1575
820.75	1569
821.243	1567
821.736	1542
822.229	1554
822.722	1555
823.216	1593
