Data from lamp4bck_Subt2__76__576.txt Node

Date: Wed Apr 09 11:16:25 CEST 2025
User: fys-lab-0081
Spectrometer: S04999
Trigger mode: 0
Resolution mode: 1024 pixels
Integration Time (sec): 1.000000E-1
Scans to average: 1
Nonlinearity correction enabled: false
Boxcar width: 0
Baseline correction enabled: true
XAxis mode: Wavelengths
Number of Pixels in Spectrum: 1024
>>>>>Begin Spectral Data<<<<<
336.42	3
336.877	3
337.334	0
337.792	0
338.249	3
338.706	1
339.164	6
339.621	3
340.079	8
340.536	2
340.994	0
341.452	5
341.909	6
342.367	2
342.825	-1
343.283	5
343.741	1
344.198	0
344.656	-2
345.114	-1
345.572	5
346.03	4
346.488	0
346.947	0
347.405	5
347.863	2
348.321	0
348.779	9
349.238	3
349.696	7
350.154	3
350.613	1
351.071	9
351.53	10
351.988	5
352.447	6
352.905	1
353.364	4
353.823	11
354.282	6
354.74	-1
355.199	5
355.658	9
356.117	3
356.576	7
357.035	1
357.494	7
357.953	8
358.412	9
358.871	11
359.33	7
359.789	8
360.249	7
360.708	8
361.167	12
361.626	9
362.086	6
362.545	9
363.005	13
363.464	9
363.924	7
364.383	10
364.843	10
365.303	19
365.762	17
366.222	13
366.682	15
367.142	14
367.601	8
368.061	11
368.521	12
368.981	11
369.441	19
369.901	19
370.361	17
370.821	15
371.282	15
371.742	15
372.202	19
372.662	20
373.123	16
373.583	19
374.043	19
374.504	19
374.964	16
375.425	24
375.885	20
376.346	25
376.806	24
377.267	18
377.728	23
378.188	27
378.649	22
379.11	26
379.571	21
380.032	27
380.493	25
380.954	31
381.414	27
381.876	33
382.337	29
382.798	29
383.259	33
383.72	32
384.181	30
384.642	36
385.104	34
385.565	37
386.026	40
386.488	42
386.949	42
387.411	42
387.872	46
388.334	51
388.795	49
389.257	45
389.719	47
390.181	50
390.642	45
391.104	53
391.566	53
392.028	55
392.49	60
392.952	59
393.414	60
393.876	65
394.338	61
394.8	60
395.262	57
395.724	66
396.186	66
396.648	68
397.111	65
397.573	72
398.035	67
398.498	68
398.96	73
399.423	70
399.885	70
400.348	78
400.81	78
401.273	76
401.736	80
402.198	86
402.661	87
403.124	85
403.587	92
404.049	93
404.512	94
404.975	99
405.438	96
405.901	98
406.364	98
406.827	96
407.29	98
407.754	97
408.217	102
408.68	101
409.143	109
409.607	113
410.07	106
410.533	105
410.997	109
411.46	115
411.924	121
412.387	115
412.851	117
413.314	117
413.778	122
414.242	123
414.705	131
415.169	128
415.633	125
416.097	126
416.561	138
417.024	131
417.488	133
417.952	135
418.416	131
418.88	128
419.344	126
419.809	134
420.273	137
420.737	138
421.201	139
421.665	141
422.13	144
422.594	155
423.059	155
423.523	154
423.987	152
424.452	162
424.916	169
425.381	172
425.846	165
426.31	176
426.775	179
427.24	180
427.704	177
428.169	183
428.634	187
429.099	181
429.564	183
430.029	187
430.494	183
430.959	188
431.424	182
431.889	197
432.354	197
432.819	186
433.284	207
433.75	206
434.215	210
434.68	211
435.146	216
435.611	221
436.077	231
436.542	228
437.008	241
437.473	244
437.939	245
438.404	253
438.87	254
439.336	252
439.801	256
440.267	260
440.733	260
441.199	264
441.665	270
442.131	277
442.596	268
443.062	277
443.529	289
443.995	296
444.461	299
444.927	312
445.393	312
445.859	324
446.325	334
446.792	355
447.258	354
447.724	363
448.191	375
448.657	379
449.124	391
449.59	384
450.057	410
450.523	413
450.99	422
451.457	415
451.923	426
452.39	425
452.857	442
453.324	428
453.791	439
454.257	445
454.724	447
455.191	451
455.658	447
456.125	465
456.592	459
457.059	468
457.527	475
457.994	485
458.461	493
458.928	498
459.396	494
459.863	510
460.33	507
460.798	514
461.265	521
461.732	516
462.2	533
462.668	523
463.135	533
463.603	520
464.07	540
464.538	523
465.006	541
465.474	536
465.941	535
466.409	540
466.877	526
467.345	542
467.813	537
468.281	547
468.749	552
469.217	549
469.685	559
470.153	574
470.621	569
471.09	577
471.558	603
472.026	603
472.494	616
472.963	620
473.431	640
473.9	656
474.368	668
474.837	682
475.305	686
475.774	697
476.242	715
476.711	718
477.18	744
477.648	735
478.117	738
478.586	740
479.055	743
479.524	751
479.993	750
480.462	752
480.93	759
481.399	755
481.869	761
482.338	750
482.807	762
483.276	763
483.745	761
484.214	784
484.684	797
485.153	802
485.622	811
486.092	837
486.561	811
487.031	851
487.5	859
487.97	871
488.439	897
488.909	918
489.378	957
489.848	958
490.318	971
490.787	1017
491.257	1023
491.727	1025
492.197	1034
492.667	1043
493.137	1059
493.607	1069
494.077	1076
494.547	1066
495.017	1061
495.487	1082
495.957	1109
496.427	1087
496.897	1088
497.368	1106
497.838	1093
498.308	1110
498.779	1122
499.249	1127
499.719	1141
500.19	1148
500.66	1154
501.131	1163
501.602	1186
502.072	1192
502.543	1211
503.014	1260
503.484	1262
503.955	1295
504.426	1348
504.897	1348
505.368	1375
505.838	1411
506.309	1432
506.78	1477
507.251	1505
507.722	1532
508.194	1571
508.665	1601
509.136	1594
509.607	1640
510.078	1654
510.549	1656
511.021	1700
511.492	1706
511.964	1724
512.435	1758
512.906	1754
513.378	1769
513.849	1800
514.321	1803
514.793	1822
515.264	1845
515.736	1872
516.208	1915
516.679	1924
517.151	1950
517.623	1955
518.095	1996
518.567	2008
519.038	2046
519.51	2043
519.982	2061
520.454	2075
520.927	2111
521.399	2152
521.871	2174
522.343	2169
522.815	2204
523.287	2210
523.76	2243
524.232	2268
524.704	2280
525.177	2253
525.649	2258
526.122	2289
526.594	2241
527.067	2298
527.539	2319
528.012	2306
528.484	2304
528.957	2317
529.43	2310
529.903	2299
530.375	2366
530.848	2320
531.321	2361
531.794	2367
532.267	2436
532.74	2401
533.213	2383
533.686	2421
534.159	2415
534.632	2477
535.105	2508
535.578	2560
536.051	2570
536.525	2571
536.998	2562
537.471	2623
537.945	2577
538.418	2612
538.891	2603
539.365	2655
539.838	2677
540.312	2669
540.786	2686
541.259	2682
541.733	2727
542.206	2754
542.68	2707
543.154	2707
543.628	2726
544.101	2787
544.575	2748
545.049	2684
545.523	2729
545.997	2747
546.471	2754
546.945	2729
547.419	2769
547.893	2669
548.367	2724
548.842	2698
549.316	2722
549.79	2742
550.264	2725
550.739	2758
551.213	2740
551.687	2745
552.162	2784
552.636	2759
553.111	2770
553.585	2854
554.06	2832
554.534	2884
555.009	2864
555.484	2906
555.958	2934
556.433	2925
556.908	2971
557.383	2955
557.858	3039
558.333	3046
558.807	3037
559.282	3057
559.757	3133
560.232	3136
560.708	3082
561.183	3060
561.658	3124
562.133	3102
562.608	3069
563.083	3156
563.559	3089
564.034	3110
564.509	3109
564.985	3105
565.46	3065
565.936	3135
566.411	3137
566.887	3104
567.362	3132
567.838	3146
568.313	3178
568.789	3119
569.265	3114
569.74	3147
570.216	3130
570.692	3179
571.168	3172
571.644	3187
572.12	3207
572.596	3242
573.071	3244
573.547	3347
574.024	3385
574.5	3402
574.976	3410
575.452	3453
575.928	3477
576.404	3510
576.881	3616
577.357	3559
577.833	3572
578.31	3671
578.786	3712
579.262	3754
579.739	3692
580.215	3815
580.692	3818
581.169	3797
581.645	3800
582.122	3914
582.598	3909
583.075	3943
583.552	3962
584.029	3943
584.506	3894
584.982	3873
585.459	3986
585.936	3917
586.413	3971
586.89	4035
587.367	3988
587.844	4042
588.321	4001
588.799	4028
589.276	4000
589.753	4069
590.23	4089
590.707	4057
591.185	4074
591.662	4081
592.139	4124
592.617	4181
593.094	4161
593.572	4197
594.049	4258
594.527	4317
595.004	4319
595.482	4438
595.96	4445
596.437	4450
596.915	4538
597.393	4445
597.871	4551
598.349	4524
598.826	4618
599.304	4625
599.782	4714
600.26	4662
600.738	4755
601.216	4739
601.694	4757
602.173	4784
602.651	4789
603.129	4729
603.607	4764
604.085	4796
604.564	4790
605.042	4805
605.52	4772
605.999	4888
606.477	4760
606.956	4747
607.434	4811.5
607.913	4876
608.391	4850
608.87	4839
609.348	4762
609.827	4776
610.306	4814
610.785	4838
611.263	4860
611.742	4820
612.221	4773
612.7	4838
613.179	4844
613.658	4796
614.137	4887
614.616	4905
615.095	4822
615.574	4878
616.053	4911
616.532	4854
617.011	4892
617.491	4928
617.97	4893
618.449	4928
618.928	4959
619.408	4935
619.887	4995
620.367	5010
620.846	5063
621.326	5031
621.805	5151
622.285	5140
622.764	5188
623.244	5188
623.724	5205
624.203	5248
624.683	5211
625.163	5318
625.643	5309
626.123	5293
626.602	5419
627.082	5313
627.562	5299
628.042	5383
628.522	5298
629.002	5209
629.482	5281
629.963	5289
630.443	5272
630.923	5294
631.403	5321
631.883	5255
632.364	5271
632.844	5240
633.324	5298
633.805	5302
634.285	5230
634.766	5173
635.246	5169
635.727	5157
636.207	5156
636.688	5155
637.168	5151
637.649	5091
638.13	5070
638.611	5113
639.091	5139
639.572	5134
640.053	5155
640.534	5214
641.015	5219
641.496	5120
641.977	5196
642.458	5150
642.939	5166
643.42	5176
643.901	5168
644.382	5200
644.863	5158
645.345	5149
645.826	5142
646.307	5131
646.788	5216
647.27	5129
647.751	5115
648.233	5142
648.714	5026
649.196	5160
649.677	5129
650.159	5113
650.64	5080
651.122	5157
651.603	5080
652.085	5121
652.567	5141
653.049	5093
653.53	5081
654.012	5160
654.494	5097
654.976	5201
655.458	5184
655.94	5161
656.422	5244
656.904	5149
657.386	5085
657.868	5120
658.35	5115
658.833	5161
659.315	5170
659.797	5073
660.279	5045
660.762	5064
661.244	5007
661.726	4941
662.209	4951
662.691	4936
663.174	4847
663.656	4877
664.139	4865
664.621	4807
665.104	4755
665.587	4787
666.069	4815
666.552	4817
667.035	4753
667.517	4766
668	4816
668.483	4799
668.966	4765
669.449	4738
669.932	4750
670.415	4820
670.898	4792
671.381	4801
671.864	4822
672.347	4773
672.83	4798
673.313	4799
673.797	4774
674.28	4880
674.763	4893
675.247	4894
675.73	4857
676.213	4892
676.697	4912
677.18	4927
677.664	4942
678.147	4917
678.631	4940
679.114	4957
679.598	4936
680.082	4966
680.565	4935
681.049	4897
681.533	4887
682.017	4932
682.5	4928
682.984	4940
683.468	4923
683.952	4834
684.436	4926
684.92	4826
685.404	4833
685.888	4888
686.372	4851
686.856	4868
687.341	4922
687.825	4875
688.309	4924
688.793	4936
689.278	4864
689.762	4886
690.246	4858
690.731	4868
691.215	4922
691.7	4829
692.184	4892
692.669	4861
693.153	4857
693.638	4767
694.122	4770
694.607	4831
695.092	4764
695.577	4806
696.061	4701
696.546	4700
697.031	4659
697.516	4674
698.001	4649
698.486	4611
698.971	4636
699.456	4541
699.941	4549
700.426	4548
700.911	4607
701.396	4567
701.881	4572
702.366	4492
702.852	4468
703.337	4488
703.822	4501
704.308	4520
704.793	4556
705.278	4572
705.764	4593
706.249	4577
706.735	4560
707.22	4598
707.706	4561
708.191	4638
708.677	4615
709.163	4562
709.648	4590
710.134	4655
710.62	4615
711.106	4614
711.592	4686
712.077	4670
712.563	4545
713.049	4550
713.535	4645
714.021	4614
714.507	4576
714.993	4523
715.479	4545
715.966	4476
716.452	4472
716.938	4473
717.424	4324
717.91	4410
718.397	4362
718.883	4330
719.369	4330
719.856	4291
720.342	4373
720.829	4310
721.315	4336
721.802	4308
722.288	4329
722.775	4186
723.262	4085
723.748	4246
724.235	4211
724.722	4248
725.208	4148
725.695	4132
726.182	4131
726.669	4088
727.156	4106
727.643	4047
728.13	4049
728.617	4039
729.104	4056
729.591	4018
730.078	4064
730.565	4080
731.052	4033
731.539	4041
732.027	3994
732.514	3932
733.001	3962
733.488	3933
733.976	3935
734.463	3922
734.951	3892
735.438	3914
735.926	3864
736.413	3896
736.901	3874
737.388	3909
737.876	3887
738.364	3840
738.851	3862
739.339	3865
739.827	3890
740.314	3761
740.802	3782
741.29	3796
741.778	3756
742.266	3755
742.754	3746
743.242	3794
743.73	3735
744.218	3737
744.706	3692
745.194	3701
745.682	3660
746.17	3649
746.659	3653
747.147	3571
747.635	3594
748.123	3584
748.612	3529
749.1	3523
749.589	3553
750.077	3562
750.566	3553
751.054	3587
751.543	3594
752.031	3499
752.52	3488
753.008	3418
753.497	3429
753.986	3408
754.474	3377
754.963	3395
755.452	3341
755.941	3336
756.43	3353
756.919	3322
757.408	3277
757.896	3272
758.385	3268
758.875	3241
759.364	3225
759.853	3185
760.342	3133
760.831	3219
761.32	3174
761.809	3119
762.299	3136
762.788	3121
763.277	3103
763.767	3057
764.256	3053
764.745	3032
765.235	3090
765.724	2999
766.214	3028
766.703	2981
767.193	2911
767.683	2918
768.172	2870
768.662	2902
769.152	2876
769.641	2871
770.131	2811
770.621	2860
771.111	2816
771.601	2816
772.09	2803
772.58	2769
773.07	2784
773.56	2795
774.05	2729
774.54	2725
775.031	2712
775.521	2716
776.011	2719
776.501	2739
776.991	2667
777.482	2680
777.972	2608
778.462	2610
778.953	2626
779.443	2605
779.933	2590
780.424	2560
780.914	2583
781.405	2578
781.895	2566
782.386	2572
782.877	2554
783.367	2491
783.858	2475
784.349	2484
784.839	2470
785.33	2461
785.821	2444
786.312	2411
786.803	2417
787.293	2407
787.784	2365
788.275	2323
788.766	2293
789.257	2318
789.748	2266
790.24	2250
790.731	2257
791.222	2223
791.713	2223
792.204	2233
792.696	2182
793.187	2212
793.678	2193
794.169	2120
794.661	2152
795.152	2115
795.644	2098
796.135	2099
796.627	2119
797.118	2073
797.61	2036
798.101	2007
798.593	2036
799.085	2004
799.576	2014
800.068	1988
800.56	1997
801.052	1957
801.544	1957
802.035	1955
802.527	1923
803.019	1888
803.511	1885
804.003	1856
804.495	1863
804.987	1859
805.479	1815
805.971	1833
806.464	1835
806.956	1793
807.448	1780
807.94	1769
808.433	1765
808.925	1760
809.417	1736
809.91	1723
810.402	1672
810.894	1679
811.387	1690
811.879	1659
812.372	1677
812.865	1660
813.357	1648
813.85	1641
814.342	1627
814.835	1627
815.328	1622
815.821	1589
816.313	1588
816.806	1594
817.299	1576
817.792	1590
818.285	1557
818.778	1588
819.271	1593
819.764	1569
820.257	1571
820.75	1572
821.243	1562
821.736	1550
822.229	1560
822.722	1557
823.216	1596
