Data from lamp4bck_Subt2__30__530.txt Node

Date: Wed Apr 09 11:16:19 CEST 2025
User: fys-lab-0081
Spectrometer: S04999
Trigger mode: 0
Resolution mode: 1024 pixels
Integration Time (sec): 1.000000E-1
Scans to average: 1
Nonlinearity correction enabled: false
Boxcar width: 0
Baseline correction enabled: true
XAxis mode: Wavelengths
Number of Pixels in Spectrum: 1024
>>>>>Begin Spectral Data<<<<<
336.42	1
336.877	5
337.334	3
337.792	5
338.249	4
338.706	3
339.164	2
339.621	4
340.079	3
340.536	0
340.994	4
341.452	2
341.909	5
342.367	3
342.825	0
343.283	4
343.741	-1
344.198	3
344.656	4
345.114	6
345.572	5
346.03	0
346.488	2
346.947	6
347.405	2
347.863	4
348.321	2
348.779	7
349.238	3
349.696	3
350.154	2
350.613	2
351.071	4
351.53	13
351.988	9
352.447	4
352.905	1
353.364	7
353.823	9
354.282	2
354.74	2
355.199	10
355.658	9
356.117	3
356.576	4
357.035	2
357.494	9
357.953	3
358.412	4
358.871	9
359.33	6
359.789	4
360.249	7
360.708	10
361.167	13
361.626	9
362.086	10
362.545	12
363.005	10
363.464	9
363.924	17
364.383	8
364.843	9
365.303	13
365.762	18
366.222	11
366.682	11
367.142	14
367.601	11
368.061	10
368.521	11
368.981	13
369.441	19
369.901	19
370.361	13
370.821	13
371.282	13
371.742	18
372.202	17
372.662	25
373.123	14
373.583	18
374.043	19
374.504	16
374.964	14
375.425	19
375.885	22
376.346	22
376.806	24
377.267	18
377.728	25
378.188	26
378.649	24
379.11	23
379.571	19
380.032	24
380.493	31
380.954	27
381.414	28
381.876	29
382.337	25
382.798	28
383.259	34
383.72	33
384.181	27
384.642	34
385.104	35
385.565	37
386.026	39
386.488	41
386.949	41
387.411	44
387.872	42
388.334	44
388.795	46
389.257	49
389.719	45
390.181	50
390.642	46
391.104	48
391.566	53
392.028	53
392.49	59
392.952	59
393.414	58
393.876	64
394.338	61
394.8	56
395.262	55
395.724	68
396.186	64
396.648	65
397.111	69
397.573	72
398.035	67
398.498	68
398.96	72
399.423	69
399.885	72
400.348	76
400.81	76
401.273	79
401.736	75
402.198	85
402.661	89
403.124	80
403.587	90
404.049	92.5
404.512	95
404.975	90
405.438	97
405.901	100
406.364	99
406.827	99
407.29	99
407.754	95
408.217	101
408.68	98
409.143	106
409.607	109
410.07	104
410.533	107
410.997	108
411.46	110
411.924	110
412.387	116
412.851	115
413.314	121
413.778	120
414.242	124
414.705	125
415.169	129
415.633	124
416.097	123
416.561	133
417.024	134
417.488	132
417.952	137
418.416	126
418.88	129
419.344	129
419.809	133
420.273	137
420.737	135
421.201	143
421.665	144
422.13	148
422.594	153
423.059	150
423.523	156
423.987	153
424.452	161
424.916	163
425.381	168
425.846	169
426.31	177
426.775	175
427.24	181
427.704	178
428.169	179
428.634	185
429.099	181
429.564	177
430.029	182
430.494	185
430.959	183
431.424	185
431.889	195
432.354	197
432.819	190
433.284	204
433.75	203
434.215	214
434.68	208
435.146	214
435.611	217
436.077	227
436.542	227
437.008	245
437.473	243
437.939	238
438.404	251
438.87	257
439.336	251
439.801	250
440.267	254
440.733	265
441.199	260
441.665	266
442.131	272
442.596	266
443.062	277
443.529	292
443.995	291
444.461	294
444.927	309
445.393	309
445.859	325
446.325	327
446.792	351
447.258	346
447.724	366
448.191	372
448.657	374
449.124	383
449.59	382
450.057	410
450.523	409
450.99	419
451.457	416
451.923	425
452.39	422
452.857	433
453.324	427
453.791	435
454.257	442
454.724	448
455.191	442
455.658	451
456.125	462
456.592	460
457.059	466
457.527	470
457.994	481
458.461	485
458.928	498
459.396	494
459.863	502
460.33	507
460.798	511
461.265	520
461.732	516
462.2	527
462.668	522
463.135	530
463.603	519
464.07	538
464.538	522
465.006	536
465.474	530
465.941	538
466.409	538
466.877	518
467.345	537
467.813	536
468.281	547
468.749	548
469.217	543
469.685	557
470.153	569
470.621	572
471.09	572
471.558	593
472.026	597
472.494	617
472.963	616
473.431	635
473.9	651
474.368	668
474.837	675
475.305	682
475.774	690
476.242	712
476.711	713
477.18	740
477.648	731
478.117	740
478.586	743
479.055	743
479.524	748
479.993	743
480.462	747
480.93	746
481.399	747
481.869	755
482.338	749
482.807	764
483.276	755
483.745	760
484.214	776
484.684	791
485.153	794
485.622	805
486.092	827
486.561	813
487.031	846
487.5	857
487.97	857
488.439	891
488.909	917
489.378	944
489.848	945
490.318	967
490.787	1007
491.257	1015
491.727	1018
492.197	1034
492.667	1036
493.137	1053
493.607	1059
494.077	1071
494.547	1059
495.017	1061
495.487	1075
495.957	1104
496.427	1076
496.897	1076
497.368	1100
497.838	1094
498.308	1103
498.779	1121
499.249	1118
499.719	1132
500.19	1140
500.66	1147
501.131	1158
501.602	1182
502.072	1185
502.543	1206
503.014	1254
503.484	1249
503.955	1278
504.426	1335
504.897	1341
505.368	1366
505.838	1400
506.309	1423
506.78	1471
507.251	1501
507.722	1522
508.194	1569
508.665	1593
509.136	1574
509.607	1641
510.078	1644
510.549	1642
511.021	1690
511.492	1696
511.964	1715
512.435	1744
512.906	1741
513.378	1758
513.849	1792
514.321	1791
514.793	1812
515.264	1842
515.736	1860
516.208	1909
516.679	1914
517.151	1931
517.623	1945
518.095	1973
518.567	1995
519.038	2025
519.51	2027
519.982	2050
520.454	2066
520.927	2093
521.399	2140
521.871	2154
522.343	2163
522.815	2194
523.287	2205
523.76	2223
524.232	2258
524.704	2272
525.177	2240
525.649	2244
526.122	2265
526.594	2227
527.067	2279
527.539	2312
528.012	2292
528.484	2292
528.957	2311
529.43	2296
529.903	2281
530.375	2353
530.848	2303
531.321	2343
531.794	2353
532.267	2416
532.74	2385
533.213	2366
533.686	2403
534.159	2400
534.632	2461
535.105	2481
535.578	2549
536.051	2558
536.525	2549
536.998	2547
537.471	2604
537.945	2560
538.418	2595
538.891	2592
539.365	2640
539.838	2657
540.312	2658
540.786	2675
541.259	2666
541.733	2719
542.206	2733
542.68	2692
543.154	2684
543.628	2713
544.101	2778
544.575	2743
545.049	2657
545.523	2718
545.997	2723
546.471	2740
546.945	2719
547.419	2752
547.893	2648
548.367	2710
548.842	2677
549.316	2696
549.79	2726
550.264	2701
550.739	2730
551.213	2721
551.687	2725
552.162	2755
552.636	2751
553.111	2745
553.585	2836
554.06	2814
554.534	2868
555.009	2843
555.484	2888
555.958	2916
556.433	2915
556.908	2961
557.383	2937
557.858	3023
558.333	3034
558.807	3015
559.282	3041
559.757	3118
560.232	3113
560.708	3066
561.183	3048
561.658	3092
562.133	3073
562.608	3049
563.083	3132
563.559	3075
564.034	3090
564.509	3090
564.985	3096
565.46	3047
565.936	3122
566.411	3115
566.887	3079
567.362	3121
567.838	3119
568.313	3156
568.789	3098
569.265	3100
569.74	3118
570.216	3109
570.692	3162
571.168	3157
571.644	3169
572.12	3184
572.596	3233
573.071	3221
573.547	3325
574.024	3364
574.5	3374
574.976	3380
575.452	3428
575.928	3459
576.404	3478
576.881	3592
577.357	3535
577.833	3556
578.31	3652
578.786	3692
579.262	3725
579.739	3671
580.215	3787
580.692	3798
581.169	3766
581.645	3771
582.122	3883
582.598	3891
583.075	3917
583.552	3945
584.029	3919
584.506	3875
584.982	3859
585.459	3961
585.936	3889
586.413	3941
586.89	4007
587.367	3960
587.844	4017
588.321	3974
588.799	4012
589.276	3979
589.753	4048
590.23	4069
590.707	4036
591.185	4046
591.662	4056
592.139	4099
592.617	4141
593.094	4131
593.572	4170
594.049	4237
594.527	4294
595.004	4296
595.482	4413
595.96	4420
596.437	4427
596.915	4510
597.393	4424
597.871	4526
598.349	4498
598.826	4595
599.304	4595
599.782	4678
600.26	4633
600.738	4732
601.216	4713
601.694	4722
602.173	4746
602.651	4766
603.129	4702
603.607	4735
604.085	4769
604.564	4768
605.042	4770
605.52	4746
605.999	4861
606.477	4728
606.956	4723
607.434	4781.5
607.913	4840
608.391	4821
608.87	4812
609.348	4733
609.827	4741
610.306	4785
610.785	4813
611.263	4831
611.742	4795
612.221	4741
612.7	4804
613.179	4820
613.658	4770
614.137	4853
614.616	4883
615.095	4789
615.574	4852
616.053	4880
616.532	4836
617.011	4856
617.491	4893
617.97	4865
618.449	4907
618.928	4940
619.408	4907
619.887	4960
620.367	4976
620.846	5037
621.326	5007
621.805	5124
622.285	5113
622.764	5147
623.244	5153
623.724	5173
624.203	5222
624.683	5172
625.163	5283
625.643	5279
626.123	5266
626.602	5388
627.082	5284
627.562	5263
628.042	5351
628.522	5273
629.002	5191
629.482	5248
629.963	5261
630.443	5232
630.923	5276
631.403	5287
631.883	5219
632.364	5250
632.844	5217
633.324	5265
633.805	5288
634.285	5204
634.766	5144
635.246	5147
635.727	5122
636.207	5119
636.688	5133
637.168	5121
637.649	5061
638.13	5033
638.611	5081
639.091	5108
639.572	5115
640.053	5121
640.534	5191
641.015	5193
641.496	5093
641.977	5175
642.458	5131
642.939	5133
643.42	5138
643.901	5132
644.382	5178
644.863	5131
645.345	5110
645.826	5117
646.307	5107
646.788	5197
647.27	5108
647.751	5095
648.233	5114
648.714	4990
649.196	5137
649.677	5091
650.159	5096
650.64	5048
651.122	5129
651.603	5055
652.085	5087
652.567	5103
653.049	5065
653.53	5062
654.012	5135
654.494	5070
654.976	5174
655.458	5157
655.94	5145
656.422	5218
656.904	5132
657.386	5058
657.868	5100
658.35	5085
658.833	5130
659.315	5135
659.797	5046
660.279	5008
660.762	5032
661.244	4983
661.726	4917
662.209	4909
662.691	4903
663.174	4824
663.656	4861
664.139	4850
664.621	4787
665.104	4730
665.587	4760
666.069	4791
666.552	4793
667.035	4724
667.517	4728
668	4781
668.483	4769
668.966	4733
669.449	4713
669.932	4727
670.415	4791
670.898	4759
671.381	4775
671.864	4791
672.347	4746
672.83	4765
673.313	4770
673.797	4749
674.28	4852
674.763	4865
675.247	4862
675.73	4837
676.213	4848
676.697	4896
677.18	4901
677.664	4913
678.147	4885
678.631	4915
679.114	4940
679.598	4917
680.082	4942
680.565	4902
681.049	4869
681.533	4870
682.017	4899
682.5	4901
682.984	4906
683.468	4901
683.952	4795
684.436	4898
684.92	4810
685.404	4813
685.888	4853
686.372	4833
686.856	4851
687.341	4900
687.825	4846
688.309	4898
688.793	4924
689.278	4841
689.762	4860
690.246	4836
690.731	4840
691.215	4892
691.7	4795
692.184	4858
692.669	4829
693.153	4840
693.638	4750
694.122	4742
694.607	4798
695.092	4734
695.577	4782
696.061	4682
696.546	4680
697.031	4629
697.516	4645
698.001	4633
698.486	4593
698.971	4601
699.456	4505
699.941	4520
700.426	4541
700.911	4586
701.396	4549
701.881	4547
702.366	4479
702.852	4436
703.337	4471
703.822	4467
704.308	4485
704.793	4537
705.278	4550
705.764	4567
706.249	4541
706.735	4528
707.22	4566
707.706	4529
708.191	4617
708.677	4602
709.163	4544
709.648	4556
710.134	4636
710.62	4588
711.106	4600
711.592	4657
712.077	4643
712.563	4523
713.049	4534
713.535	4620
714.021	4583
714.507	4547
714.993	4494
715.479	4519
715.966	4451
716.452	4458
716.938	4459
717.424	4305
717.91	4393
718.397	4339
718.883	4304
719.369	4303
719.856	4263
720.342	4352
720.829	4299
721.315	4330
721.802	4283
722.288	4320
722.775	4154
723.262	4056
723.748	4221
724.235	4190
724.722	4225
725.208	4123
725.695	4109
726.182	4113
726.669	4069
727.156	4084
727.643	4027
728.13	4029
728.617	4017
729.104	4046
729.591	3996
730.078	4048
730.565	4064
731.052	4017
731.539	4015
732.027	3980
732.514	3909
733.001	3937
733.488	3905
733.976	3920
734.463	3900
734.951	3870
735.438	3895
735.926	3848
736.413	3872
736.901	3847
737.388	3885
737.876	3866
738.364	3815
738.851	3831
739.339	3835
739.827	3880
740.314	3754
740.802	3759
741.29	3772
741.778	3733
742.266	3729
742.754	3724
743.242	3765
743.73	3708
744.218	3715
744.706	3673
745.194	3685
745.682	3627
746.17	3629
746.659	3639
747.147	3554
747.635	3584
748.123	3565
748.612	3515
749.1	3496
749.589	3536
750.077	3539
750.566	3536
751.054	3568
751.543	3574
752.031	3482
752.52	3477
753.008	3412
753.497	3408
753.986	3395
754.474	3373
754.963	3379
755.452	3328
755.941	3324
756.43	3329
756.919	3308
757.408	3263
757.896	3254
758.385	3256
758.875	3226
759.364	3209
759.853	3168
760.342	3115
760.831	3199
761.32	3160
761.809	3107
762.299	3118
762.788	3105
763.277	3088
763.767	3040
764.256	3036
764.745	3013
765.235	3073
765.724	2979
766.214	3018
766.703	2967
767.193	2899
767.683	2894
768.172	2854
768.662	2891
769.152	2856
769.641	2863
770.131	2799
770.621	2838
771.111	2801
771.601	2798
772.09	2784
772.58	2756
773.07	2764
773.56	2782
774.05	2714
774.54	2710
775.031	2700
775.521	2700
776.011	2710
776.501	2726
776.991	2654
777.482	2669
777.972	2605
778.462	2596
778.953	2616
779.443	2594
779.933	2566
780.424	2549
780.914	2575
781.405	2571
781.895	2553
782.386	2560
782.877	2542
783.367	2480
783.858	2460
784.349	2474
784.839	2455
785.33	2457
785.821	2435
786.312	2400
786.803	2408
787.293	2404
787.784	2352
788.275	2312
788.766	2275
789.257	2305
789.748	2260
790.24	2243
790.731	2252
791.222	2209
791.713	2208
792.204	2221
792.696	2170
793.187	2197
793.678	2180
794.169	2113
794.661	2136
795.152	2103
795.644	2094
796.135	2089
796.627	2100
797.118	2058
797.61	2028
798.101	2009
798.593	2032
799.085	1999
799.576	2006
800.068	1976
800.56	1985
801.052	1947
801.544	1940
802.035	1944
802.527	1907
803.019	1883
803.511	1872
804.003	1852
804.495	1858
804.987	1847
805.479	1808
805.971	1824
806.464	1831
806.956	1789
807.448	1775
807.94	1770
808.433	1753
808.925	1755
809.417	1728
809.91	1714
810.402	1667
810.894	1671
811.387	1684
811.879	1648
812.372	1675
812.865	1654
813.357	1645
813.85	1626
814.342	1621
814.835	1614
815.328	1606
815.821	1587
816.313	1582
816.806	1578
817.299	1569
817.792	1581
818.285	1554
818.778	1580
819.271	1583
819.764	1562
820.257	1566
820.75	1559
821.243	1565
821.736	1541
822.229	1556
822.722	1550
823.216	1590
