Data from lamp4bck_Subt4__19__81.txt Node

Date: Wed Apr 09 09:37:18 CEST 2025
User: fys-lab-0081
Spectrometer: S04999
Trigger mode: 0
Resolution mode: 1024 pixels
Integration Time (sec): 1.000000E-1
Scans to average: 1
Nonlinearity correction enabled: false
Boxcar width: 0
Baseline correction enabled: true
XAxis mode: Wavelengths
Number of Pixels in Spectrum: 1024
>>>>>Begin Spectral Data<<<<<
336.42	5
336.877	-1
337.334	6
337.792	-1
338.249	9
338.706	5
339.164	4
339.621	-2
340.079	6
340.536	14
340.994	11
341.452	1
341.909	3
342.367	4
342.825	5
343.283	8
343.741	4
344.198	5
344.656	5
345.114	3
345.572	8
346.03	8
346.488	10
346.947	5
347.405	9
347.863	7
348.321	11
348.779	9
349.238	8
349.696	10
350.154	7
350.613	4
351.071	7
351.53	15
351.988	13
352.447	6
352.905	10
353.364	8
353.823	8
354.282	10
354.74	7
355.199	14
355.658	14
356.117	16
356.576	14
357.035	9
357.494	14
357.953	18
358.412	21
358.871	10
359.33	13
359.789	20
360.249	16
360.708	20
361.167	15
361.626	18
362.086	19
362.545	23
363.005	24
363.464	16
363.924	15
364.383	26
364.843	25
365.303	21
365.762	26
366.222	19
366.682	27
367.142	30
367.601	24
368.061	25
368.521	28
368.981	24
369.441	31
369.901	29
370.361	22
370.821	30
371.282	27
371.742	31
372.202	29
372.662	41
373.123	36
373.583	30
374.043	36
374.504	30
374.964	35
375.425	36
375.885	38
376.346	38
376.806	40
377.267	43
377.728	44
378.188	41
378.649	47
379.11	43
379.571	43
380.032	42
380.493	46
380.954	53
381.414	47
381.876	56
382.337	52
382.798	59
383.259	65
383.72	57
384.181	65
384.642	59
385.104	71
385.565	75
386.026	73
386.488	73
386.949	76
387.411	76
387.872	78
388.334	81
388.795	82
389.257	89
389.719	84
390.181	85
390.642	94
391.104	90
391.566	91
392.028	107
392.49	99
392.952	102
393.414	107
393.876	105
394.338	109
394.8	110
395.262	117
395.724	116
396.186	120
396.648	122
397.111	125
397.573	128
398.035	127
398.498	126
398.96	126
399.423	132
399.885	137
400.348	137
400.81	148
401.273	136
401.736	147
402.198	155
402.661	160
403.124	156
403.587	166
404.049	169
404.512	172
404.975	175
405.438	171
405.901	180
406.364	182
406.827	182
407.29	184
407.754	184
408.217	183
408.68	175
409.143	184
409.607	193
410.07	191
410.533	190
410.997	201
411.46	199
411.924	200
412.387	204
412.851	212
413.314	217
413.778	218
414.242	219
414.705	231
415.169	229
415.633	232
416.097	236
416.561	239
417.024	245
417.488	239
417.952	243
418.416	240
418.88	242
419.344	246
419.809	240
420.273	244
420.737	241
421.201	247
421.665	260
422.13	259
422.594	267
423.059	271
423.523	276
423.987	279
424.452	289
424.916	298
425.381	299
425.846	303
426.31	304
426.775	312
427.24	322
427.704	309
428.169	322
428.634	323
429.099	319
429.564	318
430.029	326
430.494	327
430.959	327
431.424	320
431.889	327
432.354	335
432.819	332
433.284	343
433.75	346
434.215	366
434.68	369
435.146	373
435.611	391
436.077	404
436.542	407
437.008	425
437.473	425
437.939	432
438.404	446
438.87	448
439.336	440
439.801	442
440.267	443
440.733	457
441.199	457
441.665	456
442.131	475
442.596	462
443.062	479
443.529	496
443.995	503
444.461	505
444.927	530
445.393	535
445.859	562
446.325	568
446.792	603
447.258	601
447.724	619
448.191	642
448.657	650
449.124	674
449.59	663
450.057	703
450.523	704
450.99	720
451.457	713
451.923	726
452.39	720
452.857	732
453.324	723
453.791	742
454.257	742
454.724	753
455.191	756
455.658	753
456.125	778
456.592	769
457.059	781
457.527	801
457.994	830
458.461	829
458.928	843
459.396	841
459.863	871
460.33	860
460.798	865
461.265	871
461.732	863
462.2	885
462.668	883
463.135	898
463.603	869
464.07	891
464.538	870
465.006	907
465.474	886
465.941	890
466.409	904
466.877	883
467.345	916
467.813	912
468.281	913
468.749	910
469.217	912
469.685	919
470.153	944
470.621	936
471.09	943
471.558	975
472.026	977
472.494	1012
472.963	1024
473.431	1059
473.9	1079
474.368	1111
474.837	1134
475.305	1140
475.774	1169
476.242	1187
476.711	1190
477.18	1221
477.648	1209
478.117	1231
478.586	1211
479.055	1216
479.524	1223
479.993	1224
480.462	1222
480.93	1230
481.399	1234
481.869	1241
482.338	1235
482.807	1255
483.276	1242
483.745	1249
484.214	1289
484.684	1302
485.153	1295
485.622	1296
486.092	1344
486.561	1317
487.031	1355
487.5	1375
487.97	1393
488.439	1429
488.909	1478
489.378	1526
489.848	1519
490.318	1568
490.787	1630
491.257	1659
491.727	1669
492.197	1709
492.667	1700
493.137	1729
493.607	1734
494.077	1751
494.547	1728
495.017	1727
495.487	1747
495.957	1765
496.427	1733
496.897	1751
497.368	1776
497.838	1762
498.308	1781
498.779	1801
499.249	1811
499.719	1827
500.19	1856
500.66	1868
501.131	1889
501.602	1939
502.072	1947
502.543	1955
503.014	2026
503.484	2015
503.955	2076
504.426	2147
504.897	2154
505.368	2186
505.838	2225
506.309	2278
506.78	2357
507.251	2384
507.722	2416
508.194	2501
508.665	2545
509.136	2524
509.607	2602
510.078	2652
510.549	2658
511.021	2726
511.492	2736
511.964	2778
512.435	2827
512.906	2799
513.378	2834
513.849	2871
514.321	2865
514.793	2902
515.264	2930
515.736	2951
516.208	2989
516.679	3021
517.151	3059
517.623	3081
518.095	3126
518.567	3158
519.038	3221
519.51	3212
519.982	3259
520.454	3319
520.927	3357
521.399	3394
521.871	3445
522.343	3470
522.815	3508
523.287	3504
523.76	3517
524.232	3577
524.704	3585
525.177	3527
525.649	3561
526.122	3613
526.594	3518
527.067	3603
527.539	3651
528.012	3622
528.484	3617
528.957	3646
529.43	3659
529.903	3635
530.375	3747
530.848	3654
531.321	3710
531.794	3732
532.267	3809
532.74	3767
533.213	3768
533.686	3824
534.159	3786
534.632	3856
535.105	3868
535.578	3941
536.051	3933
536.525	3950
536.998	3965
537.471	4058
537.945	3991
538.418	4045
538.891	4086
539.365	4121
539.838	4151
540.312	4158
540.786	4203
541.259	4173
541.733	4221
542.206	4232
542.68	4184
543.154	4192
543.628	4167
544.101	4288
544.575	4285
545.049	4196
545.523	4254
545.997	4232
546.471	4275
546.945	4241
547.419	4296
547.893	4137
548.367	4201
548.842	4184
549.316	4195
549.79	4203
550.264	4184
550.739	4245
551.213	4223
551.687	4236
552.162	4296
552.636	4281
553.111	4233
553.585	4342
554.06	4289
554.534	4381
555.009	4336
555.484	4401
555.958	4442
556.433	4475
556.908	4542
557.383	4484
557.858	4609
558.333	4653
558.807	4622
559.282	4610
559.757	4723
560.232	4761
560.708	4696
561.183	4676
561.658	4735
562.133	4736
562.608	4701
563.083	4826
563.559	4700
564.034	4749
564.509	4746
564.985	4768
565.46	4699
565.936	4756
566.411	4756
566.887	4714
567.362	4763
567.838	4749
568.313	4825
568.789	4757
569.265	4751
569.74	4778
570.216	4732
570.692	4837
571.168	4873
571.644	4858
572.12	4827
572.596	4867
573.071	4859
573.547	4968
574.024	4970
574.5	5023
574.976	5059
575.452	5155
575.928	5178
576.404	5210
576.881	5393
577.357	5329
577.833	5362
578.31	5458
578.786	5506
579.262	5645
579.739	5585
580.215	5709
580.692	5685
581.169	5668
581.645	5717
582.122	5891
582.598	5853
583.075	5826
583.552	5896
584.029	5917
584.506	5882
584.982	5839
585.459	5959
585.936	5901
586.413	5979
586.89	6028
587.367	5931
587.844	6034
588.321	6012
588.799	6032
589.276	5927
589.753	5989
590.23	6027
590.707	6024
591.185	6009
591.662	5977
592.139	6012
592.617	6143
593.094	6165
593.572	6204
594.049	6244
594.527	6276
595.004	6317
595.482	6516
595.96	6457
596.437	6467
596.915	6643
597.393	6608
597.871	6807
598.349	6684
598.826	6800
599.304	6826
599.782	6952
600.26	6878
600.738	6965
601.216	6895
601.694	6962
602.173	7026
602.651	7054
603.129	6958
603.607	7021
604.085	7044
604.564	7053
605.042	7048
605.52	6987
605.999	7166
606.477	7011
606.956	7018
607.434	7079
607.913	7140
608.391	7115
608.87	7148
609.348	7085
609.827	7137
610.306	7155
610.785	7146
611.263	7203
611.742	7202
612.221	7113
612.7	7193
613.179	7224
613.658	7134
614.137	7294
614.616	7345
615.095	7160
615.574	7208
616.053	7268
616.532	7263
617.011	7324
617.491	7317
617.97	7268
618.449	7315
618.928	7365
619.408	7299
619.887	7339
620.367	7362
620.846	7473
621.326	7426
621.805	7606
622.285	7559
622.764	7571
623.244	7542
623.724	7589
624.203	7657
624.683	7553
625.163	7733
625.643	7731
626.123	7706
626.602	7950
627.082	7765
627.562	7739
628.042	7904
628.522	7861
629.002	7837
629.482	7880
629.963	7868
630.443	7787
630.923	7817
631.403	7851
631.883	7792
632.364	7786
632.844	7709
633.324	7697
633.805	7695
634.285	7620
634.766	7575
635.246	7587
635.727	7568
636.207	7556
636.688	7569
637.168	7579
637.649	7519
638.13	7486
638.611	7564
639.091	7624
639.572	7609
640.053	7558
640.534	7588
641.015	7540
641.496	7430
641.977	7629
642.458	7615
642.939	7670
643.42	7696
643.901	7700
644.382	7742
644.863	7710
645.345	7728
645.826	7717
646.307	7696
646.788	7778
647.27	7654
647.751	7721
648.233	7816
648.714	7626
649.196	7787
649.677	7726
650.159	7709
650.64	7623
651.122	7745
651.603	7619
652.085	7658
652.567	7658
653.049	7600
653.53	7639
654.012	7733
654.494	7581
654.976	7650
655.458	7623
655.94	7628
656.422	7794
656.904	7729
657.386	7654
657.868	7648
658.35	7632
658.833	7719
659.315	7770
659.797	7675
660.279	7678
660.762	7766
661.244	7718
661.726	7598
662.209	7565
662.691	7540
663.174	7352
663.656	7402
664.139	7427
664.621	7382
665.104	7340
665.587	7392
666.069	7392
666.552	7363
667.035	7272
667.517	7304
668	7341
668.483	7282
668.966	7186
669.449	7150
669.932	7179
670.415	7249
670.898	7164
671.381	7182
671.864	7215
672.347	7168
672.83	7214
673.313	7272
673.797	7276
674.28	7390
674.763	7389
675.247	7401
675.73	7369
676.213	7453
676.697	7523
677.18	7534
677.664	7583
678.147	7623
678.631	7665
679.114	7715
679.598	7701
680.082	7701
680.565	7649
681.049	7611
681.533	7633
682.017	7777
682.5	7802
682.984	7836
683.468	7773
683.952	7576
684.436	7661
684.92	7543
685.404	7562
685.888	7553
686.372	7478
686.856	7507
687.341	7606
687.825	7516
688.309	7561
688.793	7576
689.278	7488
689.762	7569
690.246	7542
690.731	7573
691.215	7576
691.7	7363
692.184	7491
692.669	7516
693.153	7595
693.638	7505
694.122	7516
694.607	7572
695.092	7471
695.577	7574
696.061	7465
696.546	7496
697.031	7490
697.516	7575
698.001	7594
698.486	7569
698.971	7669
699.456	7501
699.941	7498
700.426	7464
700.911	7471
701.396	7352
701.881	7379
702.366	7334
702.852	7329
703.337	7362
703.822	7314
704.308	7258
704.793	7269
705.278	7272
705.764	7308
706.249	7271
706.735	7272
707.22	7376
707.706	7246
708.191	7342
708.677	7338
709.163	7295
709.648	7382
710.134	7464
710.62	7368
711.106	7380
711.592	7488
712.077	7494
712.563	7361
713.049	7372
713.535	7498
714.021	7438
714.507	7428
714.993	7345
715.479	7452
715.966	7374
716.452	7393
716.938	7416
717.424	7215
717.91	7350
718.397	7285
718.883	7219
719.369	7231
719.856	7159
720.342	7240
720.829	7132
721.315	7136
721.802	7108
722.288	7215
722.775	6969
723.262	6756
723.748	6997
724.235	6929
724.722	7028
725.208	6913
725.695	6937
726.182	6921
726.669	6816
727.156	6809
727.643	6690
728.13	6667
728.617	6640
729.104	6687
729.591	6666
730.078	6756
730.565	6792
731.052	6681
731.539	6702
732.027	6658
732.514	6575
733.001	6643
733.488	6622
733.976	6640
734.463	6643
734.951	6629
735.438	6735
735.926	6673
736.413	6727
736.901	6696
737.388	6796
737.876	6768
738.364	6714
738.851	6731
739.339	6668
739.827	6693
740.314	6487
740.802	6568
741.29	6610
741.778	6531
742.266	6523
742.754	6494
743.242	6524
743.73	6428
744.218	6423
744.706	6325
745.194	6360
745.682	6304
746.17	6317
746.659	6339
747.147	6166
747.635	6215
748.123	6207
748.612	6171
749.1	6135
749.589	6192
750.077	6131
750.566	6099
751.054	6137
751.543	6176
752.031	6055
752.52	6082
753.008	5962
753.497	5976
753.986	5975
754.474	5940
754.963	6017
755.452	5924
755.941	5888
756.43	5887
756.919	5886
757.408	5865
757.896	5907
758.385	5941
758.875	5878
759.364	5811
759.853	5763
760.342	5665
760.831	5770
761.32	5682
761.809	5600
762.299	5635
762.788	5636
763.277	5603
763.767	5496
764.256	5499
764.745	5417
765.235	5522
765.724	5381
766.214	5456
766.703	5413
767.193	5329
767.683	5346
768.172	5266
768.662	5324
769.152	5305
769.641	5300
770.131	5148
770.621	5217
771.111	5161
771.601	5150
772.09	5108
772.58	5040
773.07	5050
773.56	5089
774.05	4981
774.54	4950
775.031	4927
775.521	4931
776.011	4953
776.501	5044
776.991	4961
777.482	4995
777.972	4874
778.462	4868
778.953	4900
779.443	4870
779.933	4843
780.424	4790
780.914	4827
781.405	4843
781.895	4805
782.386	4817
782.877	4791
783.367	4707
783.858	4673
784.349	4693
784.839	4661
785.33	4671
785.821	4602
786.312	4533
786.803	4534
787.293	4538
787.784	4471
788.275	4431
788.766	4400
789.257	4483
789.748	4402
790.24	4366
790.731	4392
791.222	4320
791.713	4306
792.204	4294
792.696	4173
793.187	4222
793.678	4174
794.169	4061
794.661	4128
795.152	4087
795.644	4056
796.135	4036
796.627	4058
797.118	3987
797.61	3960
798.101	3911
798.593	3962
799.085	3903
799.576	3915
800.068	3855
800.56	3872
801.052	3782
801.544	3792
802.035	3796
802.527	3732
803.019	3681
803.511	3662
804.003	3636
804.495	3659
804.987	3628
805.479	3528
805.971	3563
806.464	3579
806.956	3509
807.448	3518
807.94	3545
808.433	3514
808.925	3486
809.417	3440
809.91	3439
810.402	3362
810.894	3397
811.387	3431
811.879	3364
812.372	3388
812.865	3349
813.357	3365
813.85	3338
814.342	3324
814.835	3325
815.328	3318
815.821	3276
816.313	3270
816.806	3272
817.299	3243
817.792	3261
818.285	3240
818.778	3289
819.271	3280
819.764	3223
820.257	3211
820.75	3181
821.243	3173
821.736	3144
822.229	3180
822.722	3186
823.216	3256
