Data from lamp3bck_noballon_Subt4__8__349.txt Node

Date: Fri Apr 04 11:09:06 CEST 2025
User: fys-lab-0081
Spectrometer: S04999
Trigger mode: 0
Resolution mode: 1024 pixels
Integration Time (sec): 1.000000E-1
Scans to average: 1
Nonlinearity correction enabled: false
Boxcar width: 0
Baseline correction enabled: true
XAxis mode: Wavelengths
Number of Pixels in Spectrum: 1024
>>>>>Begin Spectral Data<<<<<
336.42	3
336.877	10
337.334	13
337.792	14
338.249	12
338.706	15
339.164	13
339.621	12
340.079	12
340.536	14
340.994	15
341.452	18
341.909	15
342.367	14
342.825	22
343.283	18
343.741	22
344.198	10
344.656	20
345.114	23
345.572	17
346.03	20
346.488	21
346.947	27
347.405	27
347.863	26
348.321	25
348.779	28
349.238	33
349.696	32
350.154	32
350.613	33
351.071	37
351.53	31
351.988	37
352.447	38
352.905	39
353.364	38
353.823	45
354.282	42
354.74	45
355.199	50
355.658	46
356.117	52
356.576	47
357.035	51
357.494	52
357.953	53
358.412	55
358.871	60
359.33	60
359.789	59
360.249	65
360.708	67
361.167	59
361.626	68
362.086	67
362.545	72
363.005	73
363.464	79
363.924	74
364.383	80
364.843	85
365.303	83
365.762	89
366.222	93
366.682	92
367.142	89
367.601	93
368.061	99
368.521	101
368.981	100
369.441	101
369.901	94
370.361	100
370.821	110
371.282	105
371.742	105
372.202	110
372.662	114
373.123	113
373.583	115
374.043	124
374.504	122
374.964	125
375.425	130
375.885	132
376.346	140
376.806	129
377.267	137
377.728	141
378.188	143
378.649	148
379.11	145
379.571	142
380.032	155
380.493	159
380.954	160
381.414	167
381.876	171
382.337	175
382.798	179
383.259	185
383.72	192
384.181	202
384.642	204
385.104	214
385.565	215
386.026	222
386.488	235
386.949	230
387.411	239
387.872	244
388.334	245
388.795	252
389.257	259
389.719	264
390.181	271
390.642	277
391.104	279
391.566	283
392.028	296
392.49	300
392.952	304
393.414	314
393.876	319
394.338	332
394.8	331
395.262	337
395.724	346
396.186	352
396.648	352
397.111	350
397.573	361
398.035	359
398.498	375
398.96	373
399.423	380
399.885	386
400.348	388
400.81	403
401.273	410
401.736	401
402.198	423
402.661	435
403.124	445
403.587	448
404.049	461.5
404.512	475
404.975	487
405.438	478
405.901	489
406.364	482
406.827	492
407.29	484
407.754	486
408.217	479
408.68	485
409.143	489
409.607	500
410.07	492
410.533	504
410.997	515
411.46	519
411.924	517
412.387	516
412.851	538
413.314	558
413.778	557
414.242	561
414.705	583
415.169	571
415.633	579
416.097	582
416.561	591
417.024	606
417.488	584
417.952	597
418.416	585
418.88	603
419.344	594
419.809	592
420.273	609
420.737	594
421.201	609
421.665	613
422.13	613
422.594	633
423.059	642
423.523	650
423.987	659
424.452	679
424.916	691
425.381	712
425.846	715
426.31	716
426.775	726
427.24	745
427.704	736
428.169	745
428.634	741
429.099	727
429.564	721
430.029	740
430.494	733
430.959	738
431.424	723
431.889	749
432.354	754
432.819	740
433.284	773
433.75	773
434.215	792
434.68	808
435.146	826
435.611	858
436.077	875
436.542	894
437.008	923
437.473	925
437.939	926
438.404	947
438.87	959
439.336	938
439.801	938
440.267	957
440.733	975
441.199	980
441.665	970
442.131	996
442.596	970
443.062	1009
443.529	1023
443.995	1045
444.461	1058
444.927	1107
445.393	1112
445.859	1161
446.325	1160
446.792	1237
447.258	1229
447.724	1251
448.191	1301
448.657	1319
449.124	1356
449.59	1353
450.057	1415
450.523	1429
450.99	1454
451.457	1449
451.923	1463
452.39	1439
452.857	1479
453.324	1479
453.791	1488
454.257	1497
454.724	1519
455.191	1515
455.658	1495
456.125	1556
456.592	1514
457.059	1542
457.527	1558
457.994	1599
458.461	1598
458.928	1631
459.396	1624
459.863	1688
460.33	1678
460.798	1680
461.265	1699
461.732	1684
462.2	1727
462.668	1714
463.135	1747
463.603	1698
464.07	1733
464.538	1674
465.006	1724
465.474	1678
465.941	1702
466.409	1711
466.877	1668
467.345	1726
467.813	1686
468.281	1695
468.749	1721
469.217	1716
469.685	1722
470.153	1748
470.621	1741
471.09	1747
471.558	1826
472.026	1802
472.494	1850
472.963	1865
473.431	1914
473.9	1945
474.368	1993
474.837	2038
475.305	2071
475.774	2100
476.242	2159
476.711	2171
477.18	2211
477.648	2177
478.117	2208
478.586	2185
479.055	2210
479.524	2237
479.993	2206
480.462	2204
480.93	2205
481.399	2207
481.869	2216
482.338	2176
482.807	2199
483.276	2189
483.745	2185
484.214	2235
484.684	2274
485.153	2253
485.622	2254
486.092	2329
486.561	2296
487.031	2368
487.5	2396
487.97	2378
488.439	2423
488.909	2467
489.378	2564
489.848	2569
490.318	2633
490.787	2731
491.257	2766
491.727	2821
492.197	2864
492.667	2835
493.137	2890
493.607	2890
494.077	2941
494.547	2907
495.017	2877
495.487	2924
495.957	2982
496.427	2917
496.897	2919
497.368	2954
497.838	2916
498.308	2963
498.779	2961
499.249	2955
499.719	2979
500.19	2996
500.66	3025
501.131	3050
501.602	3114
502.072	3110
502.543	3104
503.014	3215
503.484	3189
503.955	3269
504.426	3344
504.897	3317
505.368	3415
505.838	3486
506.309	3587
506.78	3684
507.251	3727
507.722	3793
508.194	3903
508.665	3912
509.136	3888
509.607	3989
510.078	4082
510.549	4150
511.021	4233
511.492	4230
511.964	4274
512.435	4289
512.906	4275
513.378	4299
513.849	4343
514.321	4365
514.793	4407
515.264	4449
515.736	4505
516.208	4595
516.679	4610
517.151	4659
517.623	4681
518.095	4722
518.567	4757
519.038	4854
519.51	4829
519.982	4928
520.454	4960
520.927	4966
521.399	5008
521.871	5103
522.343	5106
522.815	5174
523.287	5143
523.76	5188
524.232	5268
524.704	5335
525.177	5247
525.649	5238
526.122	5274
526.594	5161
527.067	5283
527.539	5330
528.012	5259
528.484	5254
528.957	5267
529.43	5247
529.903	5242
530.375	5415
530.848	5287
531.321	5369
531.794	5362
532.267	5444
532.74	5361
533.213	5290
533.686	5350
534.159	5327
534.632	5461
535.105	5463
535.578	5506
536.051	5573
536.525	5567
536.998	5522
537.471	5609
537.945	5557
538.418	5644
538.891	5678
539.365	5758
539.838	5802
540.312	5759
540.786	5839
541.259	5822
541.733	5874
542.206	5884
542.68	5792
543.154	5750
543.628	5729
544.101	5874
544.575	5840
545.049	5696
545.523	5825
545.997	5781
546.471	5808
546.945	5769
547.419	5847
547.893	5588
548.367	5665
548.842	5628
549.316	5627
549.79	5644
550.264	5631
550.739	5684
551.213	5705
551.687	5724
552.162	5721
552.636	5621
553.111	5607
553.585	5725
554.06	5640
554.534	5796
555.009	5744
555.484	5812
555.958	5891
556.433	5926
556.908	5963
557.383	5912
557.858	6053
558.333	6037
558.807	5923
559.282	5943
559.757	6103
560.232	6174
560.708	6086
561.183	6052
561.658	6111
562.133	6127
562.608	6071
563.083	6268
563.559	6092
564.034	6084
564.509	6072
564.985	6068
565.46	5989
565.936	6091
566.411	6111
566.887	6043
567.362	6088
567.838	6053
568.313	6138
568.789	6063
569.265	6101
569.74	6104
570.216	6033
570.692	6179
571.168	6178
571.644	6131
572.12	6082
572.596	6143
573.071	6127
573.547	6271
574.024	6279
574.5	6270
574.976	6305
575.452	6391
575.928	6388
576.404	6405
576.881	6611
577.357	6501
577.833	6557
578.31	6734
578.786	6794
579.262	6904
579.739	6782
580.215	6978
580.692	6996
581.169	7004
581.645	7013
582.122	7154
582.598	7111
583.075	7120
583.552	7214
584.029	7233
584.506	7190
584.982	7098
585.459	7225
585.936	7135
586.413	7238
586.89	7337
587.367	7211
587.844	7312
588.321	7235
588.799	7247
589.276	7192
589.753	7303
590.23	7290
590.707	7270
591.185	7284
591.662	7265
592.139	7298
592.617	7361
593.094	7370
593.572	7501
594.049	7551
594.527	7612
595.004	7593
595.482	7763
595.96	7685
596.437	7683
596.915	7850
597.393	7712
597.871	7882
598.349	7813
598.826	8005
599.304	8002
599.782	8140
600.26	8022
600.738	8113
601.216	8058
601.694	8132
602.173	8224
602.651	8247
603.129	8103
603.607	8140
604.085	8239
604.564	8236
605.042	8259
605.52	8195
605.999	8377
606.477	8200
606.956	8206
607.434	8181.5
607.913	8157
608.391	8171
608.87	8240
609.348	8183
609.827	8233
610.306	8241
610.785	8243
611.263	8258
611.742	8156
612.221	7941
612.7	8019
613.179	8050
613.658	7988
614.137	8180
614.616	8261
615.095	8077
615.574	8181
616.053	8294
616.532	8200
617.011	8138
617.491	8122
617.97	8080
618.449	8194
618.928	8279
619.408	8264
619.887	8364
620.367	8354
620.846	8376
621.326	8358
621.805	8559
622.285	8571
622.764	8588
623.244	8592
623.724	8656
624.203	8723
624.683	8521
625.163	8683
625.643	8667
626.123	8600
626.602	8756
627.082	8559
627.562	8569
628.042	8684
628.522	8610
629.002	8646
629.482	8691
629.963	8629
630.443	8477
630.923	8494
631.403	8551
631.883	8494
632.364	8563
632.844	8544
633.324	8524
633.805	8529
634.285	8435
634.766	8384
635.246	8384
635.727	8346
636.207	8361
636.688	8422
637.168	8468
637.649	8386
638.13	8366
638.611	8393
639.091	8357
639.572	8386
640.053	8371
640.534	8474
641.015	8423
641.496	8264
641.977	8371
642.458	8191
642.939	8169
643.42	8156
643.901	8183
644.382	8234
644.863	8222
645.345	8224
645.826	8138
646.307	8084
646.788	8289
647.27	8218
647.751	8281
648.233	8391
648.714	8240
649.196	8462
649.677	8399
650.159	8419
650.64	8320
651.122	8411
651.603	8251
652.085	8312
652.567	8269
653.049	8192
653.53	8207
654.012	8231
654.494	7986
654.976	7988
655.458	7950
655.94	8009
656.422	8172
656.904	8057
657.386	7939
657.868	7979
658.35	8057
658.833	8186
659.315	8147
659.797	8038
660.279	8064
660.762	8114
661.244	8031
661.726	7934
662.209	7932
662.691	7917
663.174	7777
663.656	7829
664.139	7863
664.621	7823
665.104	7761
665.587	7769
666.069	7722
666.552	7663
667.035	7558
667.517	7611
668	7682
668.483	7640
668.966	7524
669.449	7468
669.932	7533
670.415	7707
670.898	7659
671.381	7665
671.864	7672
672.347	7586
672.83	7581
673.313	7619
673.797	7559
674.28	7624
674.763	7559
675.247	7549
675.73	7560
676.213	7671
676.697	7715
677.18	7718
677.664	7745
678.147	7733
678.631	7743
679.114	7803
679.598	7845
680.082	7945
680.565	7967
681.049	7947
681.533	7935
682.017	8002
682.5	7950
682.984	7928
683.468	7861
683.952	7713
684.436	7871
684.92	7769
685.404	7814
685.888	7855
686.372	7777
686.856	7743
687.341	7828
687.825	7739
688.309	7786
688.793	7787
689.278	7769
689.762	7890
690.246	7844
690.731	7813
691.215	7762
691.7	7532
692.184	7602
692.669	7601
693.153	7633
693.638	7501
694.122	7512
694.607	7516
695.092	7352
695.577	7446
696.061	7336
696.546	7373
697.031	7364
697.516	7430
698.001	7402
698.486	7300
698.971	7413
699.456	7335
699.941	7359
700.426	7342
700.911	7416
701.396	7375
701.881	7361
702.366	7252
702.852	7201
703.337	7223
703.822	7198
704.308	7144
704.793	7139
705.278	7100
705.764	7100
706.249	7073
706.735	7081
707.22	7137
707.706	7021
708.191	7191
708.677	7203
709.163	7142
709.648	7162
710.134	7221
710.62	7122
711.106	7087
711.592	7153
712.077	7098
712.563	6916
713.049	6959
713.535	7122
714.021	7067
714.507	7015
714.993	6934
715.479	7058
715.966	6962
716.452	6940
716.938	6927
717.424	6736
717.91	6882
718.397	6781
718.883	6734
719.369	6769
719.856	6797
720.342	6882
720.829	6748
721.315	6713
721.802	6660
722.288	6687
722.775	6467
723.262	6295
723.748	6565
724.235	6510
724.722	6587
725.208	6473
725.695	6482
726.182	6469
726.669	6372
727.156	6396
727.643	6340
728.13	6349
728.617	6288
729.104	6263
729.591	6213
730.078	6267
730.565	6290
731.052	6231
731.539	6271
732.027	6194
732.514	6085
733.001	6132
733.488	6126
733.976	6161
734.463	6152
734.951	6131
735.438	6167
735.926	6052
736.413	6006
736.901	5896
737.388	5967
737.876	5911
738.364	5810
738.851	5805
739.339	5811
739.827	5847
740.314	5682
740.802	5762
741.29	5815
741.778	5762
742.266	5756
742.754	5774
743.242	5857
743.73	5759
744.218	5747
744.706	5643
745.194	5681
745.682	5644
746.17	5727
746.659	5795
747.147	5663
747.635	5684
748.123	5677
748.612	5610
749.1	5545
749.589	5536
750.077	5467
750.566	5377
751.054	5406
751.543	5429
752.031	5333
752.52	5341
753.008	5234
753.497	5189
753.986	5160
754.474	5132
754.963	5172
755.452	5104
755.941	5071
756.43	5033
756.919	4954
757.408	4876
757.896	4883
758.385	4935
758.875	4905
759.364	4875
759.853	4863
760.342	4794
760.831	4929
761.32	4916
761.809	4867
762.299	4891
762.788	4879
763.277	4834
763.767	4725
764.256	4685
764.745	4589
765.235	4671
765.724	4560
766.214	4615
766.703	4571
767.193	4484
767.683	4492
768.172	4415
768.662	4478
769.152	4476
769.641	4482
770.131	4341
770.621	4372
771.111	4276
771.601	4279
772.09	4247
772.58	4219
773.07	4254
773.56	4319
774.05	4212
774.54	4180
775.031	4105
775.521	4051
776.011	4038
776.501	4094
776.991	4068
777.482	4126
777.972	3976
778.462	3962
778.953	4008
779.443	4008
779.933	4024
780.424	3958
780.914	3965
781.405	3915
781.895	3833
782.386	3827
782.877	3797
783.367	3730
783.858	3735
784.349	3759
784.839	3718
785.33	3744
785.821	3725
786.312	3688
786.803	3683
787.293	3658
787.784	3580
788.275	3530
788.766	3487
789.257	3549
789.748	3452
790.24	3415
790.731	3439
791.222	3384
791.713	3374
792.204	3414
792.696	3367
793.187	3434
793.678	3422
794.169	3325
794.661	3356
795.152	3302
795.644	3259
796.135	3236
796.627	3236
797.118	3170
797.61	3170
798.101	3155
798.593	3179
799.085	3121
799.576	3098
800.068	3057
800.56	3067
801.052	3000
801.544	2990
802.035	3002
802.527	2966
803.019	2952
803.511	2954
804.003	2934
804.495	2931
804.987	2866
805.479	2793
805.971	2810
806.464	2831
806.956	2773
807.448	2766
807.94	2762
808.433	2748
808.925	2753
809.417	2765
809.91	2751
810.402	2689
810.894	2718
811.387	2713
811.879	2653
812.372	2646
812.865	2599
813.357	2609
813.85	2599
814.342	2561
814.835	2545
815.328	2543
815.821	2484
816.313	2474
816.806	2477
817.299	2467
817.792	2509
818.285	2502
818.778	2542
819.271	2516
819.764	2453
820.257	2443
820.75	2420
821.243	2408
821.736	2385
822.229	2420
822.722	2414
823.216	2466
