Data from lamp3bck_noballon_Subt4__7__348.txt Node

Date: Fri Apr 04 11:09:05 CEST 2025
User: fys-lab-0081
Spectrometer: S04999
Trigger mode: 0
Resolution mode: 1024 pixels
Integration Time (sec): 1.000000E-1
Scans to average: 1
Nonlinearity correction enabled: false
Boxcar width: 0
Baseline correction enabled: true
XAxis mode: Wavelengths
Number of Pixels in Spectrum: 1024
>>>>>Begin Spectral Data<<<<<
336.42	4
336.877	4
337.334	8
337.792	12
338.249	10
338.706	15
339.164	12
339.621	10
340.079	14
340.536	12
340.994	12
341.452	20
341.909	17
342.367	17
342.825	19
343.283	17
343.741	23
344.198	12
344.656	13
345.114	20
345.572	21
346.03	20
346.488	23
346.947	24
347.405	29
347.863	27
348.321	25
348.779	28
349.238	30
349.696	31
350.154	27
350.613	33
351.071	36
351.53	35
351.988	37
352.447	38
352.905	34
353.364	41
353.823	46
354.282	42
354.74	45
355.199	53
355.658	48
356.117	54
356.576	46
357.035	48
357.494	51
357.953	53
358.412	53
358.871	56
359.33	58
359.789	58
360.249	65
360.708	68
361.167	62
361.626	68
362.086	68
362.545	70
363.005	67
363.464	81
363.924	81
364.383	79
364.843	84
365.303	85
365.762	89
366.222	90
366.682	93
367.142	92
367.601	95
368.061	97
368.521	101
368.981	99
369.441	103
369.901	96
370.361	104
370.821	108
371.282	105
371.742	105
372.202	111
372.662	115
373.123	111
373.583	118
374.043	120
374.504	120
374.964	121
375.425	127
375.885	132
376.346	135
376.806	131
377.267	138
377.728	135
378.188	148
378.649	142
379.11	144
379.571	146
380.032	154
380.493	156
380.954	164
381.414	162
381.876	170
382.337	174
382.798	180
383.259	184
383.72	188
384.181	201
384.642	205
385.104	213
385.565	213
386.026	219
386.488	236
386.949	236
387.411	242
387.872	243
388.334	247
388.795	251
389.257	260
389.719	262
390.181	265
390.642	278
391.104	279
391.566	279
392.028	294
392.49	299
392.952	303
393.414	315
393.876	318
394.338	328
394.8	329
395.262	339
395.724	351
396.186	353
396.648	353
397.111	352
397.573	362
398.035	363
398.498	371
398.96	377
399.423	381
399.885	386
400.348	389
400.81	403
401.273	404
401.736	404
402.198	427
402.661	439
403.124	439
403.587	448
404.049	462.5
404.512	477
404.975	485
405.438	475
405.901	485
406.364	480
406.827	495
407.29	486
407.754	482
408.217	478
408.68	488
409.143	492
409.607	496
410.07	492
410.533	506
410.997	516
411.46	514
411.924	517
412.387	518
412.851	538
413.314	559
413.778	554
414.242	563
414.705	580
415.169	573
415.633	583
416.097	584
416.561	592
417.024	607
417.488	588
417.952	595
418.416	590
418.88	603
419.344	592
419.809	590
420.273	609
420.737	590
421.201	610
421.665	617
422.13	612
422.594	625
423.059	643
423.523	646
423.987	655
424.452	677
424.916	691
425.381	715
425.846	719
426.31	708
426.775	729
427.24	743
427.704	730
428.169	742
428.634	739
429.099	725
429.564	728
430.029	743
430.494	736
430.959	731
431.424	722
431.889	747
432.354	753
432.819	739
433.284	772
433.75	766
434.215	792
434.68	803
435.146	823
435.611	853
436.077	878
436.542	898
437.008	919
437.473	927
437.939	922
438.404	955
438.87	960
439.336	936
439.801	931
440.267	960
440.733	978
441.199	978
441.665	973
442.131	997
442.596	973
443.062	1004
443.529	1020
443.995	1037
444.461	1063
444.927	1106
445.393	1116
445.859	1153
446.325	1162
446.792	1233
447.258	1230
447.724	1252
448.191	1302
448.657	1315
449.124	1357
449.59	1349
450.057	1414
450.523	1425
450.99	1458
451.457	1445
451.923	1461
452.39	1435
452.857	1474
453.324	1474
453.791	1490
454.257	1498
454.724	1522
455.191	1508
455.658	1493
456.125	1564
456.592	1512
457.059	1543
457.527	1550
457.994	1601
458.461	1602
458.928	1623
459.396	1616
459.863	1683
460.33	1681
460.798	1678
461.265	1699
461.732	1680
462.2	1726
462.668	1718
463.135	1744
463.603	1699
464.07	1732
464.538	1674
465.006	1733
465.474	1686
465.941	1694
466.409	1706
466.877	1669
467.345	1723
467.813	1685
468.281	1693
468.749	1722
469.217	1718
469.685	1728
470.153	1741
470.621	1739
471.09	1746
471.558	1819
472.026	1796
472.494	1843
472.963	1873
473.431	1915
473.9	1941
474.368	1986
474.837	2026
475.305	2073
475.774	2102
476.242	2151
476.711	2167
477.18	2205
477.648	2174
478.117	2208
478.586	2179
479.055	2205
479.524	2237
479.993	2209
480.462	2194
480.93	2201
481.399	2203
481.869	2215
482.338	2176
482.807	2192
483.276	2184
483.745	2182
484.214	2240
484.684	2269
485.153	2256
485.622	2254
486.092	2316
486.561	2299
487.031	2364
487.5	2390
487.97	2381
488.439	2420
488.909	2468
489.378	2562
489.848	2561
490.318	2634
490.787	2735
491.257	2768
491.727	2828
492.197	2864
492.667	2832
493.137	2884
493.607	2887
494.077	2936
494.547	2916
495.017	2875
495.487	2917
495.957	2984
496.427	2911
496.897	2919
497.368	2944
497.838	2916
498.308	2959
498.779	2958
499.249	2955
499.719	2978
500.19	2990
500.66	3027
501.131	3046
501.602	3113
502.072	3115
502.543	3101
503.014	3218
503.484	3191
503.955	3274
504.426	3348
504.897	3323
505.368	3414
505.838	3486
506.309	3575
506.78	3683
507.251	3727
507.722	3795
508.194	3896
508.665	3903
509.136	3889
509.607	3985
510.078	4075
510.549	4139
511.021	4239
511.492	4221
511.964	4269
512.435	4294
512.906	4268
513.378	4299
513.849	4341
514.321	4366
514.793	4401
515.264	4444
515.736	4499
516.208	4602
516.679	4610
517.151	4653
517.623	4671
518.095	4717
518.567	4757
519.038	4859
519.51	4840
519.982	4913
520.454	4961
520.927	4969
521.399	5017
521.871	5106
522.343	5113
522.815	5151
523.287	5138
523.76	5180
524.232	5265
524.704	5326
525.177	5253
525.649	5221
526.122	5263
526.594	5162
527.067	5301
527.539	5323
528.012	5257
528.484	5248
528.957	5261
529.43	5239
529.903	5238
530.375	5399
530.848	5278
531.321	5378
531.794	5350
532.267	5445
532.74	5358
533.213	5300
533.686	5352
534.159	5324
534.632	5463
535.105	5462
535.578	5510
536.051	5566
536.525	5564
536.998	5516
537.471	5605
537.945	5552
538.418	5638
538.891	5673
539.365	5765
539.838	5802
540.312	5754
540.786	5843
541.259	5828
541.733	5870
542.206	5870
542.68	5783
543.154	5741
543.628	5716
544.101	5873
544.575	5822
545.049	5700
545.523	5816
545.997	5777
546.471	5811
546.945	5764
547.419	5850
547.893	5587
548.367	5663
548.842	5628
549.316	5617
549.79	5648
550.264	5631
550.739	5689
551.213	5709
551.687	5720
552.162	5720
552.636	5612
553.111	5604
553.585	5724
554.06	5634
554.534	5784
555.009	5739
555.484	5801
555.958	5891
556.433	5923
556.908	5964
557.383	5905
557.858	6040
558.333	6027
558.807	5927
559.282	5937
559.757	6093
560.232	6174
560.708	6068
561.183	6065
561.658	6114
562.133	6117
562.608	6074
563.083	6265
563.559	6075
564.034	6095
564.509	6066
564.985	6060
565.46	5983
565.936	6084
566.411	6111
566.887	6043
567.362	6105
567.838	6051
568.313	6120
568.789	6061
569.265	6107
569.74	6108
570.216	6030
570.692	6182
571.168	6172
571.644	6118
572.12	6078
572.596	6150
573.071	6123
573.547	6249
574.024	6272
574.5	6266
574.976	6298
575.452	6396
575.928	6387
576.404	6386
576.881	6611
577.357	6503
577.833	6555
578.31	6731
578.786	6790
579.262	6900
579.739	6791
580.215	6979
580.692	6991
581.169	6998
581.645	7014
582.122	7145
582.598	7109
583.075	7111
583.552	7210
584.029	7223
584.506	7186
584.982	7096
585.459	7225
585.936	7119
586.413	7238
586.89	7325
587.367	7214
587.844	7312
588.321	7233
588.799	7233
589.276	7184
589.753	7290
590.23	7291
590.707	7261
591.185	7279
591.662	7260
592.139	7294
592.617	7354
593.094	7377
593.572	7493
594.049	7531
594.527	7609
595.004	7597
595.482	7751
595.96	7686
596.437	7670
596.915	7839
597.393	7698
597.871	7871
598.349	7796
598.826	7992
599.304	7981
599.782	8134
600.26	8028
600.738	8113
601.216	8037
601.694	8125
602.173	8211
602.651	8247
603.129	8095
603.607	8134
604.085	8234
604.564	8238
605.042	8264
605.52	8188
605.999	8376
606.477	8190
606.956	8201
607.434	8175.5
607.913	8150
608.391	8163
608.87	8216
609.348	8167
609.827	8213
610.306	8244
610.785	8228
611.263	8258
611.742	8156
612.221	7935
612.7	8012
613.179	8035
613.658	7965
614.137	8178
614.616	8250
615.095	8071
615.574	8161
616.053	8278
616.532	8194
617.011	8140
617.491	8108
617.97	8079
618.449	8182
618.928	8272
619.408	8250
619.887	8352
620.367	8347
620.846	8373
621.326	8344
621.805	8552
622.285	8575
622.764	8584
623.244	8578
623.724	8642
624.203	8710
624.683	8506
625.163	8660
625.643	8667
626.123	8601
626.602	8757
627.082	8563
627.562	8558
628.042	8669
628.522	8600
629.002	8631
629.482	8681
629.963	8619
630.443	8472
630.923	8471
631.403	8549
631.883	8476
632.364	8545
632.844	8538
633.324	8513
633.805	8515
634.285	8422
634.766	8375
635.246	8392
635.727	8334
636.207	8363
636.688	8410
637.168	8460
637.649	8369
638.13	8363
638.611	8386
639.091	8341
639.572	8383
640.053	8361
640.534	8460
641.015	8422
641.496	8268
641.977	8362
642.458	8204
642.939	8153
643.42	8153
643.901	8178
644.382	8225
644.863	8207
645.345	8224
645.826	8146
646.307	8082
646.788	8287
647.27	8207
647.751	8282
648.233	8392
648.714	8235
649.196	8455
649.677	8389
650.159	8429
650.64	8322
651.122	8408
651.603	8252
652.085	8304
652.567	8274
653.049	8190
653.53	8195
654.012	8224
654.494	7977
654.976	7999
655.458	7953
655.94	8013
656.422	8159
656.904	8053
657.386	7938
657.868	7980
658.35	8061
658.833	8179
659.315	8143
659.797	8026
660.279	8052
660.762	8111
661.244	8023
661.726	7936
662.209	7921
662.691	7902
663.174	7775
663.656	7823
664.139	7863
664.621	7813
665.104	7750
665.587	7756
666.069	7711
666.552	7667
667.035	7554
667.517	7612
668	7686
668.483	7631
668.966	7510
669.449	7456
669.932	7533
670.415	7712
670.898	7656
671.381	7654
671.864	7652
672.347	7582
672.83	7575
673.313	7636
673.797	7551
674.28	7605
674.763	7564
675.247	7550
675.73	7567
676.213	7663
676.697	7712
677.18	7705
677.664	7735
678.147	7725
678.631	7734
679.114	7794
679.598	7839
680.082	7946
680.565	7960
681.049	7945
681.533	7934
682.017	8002
682.5	7941
682.984	7933
683.468	7861
683.952	7718
684.436	7862
684.92	7776
685.404	7803
685.888	7857
686.372	7774
686.856	7722
687.341	7824
687.825	7740
688.309	7783
688.793	7780
689.278	7751
689.762	7893
690.246	7840
690.731	7811
691.215	7770
691.7	7538
692.184	7599
692.669	7593
693.153	7621
693.638	7496
694.122	7508
694.607	7522
695.092	7352
695.577	7443
696.061	7338
696.546	7386
697.031	7360
697.516	7409
698.001	7395
698.486	7286
698.971	7401
699.456	7336
699.941	7348
700.426	7337
700.911	7410
701.396	7355
701.881	7358
702.366	7242
702.852	7207
703.337	7221
703.822	7185
704.308	7139
704.793	7140
705.278	7080
705.764	7091
706.249	7071
706.735	7084
707.22	7131
707.706	7017
708.191	7178
708.677	7194
709.163	7146
709.648	7165
710.134	7205
710.62	7124
711.106	7089
711.592	7140
712.077	7089
712.563	6918
713.049	6950
713.535	7115
714.021	7085
714.507	7019
714.993	6927
715.479	7053
715.966	6959
716.452	6939
716.938	6921
717.424	6737
717.91	6869
718.397	6781
718.883	6732
719.369	6773
719.856	6787
720.342	6883
720.829	6747
721.315	6707
721.802	6663
722.288	6694
722.775	6460
723.262	6289
723.748	6557
724.235	6515
724.722	6578
725.208	6479
725.695	6493
726.182	6471
726.669	6381
727.156	6398
727.643	6330
728.13	6333
728.617	6277
729.104	6256
729.591	6213
730.078	6264
730.565	6275
731.052	6221
731.539	6270
732.027	6187
732.514	6079
733.001	6119
733.488	6121
733.976	6164
734.463	6141
734.951	6133
735.438	6168
735.926	6042
736.413	6014
736.901	5893
737.388	5963
737.876	5906
738.364	5812
738.851	5808
739.339	5812
739.827	5846
740.314	5678
740.802	5741
741.29	5825
741.778	5757
742.266	5744
742.754	5775
743.242	5847
743.73	5750
744.218	5746
744.706	5637
745.194	5668
745.682	5636
746.17	5721
746.659	5799
747.147	5662
747.635	5677
748.123	5670
748.612	5615
749.1	5526
749.589	5534
750.077	5460
750.566	5371
751.054	5414
751.543	5423
752.031	5331
752.52	5336
753.008	5223
753.497	5194
753.986	5161
754.474	5123
754.963	5163
755.452	5103
755.941	5061
756.43	5031
756.919	4942
757.408	4868
757.896	4881
758.385	4940
758.875	4909
759.364	4868
759.853	4861
760.342	4788
760.831	4927
761.32	4915
761.809	4869
762.299	4880
762.788	4870
763.277	4840
763.767	4716
764.256	4667
764.745	4591
765.235	4668
765.724	4558
766.214	4609
766.703	4573
767.193	4491
767.683	4499
768.172	4414
768.662	4459
769.152	4475
769.641	4476
770.131	4344
770.621	4366
771.111	4278
771.601	4279
772.09	4250
772.58	4223
773.07	4254
773.56	4312
774.05	4211
774.54	4173
775.031	4112
775.521	4050
776.011	4038
776.501	4095
776.991	4068
777.482	4122
777.972	3972
778.462	3954
778.953	4005
779.443	4004
779.933	4024
780.424	3952
780.914	3957
781.405	3914
781.895	3829
782.386	3830
782.877	3792
783.367	3722
783.858	3736
784.349	3748
784.839	3720
785.33	3749
785.821	3726
786.312	3678
786.803	3666
787.293	3646
787.784	3573
788.275	3528
788.766	3484
789.257	3548
789.748	3457
790.24	3410
790.731	3437
791.222	3381
791.713	3369
792.204	3413
792.696	3357
793.187	3432
793.678	3406
794.169	3317
794.661	3351
795.152	3296
795.644	3253
796.135	3232
796.627	3230
797.118	3176
797.61	3174
798.101	3142
798.593	3171
799.085	3112
799.576	3105
800.068	3060
800.56	3081
801.052	2998
801.544	2991
802.035	3004
802.527	2964
803.019	2941
803.511	2953
804.003	2931
804.495	2926
804.987	2864
805.479	2790
805.971	2822
806.464	2830
806.956	2764
807.448	2765
807.94	2754
808.433	2742
808.925	2757
809.417	2753
809.91	2745
810.402	2680
810.894	2712
811.387	2719
811.879	2645
812.372	2633
812.865	2599
813.357	2606
813.85	2595
814.342	2559
814.835	2541
815.328	2533
815.821	2482
816.313	2468
816.806	2475
817.299	2462
817.792	2510
818.285	2501
818.778	2535
819.271	2521
819.764	2453
820.257	2434
820.75	2420
821.243	2404
821.736	2386
822.229	2418
822.722	2416
823.216	2474
