Data from lamp2helium_sterk_Subt4__28__245.txt Node

Date: Fri Apr 04 10:59:24 CEST 2025
User: fys-lab-0081
Spectrometer: S04999
Trigger mode: 0
Resolution mode: 1024 pixels
Integration Time (sec): 1.000000E-1
Scans to average: 1
Nonlinearity correction enabled: false
Boxcar width: 0
Baseline correction enabled: true
XAxis mode: Wavelengths
Number of Pixels in Spectrum: 1024
>>>>>Begin Spectral Data<<<<<
336.42	-2
336.877	-2
337.334	1
337.792	4
338.249	2
338.706	6
339.164	5
339.621	-3
340.079	3
340.536	1
340.994	-4
341.452	4
341.909	0
342.367	-3
342.825	5
343.283	0
343.741	5
344.198	-4
344.656	0
345.114	1
345.572	-3
346.03	1
346.488	-2
346.947	1
347.405	3
347.863	1
348.321	-1
348.779	0
349.238	3
349.696	-3
350.154	-1
350.613	0
351.071	-2
351.53	0
351.988	-1
352.447	-6
352.905	-1
353.364	0
353.823	4
354.282	0
354.74	0
355.199	1
355.658	3
356.117	2
356.576	-3
357.035	0
357.494	-1
357.953	-3
358.412	0
358.871	-1
359.33	3
359.789	4
360.249	1
360.708	4
361.167	-3
361.626	2
362.086	3
362.545	2
363.005	-5
363.464	6
363.924	-2
364.383	0
364.843	0
365.303	0
365.762	0
366.222	4
366.682	-3
367.142	-1
367.601	3
368.061	1
368.521	5
368.981	0
369.441	2
369.901	-3
370.361	5
370.821	7
371.282	-2
371.742	0
372.202	3
372.662	2
373.123	2
373.583	2
374.043	1
374.504	-2
374.964	-4
375.425	0
375.885	6
376.346	3
376.806	-2
377.267	4
377.728	1
378.188	5
378.649	2
379.11	0
379.571	0
380.032	2
380.493	1
380.954	4
381.414	2
381.876	2
382.337	4
382.798	3
383.259	4
383.72	1
384.181	5
384.642	-1
385.104	3
385.565	7
386.026	3
386.488	5
386.949	-1
387.411	4
387.872	0
388.334	1
388.795	0
389.257	5
389.719	1
390.181	3
390.642	4
391.104	8
391.566	3
392.028	4
392.49	1
392.952	-1
393.414	0
393.876	2
394.338	4
394.8	0
395.262	3
395.724	5
396.186	2
396.648	5
397.111	5
397.573	2
398.035	3
398.498	6
398.96	4
399.423	5
399.885	4
400.348	3
400.81	0
401.273	4
401.736	3
402.198	4
402.661	5
403.124	8
403.587	5
404.049	3
404.512	1
404.975	8
405.438	8
405.901	2
406.364	1
406.827	10
407.29	4
407.754	7
408.217	1
408.68	9
409.143	6
409.607	6
410.07	-2
410.533	9
410.997	9
411.46	9
411.924	4
412.387	1
412.851	3
413.314	10
413.778	8
414.242	4
414.705	8
415.169	5
415.633	7
416.097	7
416.561	5
417.024	8
417.488	10
417.952	12
418.416	9
418.88	13
419.344	6
419.809	7
420.273	12
420.737	5
421.201	5
421.665	7
422.13	8
422.594	6
423.059	6
423.523	0
423.987	9
424.452	10
424.916	2
425.381	5
425.846	11
426.31	8
426.775	11
427.24	6
427.704	10
428.169	14
428.634	11
429.099	5
429.564	12
430.029	10
430.494	10
430.959	10
431.424	6
431.889	11
432.354	9
432.819	12
433.284	12
433.75	13
434.215	11
434.68	16
435.146	10
435.611	17
436.077	16
436.542	13
437.008	11
437.473	11
437.939	6
438.404	14
438.87	12
439.336	9
439.801	19
440.267	13
440.733	14
441.199	13
441.665	15
442.131	16
442.596	11
443.062	14
443.529	16
443.995	17
444.461	18
444.927	15
445.393	15
445.859	20
446.325	18
446.792	20
447.258	20
447.724	21
448.191	19
448.657	21
449.124	22
449.59	21
450.057	19
450.523	25
450.99	19
451.457	26
451.923	24
452.39	22
452.857	23
453.324	24
453.791	26
454.257	31
454.724	27
455.191	17
455.658	23
456.125	27
456.592	27
457.059	26
457.527	20
457.994	24
458.461	24
458.928	27
459.396	29
459.863	30
460.33	25
460.798	30
461.265	30
461.732	27
462.2	27
462.668	31
463.135	25
463.603	29
464.07	33
464.538	33
465.006	31
465.474	26
465.941	30
466.409	31
466.877	23
467.345	28
467.813	28
468.281	29
468.749	28
469.217	31
469.685	34
470.153	24
470.621	37
471.09	32
471.558	37
472.026	35
472.494	30
472.963	32
473.431	36
473.9	36
474.368	38
474.837	38
475.305	37
475.774	45
476.242	41
476.711	41
477.18	40
477.648	40
478.117	43
478.586	42
479.055	45
479.524	37
479.993	42
480.462	45
480.93	44
481.399	42
481.869	45
482.338	39
482.807	44
483.276	45
483.745	45
484.214	46
484.684	42
485.153	48
485.622	45
486.092	46
486.561	45
487.031	49
487.5	48
487.97	52
488.439	45
488.909	48
489.378	52
489.848	50
490.318	49
490.787	57
491.257	61
491.727	57
492.197	61
492.667	66
493.137	65
493.607	65
494.077	59
494.547	66
495.017	55
495.487	62
495.957	64
496.427	60
496.897	63
497.368	63
497.838	62
498.308	65
498.779	72
499.249	65
499.719	64
500.19	60
500.66	68
501.131	72
501.602	71
502.072	68
502.543	65
503.014	66
503.484	72
503.955	75
504.426	78
504.897	74
505.368	76
505.838	76
506.309	86
506.78	85
507.251	83
507.722	91
508.194	89
508.665	85
509.136	90
509.607	99
510.078	92
510.549	99
511.021	99
511.492	100
511.964	102
512.435	102
512.906	104
513.378	102
513.849	107
514.321	111
514.793	103
515.264	105
515.736	109
516.208	116
516.679	111
517.151	112
517.623	114
518.095	121
518.567	124
519.038	117
519.51	120
519.982	123
520.454	124
520.927	123
521.399	129
521.871	121
522.343	125
522.815	130
523.287	126
523.76	131
524.232	134
524.704	136
525.177	133
525.649	135
526.122	136
526.594	137
527.067	135
527.539	142
528.012	138
528.484	140
528.957	139
529.43	140
529.903	137
530.375	143
530.848	136
531.321	144
531.794	142
532.267	145
532.74	142
533.213	137
533.686	148
534.159	148
534.632	149
535.105	149
535.578	152
536.051	150
536.525	154
536.998	153
537.471	156
537.945	155
538.418	158
538.891	150
539.365	164
539.838	167
540.312	165
540.786	163
541.259	165
541.733	166
542.206	168
542.68	164
543.154	164
543.628	163
544.101	174
544.575	168
545.049	160
545.523	165
545.997	168
546.471	175
546.945	168
547.419	173
547.893	161
548.367	172
548.842	170
549.316	166
549.79	164
550.264	164
550.739	169
551.213	174
551.687	166
552.162	173
552.636	170
553.111	175
553.585	174
554.06	170
554.534	178
555.009	176
555.484	177
555.958	177
556.433	181
556.908	185
557.383	177
557.858	188
558.333	188
558.807	184
559.282	186
559.757	187
560.232	196
560.708	191
561.183	193
561.658	198
562.133	193
562.608	194
563.083	199
563.559	190
564.034	193
564.509	195
564.985	194
565.46	195
565.936	196
566.411	197
566.887	194
567.362	199
567.838	195
568.313	202
568.789	197
569.265	199
569.74	201
570.216	198
570.692	204
571.168	200
571.644	206
572.12	202
572.596	204
573.071	206
573.547	207
574.024	212
574.5	216
574.976	207
575.452	216
575.928	220
576.404	222
576.881	230
577.357	222
577.833	223
578.31	234
578.786	242
579.262	244
579.739	233
580.215	243
580.692	241
581.169	244
581.645	241
582.122	247
582.598	244
583.075	249
583.552	253
584.029	251
584.506	249
584.982	249
585.459	260
585.936	257
586.413	260
586.89	267
587.367	260
587.844	268
588.321	261
588.799	266
589.276	259
589.753	266
590.23	267
590.707	262
591.185	266
591.662	269
592.139	269
592.617	273
593.094	270
593.572	272
594.049	280
594.527	286
595.004	283
595.482	289
595.96	289
596.437	289
596.915	301
597.393	288
597.871	294
598.349	292
598.826	308
599.304	309
599.782	312
600.26	302
600.738	311
601.216	306
601.694	315
602.173	317
602.651	320
603.129	320
603.607	317
604.085	322
604.564	318
605.042	322
605.52	321
605.999	330
606.477	329
606.956	324
607.434	326
607.913	328
608.391	325
608.87	334
609.348	320
609.827	324
610.306	327
610.785	329
611.263	327
611.742	329
612.221	327
612.7	323
613.179	326
613.658	327
614.137	338
614.616	340
615.095	329
615.574	335
616.053	337
616.532	337
617.011	335
617.491	331
617.97	336
618.449	340
618.928	348
619.408	350
619.887	345
620.367	353
620.846	354
621.326	353
621.805	354
622.285	353
622.764	357
623.244	368
623.724	369
624.203	368
624.683	363
625.163	370
625.643	373
626.123	363
626.602	377
627.082	370
627.562	370
628.042	379
628.522	375
629.002	379
629.482	383
629.963	376
630.443	371
630.923	369
631.403	376
631.883	376
632.364	379
632.844	377
633.324	379
633.805	377
634.285	375
634.766	383
635.246	382
635.727	380
636.207	379
636.688	376
637.168	385
637.649	375
638.13	371
638.611	373
639.091	379
639.572	376
640.053	376
640.534	382
641.015	379
641.496	375
641.977	376
642.458	370
642.939	370
643.42	377
643.901	377
644.382	380
644.863	384
645.345	384
645.826	382
646.307	384
646.788	391
647.27	385
647.751	393
648.233	389
648.714	384
649.196	387
649.677	394
650.159	396
650.64	389
651.122	401
651.603	393
652.085	391
652.567	394
653.049	387
653.53	394
654.012	398
654.494	389
654.976	392
655.458	394
655.94	394
656.422	398
656.904	389
657.386	385
657.868	393
658.35	388
658.833	402
659.315	397
659.797	392
660.279	397
660.762	400
661.244	390
661.726	387
662.209	391
662.691	393
663.174	384
663.656	387
664.139	388
664.621	390
665.104	383
665.587	392
666.069	382
666.552	382
667.035	382
667.517	382
668	388
668.483	389
668.966	386
669.449	376
669.932	386
670.415	395
670.898	388
671.381	387
671.864	383
672.347	388
672.83	386
673.313	390
673.797	387
674.28	392
674.763	390
675.247	390
675.73	395
676.213	400
676.697	407
677.18	406
677.664	408
678.147	410
678.631	412
679.114	411
679.598	405
680.082	416
680.565	418
681.049	412
681.533	409
682.017	414
682.5	424
682.984	423
683.468	418
683.952	410
684.436	413
684.92	415
685.404	416
685.888	421
686.372	422
686.856	422
687.341	426
687.825	420
688.309	426
688.793	426
689.278	414
689.762	422
690.246	430
690.731	420
691.215	430
691.7	416
692.184	415
692.669	417
693.153	418
693.638	416
694.122	413
694.607	412
695.092	414
695.577	417
696.061	412
696.546	412
697.031	409
697.516	415
698.001	418
698.486	407
698.971	420
699.456	405
699.941	413
700.426	419
700.911	418
701.396	411
701.881	411
702.366	412
702.852	413
703.337	414
703.822	409
704.308	402
704.793	405
705.278	402
705.764	410
706.249	407
706.735	412
707.22	422
707.706	413
708.191	414
708.677	416
709.163	418
709.648	422
710.134	422
710.62	418
711.106	421
711.592	421
712.077	423
712.563	413
713.049	410
713.535	421
714.021	423
714.507	421
714.993	410
715.479	418
715.966	413
716.452	420
716.938	418
717.424	405
717.91	416
718.397	412
718.883	406
719.369	407
719.856	409
720.342	408
720.829	401
721.315	406
721.802	404
722.288	411
722.775	399
723.262	388
723.748	404
724.235	401
724.722	405
725.208	395
725.695	401
726.182	400
726.669	393
727.156	394
727.643	393
728.13	389
728.617	390
729.104	390
729.591	388
730.078	385
730.565	389
731.052	390
731.539	391
732.027	389
732.514	378
733.001	383
733.488	385
733.976	381
734.463	383
734.951	384
735.438	386
735.926	384
736.413	382
736.901	375
737.388	380
737.876	381
738.364	376
738.851	373
739.339	372
739.827	380
740.314	372
740.802	371
741.29	373
741.778	368
742.266	376
742.754	373
743.242	379
743.73	368
744.218	377
744.706	367
745.194	376
745.682	376
746.17	376
746.659	378
747.147	366
747.635	372
748.123	374
748.612	367
749.1	362
749.589	368
750.077	364
750.566	353
751.054	361
751.543	361
752.031	359
752.52	363
753.008	350
753.497	344
753.986	354
754.474	353
754.963	359
755.452	349
755.941	339
756.43	344
756.919	342
757.408	346
757.896	341
758.385	349
758.875	336
759.364	338
759.853	329
760.342	328
760.831	335
761.32	339
761.809	332
762.299	331
762.788	332
763.277	332
763.767	325
764.256	325
764.745	320
765.235	325
765.724	316
766.214	324
766.703	322
767.193	318
767.683	319
768.172	319
768.662	314
769.152	313
769.641	319
770.131	314
770.621	305
771.111	303
771.601	302
772.09	301
772.58	302
773.07	299
773.56	308
774.05	300
774.54	298
775.031	297
775.521	292
776.011	293
776.501	291
776.991	293
777.482	302
777.972	289
778.462	289
778.953	293
779.443	290
779.933	294
780.424	288
780.914	290
781.405	290
781.895	284
782.386	285
782.877	280
783.367	273
783.858	280
784.349	273
784.839	267
785.33	277
785.821	275
786.312	273
786.803	268
787.293	270
787.784	270
788.275	264
788.766	258
789.257	270
789.748	259
790.24	262
790.731	260
791.222	261
791.713	261
792.204	260
792.696	255
793.187	255
793.678	250
794.169	250
794.661	255
795.152	253
795.644	246
796.135	258
796.627	256
797.118	248
797.61	246
798.101	246
798.593	251
799.085	248
799.576	241
800.068	239
800.56	239
801.052	243
801.544	233
802.035	234
802.527	233
803.019	231
803.511	235
804.003	226
804.495	227
804.987	222
805.479	218
805.971	224
806.464	225
806.956	220
807.448	220
807.94	219
808.433	218
808.925	221
809.417	224
809.91	215
810.402	214
810.894	217
811.387	214
811.879	216
812.372	210
812.865	209
813.357	205
813.85	211
814.342	209
814.835	209
815.328	212
815.821	205
816.313	209
816.806	211
817.299	210
817.792	210
818.285	202
818.778	209
819.271	209
819.764	202
820.257	201
820.75	204
821.243	200
821.736	199
822.229	202
822.722	198
823.216	207
