Data from lamp2helium_sterk_Subt4__29__246.txt Node

Date: Fri Apr 04 10:59:24 CEST 2025
User: fys-lab-0081
Spectrometer: S04999
Trigger mode: 0
Resolution mode: 1024 pixels
Integration Time (sec): 1.000000E-1
Scans to average: 1
Nonlinearity correction enabled: false
Boxcar width: 0
Baseline correction enabled: true
XAxis mode: Wavelengths
Number of Pixels in Spectrum: 1024
>>>>>Begin Spectral Data<<<<<
336.42	-1
336.877	3
337.334	-1
337.792	6
338.249	-2
338.706	2
339.164	1
339.621	0
340.079	2
340.536	2
340.994	2
341.452	0
341.909	0
342.367	1
342.825	1
343.283	-3
343.741	6
344.198	-3
344.656	-6
345.114	1
345.572	-4
346.03	-3
346.488	2
346.947	-1
347.405	4
347.863	1
348.321	-3
348.779	-1
349.238	2
349.696	3
350.154	-3
350.613	-3
351.071	4
351.53	0
351.988	0
352.447	1
352.905	-3
353.364	-1
353.823	4
354.282	1
354.74	1
355.199	2
355.658	-2
356.117	0
356.576	0
357.035	1
357.494	-3
357.953	-2
358.412	-3
358.871	2
359.33	2
359.789	3
360.249	5
360.708	5
361.167	-3
361.626	1
362.086	1
362.545	2
363.005	-5
363.464	5
363.924	3
364.383	0
364.843	3
365.303	-3
365.762	-1
366.222	1
366.682	-1
367.142	-1
367.601	1
368.061	4
368.521	5
368.981	3
369.441	4
369.901	-6
370.361	2
370.821	5
371.282	1
371.742	-2
372.202	0
372.662	2
373.123	4
373.583	2
374.043	4
374.504	-1
374.964	1
375.425	0
375.885	0
376.346	0
376.806	-1
377.267	4
377.728	-2
378.188	2
378.649	4
379.11	1
379.571	-2
380.032	2
380.493	1
380.954	4
381.414	-1
381.876	3
382.337	4
382.798	0
383.259	3
383.72	2
384.181	0
384.642	-1
385.104	3
385.565	1
386.026	2
386.488	3
386.949	3
387.411	4
387.872	3
388.334	1
388.795	-2
389.257	4
389.719	4
390.181	4
390.642	3
391.104	7
391.566	2
392.028	5
392.49	2
392.952	1
393.414	-2
393.876	5
394.338	3
394.8	1
395.262	5
395.724	8
396.186	1
396.648	7
397.111	2
397.573	4
398.035	2
398.498	7
398.96	6
399.423	1
399.885	1
400.348	8
400.81	6
401.273	2
401.736	-1
402.198	6
402.661	7
403.124	9
403.587	6
404.049	3.5
404.512	1
404.975	8
405.438	8
405.901	0
406.364	0
406.827	10
407.29	6
407.754	6
408.217	3
408.68	8
409.143	6
409.607	2
410.07	1
410.533	12
410.997	4
411.46	12
411.924	-1
412.387	0
412.851	3
413.314	10
413.778	10
414.242	10
414.705	5
415.169	6
415.633	9
416.097	10
416.561	5
417.024	7
417.488	8
417.952	11
418.416	2
418.88	13
419.344	2
419.809	9
420.273	8
420.737	9
421.201	10
421.665	7
422.13	6
422.594	5
423.059	9
423.523	6
423.987	4
424.452	7
424.916	8
425.381	7
425.846	12
426.31	5
426.775	5
427.24	15
427.704	6
428.169	10
428.634	9
429.099	10
429.564	8
430.029	13
430.494	9
430.959	8
431.424	12
431.889	13
432.354	6
432.819	9
433.284	12
433.75	12
434.215	13
434.68	14
435.146	14
435.611	15
436.077	15
436.542	18
437.008	14
437.473	16
437.939	13
438.404	17
438.87	17
439.336	5
439.801	16
440.267	12
440.733	12
441.199	14
441.665	16
442.131	15
442.596	15
443.062	17
443.529	16
443.995	13
444.461	20
444.927	18
445.393	18
445.859	21
446.325	19
446.792	22
447.258	18
447.724	19
448.191	24
448.657	22
449.124	18
449.59	21
450.057	19
450.523	19
450.99	24
451.457	24
451.923	24
452.39	25
452.857	23
453.324	27
453.791	27
454.257	26
454.724	26
455.191	22
455.658	22
456.125	27
456.592	23
457.059	25
457.527	20
457.994	19
458.461	23
458.928	22
459.396	25
459.863	29
460.33	28
460.798	22
461.265	29
461.732	27
462.2	34
462.668	34
463.135	24
463.603	27
464.07	34
464.538	33
465.006	31
465.474	24
465.941	29
466.409	32
466.877	23
467.345	28
467.813	29
468.281	28
468.749	28
469.217	29
469.685	33
470.153	27
470.621	36
471.09	39
471.558	33
472.026	31
472.494	33
472.963	36
473.431	34
473.9	35
474.368	39
474.837	37
475.305	39
475.774	46
476.242	43
476.711	44
477.18	41
477.648	39
478.117	45
478.586	44
479.055	42
479.524	41
479.993	44
480.462	44
480.93	48
481.399	42
481.869	41
482.338	41
482.807	43
483.276	45
483.745	42
484.214	50
484.684	43
485.153	46
485.622	48
486.092	51
486.561	43
487.031	49
487.5	48
487.97	51
488.439	47
488.909	50
489.378	52
489.848	55
490.318	50
490.787	54
491.257	59
491.727	57
492.197	60
492.667	62
493.137	66
493.607	64
494.077	56
494.547	60
495.017	58
495.487	64
495.957	66
496.427	61
496.897	65
497.368	63
497.838	66
498.308	63
498.779	70
499.249	66
499.719	59
500.19	62
500.66	69
501.131	70
501.602	70
502.072	68
502.543	61
503.014	67
503.484	74
503.955	73
504.426	77
504.897	73
505.368	77
505.838	79
506.309	88
506.78	88
507.251	82
507.722	89
508.194	90
508.665	88
509.136	89
509.607	99
510.078	91
510.549	102
511.021	101
511.492	97
511.964	101
512.435	103
512.906	104
513.378	106
513.849	106
514.321	105
514.793	101
515.264	101
515.736	107
516.208	113
516.679	114
517.151	116
517.623	112
518.095	120
518.567	118
519.038	120
519.51	121
519.982	125
520.454	125
520.927	124
521.399	132
521.871	128
522.343	130
522.815	127
523.287	132
523.76	132
524.232	134
524.704	136
525.177	134
525.649	135
526.122	135
526.594	130
527.067	135
527.539	139
528.012	136
528.484	138
528.957	135
529.43	137
529.903	136
530.375	142
530.848	136
531.321	140
531.794	140
532.267	142
532.74	144
533.213	136
533.686	149
534.159	145
534.632	148
535.105	150
535.578	150
536.051	150
536.525	155
536.998	158
537.471	157
537.945	156
538.418	156
538.891	157
539.365	158
539.838	161
540.312	168
540.786	166
541.259	165
541.733	167
542.206	166
542.68	158
543.154	165
543.628	167
544.101	170
544.575	166
545.049	164
545.523	172
545.997	170
546.471	168
546.945	168
547.419	175
547.893	166
548.367	168
548.842	165
549.316	170
549.79	169
550.264	169
550.739	171
551.213	172
551.687	168
552.162	174
552.636	167
553.111	172
553.585	176
554.06	176
554.534	175
555.009	176
555.484	177
555.958	183
556.433	180
556.908	186
557.383	179
557.858	186
558.333	192
558.807	189
559.282	187
559.757	192
560.232	196
560.708	190
561.183	189
561.658	197
562.133	193
562.608	195
563.083	198
563.559	196
564.034	196
564.509	193
564.985	199
565.46	195
565.936	193
566.411	199
566.887	192
567.362	201
567.838	200
568.313	198
568.789	198
569.265	202
569.74	202
570.216	201
570.692	203
571.168	201
571.644	210
572.12	203
572.596	210
573.071	201
573.547	207
574.024	210
574.5	216
574.976	214
575.452	217
575.928	219
576.404	221
576.881	229
577.357	223
577.833	222
578.31	232
578.786	241
579.262	248
579.739	236
580.215	243
580.692	243
581.169	243
581.645	241
582.122	249
582.598	249
583.075	247
583.552	258
584.029	253
584.506	249
584.982	253
585.459	256
585.936	252
586.413	258
586.89	263
587.367	259
587.844	268
588.321	262
588.799	260
589.276	261
589.753	266
590.23	265
590.707	271
591.185	268
591.662	268
592.139	269
592.617	274
593.094	269
593.572	277
594.049	278
594.527	287
595.004	280
595.482	291
595.96	289
596.437	290
596.915	298
597.393	288
597.871	292
598.349	295
598.826	305
599.304	307
599.782	309
600.26	303
600.738	315
601.216	311
601.694	314
602.173	315
602.651	314
603.129	315
603.607	319
604.085	321
604.564	318
605.042	324
605.52	320
605.999	333
606.477	328
606.956	319
607.434	322
607.913	325
608.391	326
608.87	332
609.348	325
609.827	325
610.306	326
610.785	327
611.263	334
611.742	332
612.221	326
612.7	327
613.179	328
613.658	330
614.137	337
614.616	342
615.095	333
615.574	338
616.053	334
616.532	334
617.011	339
617.491	335
617.97	339
618.449	340
618.928	347
619.408	349
619.887	348
620.367	351
620.846	351
621.326	356
621.805	357
622.285	355
622.764	361
623.244	364
623.724	369
624.203	367
624.683	363
625.163	369
625.643	377
626.123	365
626.602	374
627.082	368
627.562	369
628.042	382
628.522	377
629.002	380
629.482	377
629.963	371
630.443	373
630.923	375
631.403	373
631.883	372
632.364	377
632.844	379
633.324	381
633.805	377
634.285	377
634.766	378
635.246	377
635.727	384
636.207	379
636.688	378
637.168	381
637.649	374
638.13	375
638.611	374
639.091	376
639.572	375
640.053	378
640.534	381
641.015	384
641.496	372
641.977	378
642.458	373
642.939	370
643.42	375
643.901	377
644.382	383
644.863	389
645.345	381
645.826	381
646.307	386
646.788	385
647.27	389
647.751	391
648.233	394
648.714	386
649.196	389
649.677	389
650.159	394
650.64	393
651.122	401
651.603	393
652.085	389
652.567	390
653.049	393
653.53	393
654.012	397
654.494	386
654.976	391
655.458	394
655.94	395
656.422	402
656.904	393
657.386	387
657.868	393
658.35	390
658.833	403
659.315	398
659.797	394
660.279	400
660.762	397
661.244	398
661.726	390
662.209	390
662.691	393
663.174	383
663.656	388
664.139	391
664.621	390
665.104	383
665.587	385
666.069	382
666.552	386
667.035	377
667.517	381
668	383
668.483	388
668.966	386
669.449	374
669.932	384
670.415	395
670.898	388
671.381	386
671.864	391
672.347	388
672.83	385
673.313	394
673.797	394
674.28	395
674.763	399
675.247	392
675.73	396
676.213	392
676.697	408
677.18	402
677.664	408
678.147	408
678.631	407
679.114	408
679.598	405
680.082	412
680.565	419
681.049	413
681.533	408
682.017	421
682.5	418
682.984	423
683.468	410
683.952	411
684.436	416
684.92	414
685.404	418
685.888	421
686.372	421
686.856	425
687.341	425
687.825	415
688.309	424
688.793	423
689.278	423
689.762	426
690.246	433
690.731	421
691.215	428
691.7	415
692.184	415
692.669	416
693.153	423
693.638	412
694.122	416
694.607	415
695.092	412
695.577	419
696.061	414
696.546	411
697.031	416
697.516	416
698.001	421
698.486	411
698.971	418
699.456	410
699.941	415
700.426	415
700.911	427
701.396	409
701.881	414
702.366	410
702.852	411
703.337	415
703.822	415
704.308	407
704.793	409
705.278	414
705.764	413
706.249	410
706.735	417
707.22	420
707.706	411
708.191	418
708.677	416
709.163	422
709.648	421
710.134	422
710.62	416
711.106	419
711.592	421
712.077	420
712.563	413
713.049	413
713.535	420
714.021	423
714.507	422
714.993	418
715.479	424
715.966	415
716.452	416
716.938	416
717.424	407
717.91	419
718.397	415
718.883	413
719.369	408
719.856	410
720.342	409
720.829	401
721.315	405
721.802	401
722.288	410
722.775	398
723.262	393
723.748	401
724.235	398
724.722	405
725.208	394
725.695	404
726.182	400
726.669	397
727.156	394
727.643	389
728.13	390
728.617	393
729.104	392
729.591	391
730.078	385
730.565	389
731.052	390
731.539	392
732.027	388
732.514	379
733.001	382
733.488	384
733.976	379
734.463	386
734.951	389
735.438	390
735.926	382
736.413	385
736.901	376
737.388	384
737.876	378
738.364	378
738.851	373
739.339	373
739.827	379
740.314	373
740.802	370
741.29	380
741.778	370
742.266	376
742.754	371
743.242	376
743.73	376
744.218	376
744.706	366
745.194	379
745.682	375
746.17	379
746.659	379
747.147	369
747.635	370
748.123	374
748.612	371
749.1	366
749.589	371
750.077	370
750.566	360
751.054	364
751.543	362
752.031	359
752.52	356
753.008	352
753.497	345
753.986	348
754.474	352
754.963	356
755.452	346
755.941	348
756.43	341
756.919	344
757.408	339
757.896	344
758.385	343
758.875	340
759.364	337
759.853	331
760.342	332
760.831	335
761.32	334
761.809	335
762.299	329
762.788	335
763.277	340
763.767	328
764.256	327
764.745	321
765.235	327
765.724	316
766.214	324
766.703	320
767.193	319
767.683	321
768.172	312
768.662	313
769.152	312
769.641	318
770.131	305
770.621	311
771.111	303
771.601	304
772.09	305
772.58	300
773.07	300
773.56	310
774.05	299
774.54	296
775.031	298
775.521	299
776.011	296
776.501	294
776.991	297
777.482	299
777.972	290
778.462	283
778.953	300
779.443	286
779.933	296
780.424	290
780.914	285
781.405	287
781.895	284
782.386	279
782.877	278
783.367	275
783.858	275
784.349	278
784.839	272
785.33	273
785.821	272
786.312	273
786.803	277
787.293	272
787.784	266
788.275	264
788.766	264
789.257	274
789.748	259
790.24	261
790.731	260
791.222	263
791.713	262
792.204	258
792.696	255
793.187	258
793.678	253
794.169	255
794.661	254
795.152	252
795.644	247
796.135	258
796.627	255
797.118	246
797.61	248
798.101	247
798.593	250
799.085	246
799.576	244
800.068	239
800.56	237
801.052	241
801.544	234
802.035	235
802.527	233
803.019	231
803.511	231
804.003	229
804.495	229
804.987	225
805.479	224
805.971	220
806.464	235
806.956	219
807.448	214
807.94	219
808.433	224
808.925	220
809.417	222
809.91	217
810.402	214
810.894	219
811.387	214
811.879	220
812.372	209
812.865	210
813.357	200
813.85	206
814.342	206
814.835	211
815.328	210
815.821	206
816.313	205
816.806	210
817.299	210
817.792	207
818.285	209
818.778	213
819.271	210
819.764	205
820.257	202
820.75	207
821.243	201
821.736	195
822.229	202
822.722	198
823.216	203
