Data from lamp4helium_zwak_dubbel_Subt2__133__733.txt Node

Date: Wed Apr 09 12:16:32 CEST 2025
User: fys-lab-0081
Spectrometer: S04999
Trigger mode: 0
Resolution mode: 1024 pixels
Integration Time (sec): 1.000000E-1
Scans to average: 1
Nonlinearity correction enabled: false
Boxcar width: 0
Baseline correction enabled: true
XAxis mode: Wavelengths
Number of Pixels in Spectrum: 1024
>>>>>Begin Spectral Data<<<<<
336.42	4
336.877	4
337.334	1
337.792	6
338.249	3
338.706	1
339.164	2
339.621	3
340.079	2
340.536	5
340.994	5
341.452	9
341.909	7
342.367	1
342.825	-1
343.283	4
343.741	-1
344.198	2
344.656	2
345.114	0
345.572	6
346.03	2
346.488	4
346.947	4
347.405	5
347.863	0
348.321	-1
348.779	3
349.238	2
349.696	2
350.154	-2
350.613	-2
351.071	2
351.53	12
351.988	6
352.447	4
352.905	3
353.364	4
353.823	1
354.282	3
354.74	-4
355.199	2
355.658	7
356.117	6
356.576	5
357.035	0
357.494	1
357.953	3
358.412	5
358.871	3
359.33	4
359.789	-1
360.249	2
360.708	6
361.167	8
361.626	5
362.086	0
362.545	9
363.005	9
363.464	10
363.924	7
364.383	4
364.843	7
365.303	8
365.762	8
366.222	8
366.682	6
367.142	7
367.601	7
368.061	7
368.521	4
368.981	3
369.441	12
369.901	12
370.361	8
370.821	8
371.282	5
371.742	6
372.202	12
372.662	10
373.123	8
373.583	9
374.043	15
374.504	4
374.964	6
375.425	9
375.885	11
376.346	15
376.806	17
377.267	13
377.728	10
378.188	16
378.649	9
379.11	12
379.571	11
380.032	16
380.493	17
380.954	19
381.414	12
381.876	11
382.337	14
382.798	19
383.259	17
383.72	18
384.181	12
384.642	14
385.104	18
385.565	23
386.026	23
386.488	26
386.949	24
387.411	18
387.872	22
388.334	26
388.795	26
389.257	27
389.719	21
390.181	26
390.642	23
391.104	27
391.566	25
392.028	27
392.49	37
392.952	31
393.414	33
393.876	34
394.338	28
394.8	31
395.262	27
395.724	36
396.186	36
396.648	35
397.111	33
397.573	41
398.035	36
398.498	38
398.96	37
399.423	37
399.885	40
400.348	42
400.81	40
401.273	39
401.736	39
402.198	48
402.661	46
403.124	42
403.587	49
404.049	50.5
404.512	52
404.975	45
405.438	50
405.901	54
406.364	51
406.827	52
407.29	48
407.754	49
408.217	54
408.68	52
409.143	55
409.607	56
410.07	57
410.533	56
410.997	57
411.46	60
411.924	63
412.387	65
412.851	66
413.314	57
413.778	62
414.242	64
414.705	71
415.169	67
415.633	68
416.097	68
416.561	74
417.024	72
417.488	68
417.952	69
418.416	67
418.88	68
419.344	67
419.809	71
420.273	70
420.737	68
421.201	72
421.665	77
422.13	75
422.594	83
423.059	79
423.523	83
423.987	74
424.452	82
424.916	86
425.381	85
425.846	86
426.31	97
426.775	95
427.24	97
427.704	95
428.169	91
428.634	98
429.099	97
429.564	94
430.029	98
430.494	94
430.959	91
431.424	93
431.889	101
432.354	102
432.819	97
433.284	106
433.75	103
434.215	109
434.68	105
435.146	105
435.611	112
436.077	118
436.542	119
437.008	127
437.473	122
437.939	124
438.404	131
438.87	133
439.336	133
439.801	132
440.267	130
440.733	143
441.199	137
441.665	141
442.131	140
442.596	139
443.062	140
443.529	152
443.995	149
444.461	152
444.927	157
445.393	152
445.859	163
446.325	171
446.792	182
447.258	177
447.724	186
448.191	191
448.657	196
449.124	190
449.59	196
450.057	209
450.523	205
450.99	219
451.457	213
451.923	219
452.39	218
452.857	224
453.324	218
453.791	223
454.257	228
454.724	230
455.191	225
455.658	224
456.125	228
456.592	227
457.059	237
457.527	234
457.994	244
458.461	247
458.928	252
459.396	251
459.863	259
460.33	255
460.798	263
461.265	269
461.732	267
462.2	272
462.668	271
463.135	277
463.603	266
464.07	281
464.538	269
465.006	278
465.474	274
465.941	270
466.409	274
466.877	271
467.345	275
467.813	271
468.281	281
468.749	280
469.217	278
469.685	284
470.153	290
470.621	287
471.09	286
471.558	303
472.026	299
472.494	305
472.963	309
473.431	320
473.9	327
474.368	335
474.837	338
475.305	346
475.774	349
476.242	361
476.711	362
477.18	373
477.648	369
478.117	381
478.586	377
479.055	372
479.524	381
479.993	379
480.462	377
480.93	380
481.399	383
481.869	375
482.338	371
482.807	383
483.276	382
483.745	381
484.214	387
484.684	396
485.153	389
485.622	399
486.092	403
486.561	395
487.031	412
487.5	419
487.97	422
488.439	432
488.909	441
489.378	458
489.848	458
490.318	473
490.787	494
491.257	503
491.727	510
492.197	520
492.667	516
493.137	514
493.607	526
494.077	531
494.547	526
495.017	529
495.487	539
495.957	551
496.427	540
496.897	537
497.368	549
497.838	543
498.308	547
498.779	550
499.249	548
499.719	550
500.19	568
500.66	562
501.131	567
501.602	575
502.072	576
502.543	586
503.014	607
503.484	602
503.955	609
504.426	634
504.897	639
505.368	650
505.838	660
506.309	669
506.78	699
507.251	716
507.722	724
508.194	750
508.665	765
509.136	759
509.607	785
510.078	799
510.549	804
511.021	824
511.492	822
511.964	838
512.435	852
512.906	840
513.378	856
513.849	873
514.321	864
514.793	870
515.264	886
515.736	894
516.208	903
516.679	911
517.151	932
517.623	935
518.095	942
518.567	952
519.038	982
519.51	974
519.982	986
520.454	1001
520.927	1018
521.399	1016
521.871	1028
522.343	1034
522.815	1045
523.287	1039
523.76	1048
524.232	1075
524.704	1076
525.177	1059
525.649	1071
526.122	1097
526.594	1070
527.067	1096
527.539	1106
528.012	1106
528.484	1100
528.957	1102
529.43	1110
529.903	1111
530.375	1141
530.848	1105
531.321	1125
531.794	1135
532.267	1149
532.74	1120
533.213	1122
533.686	1142
534.159	1128
534.632	1152
535.105	1158
535.578	1175
536.051	1173
536.525	1173
536.998	1186
537.471	1217
537.945	1194
538.418	1204
538.891	1223
539.365	1243
539.838	1248
540.312	1249
540.786	1258
541.259	1275
541.733	1279
542.206	1282
542.68	1267
543.154	1272
543.628	1268
544.101	1303
544.575	1296
545.049	1270
545.523	1288
545.997	1280
546.471	1289
546.945	1289
547.419	1307
547.893	1251
548.367	1273
548.842	1268
549.316	1269
549.79	1283
550.264	1280
550.739	1295
551.213	1300
551.687	1286
552.162	1297
552.636	1299
553.111	1295
553.585	1322
554.06	1290
554.534	1330
555.009	1322
555.484	1329
555.958	1333
556.433	1339
556.908	1370
557.383	1346
557.858	1370
558.333	1384
558.807	1374
559.282	1392
559.757	1431
560.232	1426
560.708	1419
561.183	1416
561.658	1428
562.133	1428
562.608	1422
563.083	1475
563.559	1437
564.034	1433
564.509	1440
564.985	1465
565.46	1457
565.936	1471
566.411	1464
566.887	1453
567.362	1475
567.838	1457
568.313	1461
568.789	1454
569.265	1461
569.74	1472
570.216	1445
570.692	1458
571.168	1465
571.644	1465
572.12	1442
572.596	1452
573.071	1450
573.547	1499
574.024	1514
574.5	1511
574.976	1516
575.452	1548
575.928	1569
576.404	1567
576.881	1615
577.357	1594
577.833	1622
578.31	1659
578.786	1674
579.262	1698
579.739	1698
580.215	1762
580.692	1758
581.169	1731
581.645	1752
582.122	1808
582.598	1802
583.075	1800
583.552	1801
584.029	1811
584.506	1809
584.982	1793
585.459	1812
585.936	1786
586.413	1815
586.89	1855
587.367	1827
587.844	1834
588.321	1820
588.799	1845
589.276	1835
589.753	1853
590.23	1861
590.707	1858
591.185	1873
591.662	1880
592.139	1881
592.617	1910
593.094	1910
593.572	1926
594.049	1938
594.527	1934
595.004	1931
595.482	1995
595.96	1989
596.437	1987
596.915	2032
597.393	1997
597.871	2054
598.349	2039
598.826	2076
599.304	2074
599.782	2116
600.26	2086
600.738	2137
601.216	2118
601.694	2133
602.173	2144
602.651	2181
603.129	2191
603.607	2212
604.085	2213
604.564	2203
605.042	2222
605.52	2223
605.999	2280
606.477	2229
606.956	2223
607.434	2251.5
607.913	2280
608.391	2263
608.87	2241
609.348	2206
609.827	2222
610.306	2248
610.785	2245
611.263	2237
611.742	2219
612.221	2195
612.7	2248
613.179	2255
613.658	2213
614.137	2244
614.616	2267
615.095	2226
615.574	2239
616.053	2232
616.532	2214
617.011	2229
617.491	2255
617.97	2260
618.449	2285
618.928	2305
619.408	2290
619.887	2321
620.367	2343
620.846	2374
621.326	2351
621.805	2387
622.285	2387
622.764	2414
623.244	2421
623.724	2413
624.203	2418
624.683	2380
625.163	2448
625.643	2452
626.123	2426
626.602	2460
627.082	2395
627.562	2413
628.042	2481
628.522	2454
629.002	2437
629.482	2442
629.963	2449
630.443	2444
630.923	2457
631.403	2461
631.883	2436
632.364	2451
632.844	2444
633.324	2464
633.805	2472
634.285	2447
634.766	2434
635.246	2448
635.727	2473
636.207	2482
636.688	2467
637.168	2458
637.649	2435
638.13	2419
638.611	2443
639.091	2442
639.572	2428
640.053	2410
640.534	2453
641.015	2469
641.496	2426
641.977	2459
642.458	2425
642.939	2422
643.42	2442
643.901	2453
644.382	2459
644.863	2449
645.345	2432
645.826	2450
646.307	2458
646.788	2493
647.27	2455
647.751	2472
648.233	2491
648.714	2449
649.196	2528
649.677	2515
650.159	2514
650.64	2479
651.122	2512
651.603	2483
652.085	2537
652.567	2542
653.049	2507
653.53	2500
654.012	2527
654.494	2488
654.976	2515
655.458	2519
655.94	2504
656.422	2537
656.904	2519
657.386	2502
657.868	2520
658.35	2507
658.833	2505
659.315	2505
659.797	2472
660.279	2490
660.762	2508
661.244	2494
661.726	2454
662.209	2435
662.691	2453
663.174	2398
663.656	2411
664.139	2399
664.621	2368
665.104	2344
665.587	2380
666.069	2394
666.552	2384
667.035	2359
667.517	2358
668	2362
668.483	2372
668.966	2355
669.449	2360
669.932	2378
670.415	2416
670.898	2390
671.381	2401
671.864	2415
672.347	2400
672.83	2416
673.313	2415
673.797	2394
674.28	2431
674.763	2421
675.247	2448
675.73	2446
676.213	2472
676.697	2491
677.18	2488
677.664	2491
678.147	2504
678.631	2518
679.114	2536
679.598	2511
680.082	2527
680.565	2531
681.049	2536
681.533	2546
682.017	2569
682.5	2561
682.984	2566
683.468	2555
683.952	2515
684.436	2581
684.92	2535
685.404	2547
685.888	2570
686.372	2550
686.856	2565
687.341	2614
687.825	2599
688.309	2625
688.793	2625
689.278	2576
689.762	2611
690.246	2605
690.731	2627
691.215	2632
691.7	2550
692.184	2571
692.669	2561
693.153	2589
693.638	2566
694.122	2571
694.607	2598
695.092	2550
695.577	2573
696.061	2532
696.546	2540
697.031	2530
697.516	2554
698.001	2547
698.486	2510
698.971	2536
699.456	2483
699.941	2498
700.426	2502
700.911	2523
701.396	2496
701.881	2507
702.366	2505
702.852	2499
703.337	2531
703.822	2528
704.308	2519
704.793	2506
705.278	2497
705.764	2506
706.249	2500
706.735	2538
707.22	2564
707.706	2536
708.191	2560
708.677	2564
709.163	2553
709.648	2592
710.134	2635
710.62	2602
711.106	2583
711.592	2610
712.077	2607
712.563	2555
713.049	2568
713.535	2622
714.021	2593
714.507	2571
714.993	2539
715.479	2576
715.966	2550
716.452	2563
716.938	2581
717.424	2498
717.91	2547
718.397	2492
718.883	2478
719.369	2484
719.856	2480
720.342	2515
720.829	2484
721.315	2497
721.802	2472
722.288	2497
722.775	2417
723.262	2366
723.748	2491
724.235	2465
724.722	2490
725.208	2427
725.695	2421
726.182	2423
726.669	2413
727.156	2439
727.643	2398
728.13	2405
728.617	2376
729.104	2380
729.591	2361
730.078	2407
730.565	2414
731.052	2382
731.539	2372
732.027	2347
732.514	2319
733.001	2364
733.488	2361
733.976	2373
734.463	2365
734.951	2349
735.438	2365
735.926	2338
736.413	2362
736.901	2345
737.388	2387
737.876	2385
738.364	2365
738.851	2363
739.339	2355
739.827	2371
740.314	2318
740.802	2348
741.29	2380
741.778	2345
742.266	2334
742.754	2324
743.242	2329
743.73	2290
744.218	2308
744.706	2297
745.194	2327
745.682	2311
746.17	2316
746.659	2303
747.147	2255
747.635	2291
748.123	2308
748.612	2296
749.1	2280
749.589	2284
750.077	2258
750.566	2236
751.054	2257
751.543	2284
752.031	2244
752.52	2263
753.008	2209
753.497	2192
753.986	2184
754.474	2164
754.963	2192
755.452	2168
755.941	2180
756.43	2168
756.919	2165
757.408	2133
757.896	2140
758.385	2146
758.875	2137
759.364	2140
759.853	2142
760.342	2108
760.831	2143
761.32	2126
761.809	2098
762.299	2111
762.788	2129
763.277	2124
763.767	2107
764.256	2109
764.745	2069
765.235	2085
765.724	2038
766.214	2078
766.703	2085
767.193	2067
767.683	2076
768.172	2041
768.662	2055
769.152	2048
769.641	2063
770.131	2011
770.621	2067
771.111	2059
771.601	2076
772.09	2060
772.58	2008
773.07	2011
773.56	2017
774.05	1996
774.54	2001
775.031	2001
775.521	2005
776.011	2003
776.501	1998
776.991	1949
777.482	1960
777.972	1927
778.462	1941
778.953	1972
779.443	1974
779.933	1961
780.424	1923
780.914	1925
781.405	1921
781.895	1911
782.386	1926
782.877	1931
783.367	1906
783.858	1886
784.349	1882
784.839	1847
785.33	1850
785.821	1837
786.312	1829
786.803	1849
787.293	1860
787.784	1845
788.275	1811
788.766	1791
789.257	1815
789.748	1776
790.24	1773
790.731	1799
791.222	1785
791.713	1787
792.204	1787
792.696	1725
793.187	1740
793.678	1735
794.169	1689
794.661	1750
795.152	1742
795.644	1737
796.135	1745
796.627	1735
797.118	1703
797.61	1689
798.101	1681
798.593	1712
799.085	1697
799.576	1719
800.068	1708
800.56	1702
801.052	1648
801.544	1638
802.035	1647
802.527	1634
803.019	1631
803.511	1636
804.003	1637
804.495	1654
804.987	1630
805.479	1587
805.971	1592
806.464	1602
806.956	1565
807.448	1578
807.94	1589
808.433	1585
808.925	1571
809.417	1548
809.91	1530
810.402	1506
810.894	1524
811.387	1535
811.879	1515
812.372	1525
812.865	1506
813.357	1495
813.85	1480
814.342	1464
814.835	1473
815.328	1480
815.821	1479
816.313	1498
816.806	1510
817.299	1500
817.792	1514
818.285	1489
818.778	1500
819.271	1507
819.764	1492
820.257	1496
820.75	1496
821.243	1516
821.736	1498
822.229	1502
822.722	1499
823.216	1524
