Data from lamp4helium_zwak_dubbel_Subt2__125__725.txt Node

Date: Wed Apr 09 12:16:31 CEST 2025
User: fys-lab-0081
Spectrometer: S04999
Trigger mode: 0
Resolution mode: 1024 pixels
Integration Time (sec): 1.000000E-1
Scans to average: 1
Nonlinearity correction enabled: false
Boxcar width: 0
Baseline correction enabled: true
XAxis mode: Wavelengths
Number of Pixels in Spectrum: 1024
>>>>>Begin Spectral Data<<<<<
336.42	4
336.877	4
337.334	2
337.792	6
338.249	6
338.706	1
339.164	4
339.621	0
340.079	2
340.536	4
340.994	3
341.452	4
341.909	8
342.367	4
342.825	-1
343.283	6
343.741	5
344.198	0
344.656	4
345.114	1
345.572	3
346.03	1
346.488	3
346.947	6
347.405	2
347.863	0
348.321	-1
348.779	7
349.238	2
349.696	0
350.154	-1
350.613	2
351.071	3
351.53	6
351.988	7
352.447	2
352.905	3
353.364	4
353.823	6
354.282	2
354.74	-6
355.199	4
355.658	8
356.117	4
356.576	4
357.035	1
357.494	5
357.953	2
358.412	0
358.871	6
359.33	3
359.789	2
360.249	2
360.708	4
361.167	6
361.626	3
362.086	1
362.545	5
363.005	3
363.464	6
363.924	4
364.383	6
364.843	4
365.303	8
365.762	10
366.222	8
366.682	4
367.142	6
367.601	10
368.061	4
368.521	9
368.981	6
369.441	12
369.901	12
370.361	7
370.821	3
371.282	7
371.742	12
372.202	10
372.662	10
373.123	6
373.583	5
374.043	10
374.504	7
374.964	8
375.425	6
375.885	12
376.346	14
376.806	15
377.267	8
377.728	14
378.188	20
378.649	11
379.11	14
379.571	7
380.032	15
380.493	16
380.954	19
381.414	13
381.876	14
382.337	17
382.798	20
383.259	19
383.72	17
384.181	11
384.642	18
385.104	19
385.565	22
386.026	21
386.488	23
386.949	20
387.411	21
387.872	24
388.334	25
388.795	24
389.257	25
389.719	22
390.181	27
390.642	24
391.104	25
391.566	25
392.028	30
392.49	32
392.952	32
393.414	30
393.876	38
394.338	30
394.8	31
395.262	28
395.724	37
396.186	35
396.648	31
397.111	35
397.573	35
398.035	36
398.498	35
398.96	43
399.423	35
399.885	36
400.348	37
400.81	38
401.273	39
401.736	41
402.198	47
402.661	43
403.124	41
403.587	52
404.049	49
404.512	46
404.975	50
405.438	49
405.901	53
406.364	53
406.827	54
407.29	56
407.754	51
408.217	53
408.68	51
409.143	60
409.607	56
410.07	55
410.533	52
410.997	57
411.46	59
411.924	64
412.387	69
412.851	59
413.314	63
413.778	62
414.242	65
414.705	67
415.169	70
415.633	69
416.097	66
416.561	71
417.024	69
417.488	70
417.952	68
418.416	69
418.88	66
419.344	65
419.809	71
420.273	70
420.737	70
421.201	78
421.665	74
422.13	80
422.594	82
423.059	77
423.523	78
423.987	80
424.452	86
424.916	87
425.381	89
425.846	84
426.31	98
426.775	96
427.24	93
427.704	97
428.169	96
428.634	98
429.099	101
429.564	96
430.029	94
430.494	96
430.959	100
431.424	94
431.889	104
432.354	101
432.819	97
433.284	105
433.75	107
434.215	111
434.68	106
435.146	109
435.611	113
436.077	116
436.542	120
437.008	124
437.473	124
437.939	128
438.404	129
438.87	135
439.336	131
439.801	134
440.267	134
440.733	136
441.199	140
441.665	138
442.131	145
442.596	135
443.062	144
443.529	149
443.995	147
444.461	151
444.927	157
445.393	151
445.859	161
446.325	166
446.792	179
447.258	177
447.724	183
448.191	193
448.657	189
449.124	193
449.59	196
450.057	211
450.523	212
450.99	215
451.457	212
451.923	212
452.39	215
452.857	226
453.324	219
453.791	222
454.257	231
454.724	229
455.191	227
455.658	227
456.125	233
456.592	236
457.059	237
457.527	233
457.994	246
458.461	248
458.928	252
459.396	254
459.863	258
460.33	257
460.798	264
461.265	271
461.732	263
462.2	273
462.668	270
463.135	275
463.603	269
464.07	283
464.538	270
465.006	281
465.474	274
465.941	272
466.409	274
466.877	275
467.345	274
467.813	270
468.281	276
468.749	284
469.217	277
469.685	286
470.153	291
470.621	295
471.09	289
471.558	297
472.026	299
472.494	306
472.963	308
473.431	319
473.9	322
474.368	338
474.837	340
475.305	350
475.774	351
476.242	361
476.711	366
477.18	375
477.648	370
478.117	385
478.586	383
479.055	379
479.524	382
479.993	381
480.462	372
480.93	376
481.399	379
481.869	383
482.338	376
482.807	383
483.276	386
483.745	382
484.214	391
484.684	394
485.153	388
485.622	397
486.092	409
486.561	398
487.031	418
487.5	419
487.97	426
488.439	425
488.909	442
489.378	454
489.848	457
490.318	472
490.787	498
491.257	495
491.727	507
492.197	517
492.667	517
493.137	519
493.607	531
494.077	534
494.547	527
495.017	527
495.487	540
495.957	547
496.427	540
496.897	538
497.368	551
497.838	542
498.308	548
498.779	550
499.249	555
499.719	550
500.19	562
500.66	562
501.131	565
501.602	579
502.072	579
502.543	592
503.014	608
503.484	611
503.955	618
504.426	640
504.897	641
505.368	649
505.838	662
506.309	667
506.78	703
507.251	713
507.722	725
508.194	747
508.665	763
509.136	762
509.607	779
510.078	803
510.549	811
511.021	825
511.492	827
511.964	848
512.435	859
512.906	846
513.378	862
513.849	880
514.321	867
514.793	869
515.264	893
515.736	900
516.208	907
516.679	914
517.151	933
517.623	936
518.095	939
518.567	948
519.038	979
519.51	982
519.982	987
520.454	1003
520.927	1021
521.399	1029
521.871	1034
522.343	1049
522.815	1060
523.287	1057
523.76	1065
524.232	1089
524.704	1093
525.177	1074
525.649	1085
526.122	1107
526.594	1078
527.067	1102
527.539	1108
528.012	1110
528.484	1109
528.957	1108
529.43	1118
529.903	1112
530.375	1146
530.848	1105
531.321	1131
531.794	1139
532.267	1155
532.74	1131
533.213	1133
533.686	1153
534.159	1137
534.632	1155
535.105	1170
535.578	1186
536.051	1188
536.525	1177
536.998	1191
537.471	1224
537.945	1200
538.418	1215
538.891	1228
539.365	1253
539.838	1252
540.312	1257
540.786	1261
541.259	1261
541.733	1284
542.206	1283
542.68	1272
543.154	1287
543.628	1278
544.101	1309
544.575	1311
545.049	1282
545.523	1309
545.997	1300
546.471	1315
546.945	1311
547.419	1326
547.893	1254
548.367	1283
548.842	1283
549.316	1277
549.79	1292
550.264	1288
550.739	1301
551.213	1301
551.687	1285
552.162	1302
552.636	1302
553.111	1296
553.585	1318
554.06	1299
554.534	1330
555.009	1330
555.484	1339
555.958	1348
556.433	1357
556.908	1381
557.383	1360
557.858	1392
558.333	1395
558.807	1384
559.282	1408
559.757	1442
560.232	1438
560.708	1423
561.183	1423
561.658	1439
562.133	1429
562.608	1427
563.083	1471
563.559	1434
564.034	1435
564.509	1442
564.985	1475
565.46	1457
565.936	1469
566.411	1455
566.887	1449
567.362	1467
567.838	1464
568.313	1468
568.789	1463
569.265	1470
569.74	1479
570.216	1460
570.692	1473
571.168	1479
571.644	1482
572.12	1461
572.596	1479
573.071	1471
573.547	1506
574.024	1523
574.5	1517
574.976	1517
575.452	1551
575.928	1573
576.404	1571
576.881	1610
577.357	1597
577.833	1631
578.31	1666
578.786	1677
579.262	1708
579.739	1714
580.215	1773
580.692	1773
581.169	1750
581.645	1770
582.122	1826
582.598	1820
583.075	1813
583.552	1821
584.029	1827
584.506	1821
584.982	1802
585.459	1828
585.936	1796
586.413	1832
586.89	1865
587.367	1832
587.844	1842
588.321	1829
588.799	1843
589.276	1837
589.753	1853
590.23	1852
590.707	1849
591.185	1856
591.662	1863
592.139	1892
592.617	1905
593.094	1908
593.572	1926
594.049	1939
594.527	1945
595.004	1938
595.482	2003
595.96	2003
596.437	2008
596.915	2046
597.393	2011
597.871	2067
598.349	2046
598.826	2087
599.304	2074
599.782	2113
600.26	2076
600.738	2127
601.216	2119
601.694	2118
602.173	2127
602.651	2175
603.129	2171
603.607	2182
604.085	2197
604.564	2194
605.042	2208
605.52	2211
605.999	2265
606.477	2211
606.956	2212
607.434	2240
607.913	2268
608.391	2266
608.87	2251
609.348	2208
609.827	2230
610.306	2258
610.785	2248
611.263	2246
611.742	2229
612.221	2204
612.7	2256
613.179	2268
613.658	2227
614.137	2247
614.616	2273
615.095	2229
615.574	2248
616.053	2242
616.532	2212
617.011	2237
617.491	2261
617.97	2249
618.449	2269
618.928	2295
619.408	2282
619.887	2306
620.367	2331
620.846	2361
621.326	2337
621.805	2373
622.285	2384
622.764	2421
623.244	2420
623.724	2414
624.203	2428
624.683	2389
625.163	2464
625.643	2460
626.123	2439
626.602	2477
627.082	2407
627.562	2429
628.042	2494
628.522	2481
629.002	2462
629.482	2469
629.963	2492
630.443	2486
630.923	2491
631.403	2502
631.883	2477
632.364	2485
632.844	2467
633.324	2481
633.805	2482
634.285	2446
634.766	2433
635.246	2450
635.727	2477
636.207	2484
636.688	2463
637.168	2457
637.649	2436
638.13	2429
638.611	2460
639.091	2452
639.572	2446
640.053	2418
640.534	2460
641.015	2473
641.496	2429
641.977	2466
642.458	2425
642.939	2421
643.42	2443
643.901	2460
644.382	2475
644.863	2464
645.345	2452
645.826	2460
646.307	2472
646.788	2509
647.27	2461
647.751	2463
648.233	2491
648.714	2437
649.196	2517
649.677	2497
650.159	2500
650.64	2451
651.122	2493
651.603	2460
652.085	2499
652.567	2512
653.049	2485
653.53	2474
654.012	2504
654.494	2467
654.976	2500
655.458	2506
655.94	2498
656.422	2534
656.904	2517
657.386	2513
657.868	2528
658.35	2512
658.833	2522
659.315	2518
659.797	2486
660.279	2507
660.762	2532
661.244	2510
661.726	2464
662.209	2463
662.691	2470
663.174	2413
663.656	2427
664.139	2418
664.621	2385
665.104	2355
665.587	2387
666.069	2400
666.552	2392
667.035	2368
667.517	2360
668	2367
668.483	2372
668.966	2374
669.449	2377
669.932	2385
670.415	2413
670.898	2403
671.381	2396
671.864	2412
672.347	2413
672.83	2425
673.313	2429
673.797	2409
674.28	2447
674.763	2438
675.247	2466
675.73	2463
676.213	2486
676.697	2504
677.18	2496
677.664	2505
678.147	2513
678.631	2519
679.114	2541
679.598	2531
680.082	2545
680.565	2541
681.049	2543
681.533	2549
682.017	2581
682.5	2575
682.984	2573
683.468	2558
683.952	2522
684.436	2587
684.92	2541
685.404	2547
685.888	2563
686.372	2539
686.856	2553
687.341	2606
687.825	2589
688.309	2609
688.793	2609
689.278	2562
689.762	2597
690.246	2598
690.731	2622
691.215	2624
691.7	2545
692.184	2565
692.669	2569
693.153	2596
693.638	2575
694.122	2586
694.607	2609
695.092	2561
695.577	2583
696.061	2549
696.546	2557
697.031	2549
697.516	2567
698.001	2543
698.486	2511
698.971	2538
699.456	2491
699.941	2520
700.426	2524
700.911	2537
701.396	2516
701.881	2521
702.366	2508
702.852	2512
703.337	2544
703.822	2543
704.308	2531
704.793	2531
705.278	2516
705.764	2521
706.249	2521
706.735	2539
707.22	2568
707.706	2521
708.191	2552
708.677	2539
709.163	2538
709.648	2579
710.134	2613
710.62	2589
711.106	2579
711.592	2601
712.077	2598
712.563	2544
713.049	2563
713.535	2616
714.021	2593
714.507	2571
714.993	2543
715.479	2578
715.966	2558
716.452	2582
716.938	2593
717.424	2514
717.91	2558
718.397	2516
718.883	2492
719.369	2492
719.856	2486
720.342	2524
720.829	2491
721.315	2496
721.802	2484
722.288	2514
722.775	2443
723.262	2382
723.748	2495
724.235	2465
724.722	2486
725.208	2426
725.695	2417
726.182	2418
726.669	2398
727.156	2430
727.643	2384
728.13	2382
728.617	2365
729.104	2361
729.591	2338
730.078	2375
730.565	2385
731.052	2353
731.539	2354
732.027	2338
732.514	2310
733.001	2356
733.488	2348
733.976	2363
734.463	2355
734.951	2341
735.438	2353
735.926	2329
736.413	2355
736.901	2352
737.388	2389
737.876	2389
738.364	2367
738.851	2369
739.339	2353
739.827	2375
740.314	2325
740.802	2357
741.29	2382
741.778	2354
742.266	2346
742.754	2332
743.242	2337
743.73	2295
744.218	2302
744.706	2294
745.194	2324
745.682	2299
746.17	2307
746.659	2286
747.147	2243
747.635	2270
748.123	2285
748.612	2285
749.1	2266
749.589	2263
750.077	2251
750.566	2227
751.054	2259
751.543	2274
752.031	2235
752.52	2257
753.008	2195
753.497	2191
753.986	2178
754.474	2166
754.963	2185
755.452	2169
755.941	2179
756.43	2183
756.919	2177
757.408	2145
757.896	2146
758.385	2160
758.875	2155
759.364	2155
759.853	2157
760.342	2133
760.831	2181
761.32	2155
761.809	2118
762.299	2130
762.788	2161
763.277	2165
763.767	2138
764.256	2136
764.745	2086
765.235	2110
765.724	2056
766.214	2093
766.703	2100
767.193	2081
767.683	2102
768.172	2057
768.662	2058
769.152	2045
769.641	2043
770.131	2009
770.621	2054
771.111	2050
771.601	2064
772.09	2038
772.58	1995
773.07	1991
773.56	1997
774.05	1964
774.54	1976
775.031	1988
775.521	1975
776.011	1981
776.501	1986
776.991	1938
777.482	1949
777.972	1925
778.462	1941
778.953	1972
779.443	1972
779.933	1960
780.424	1930
780.914	1927
781.405	1923
781.895	1922
782.386	1933
782.877	1937
783.367	1912
783.858	1900
784.349	1894
784.839	1873
785.33	1868
785.821	1854
786.312	1849
786.803	1867
787.293	1878
787.784	1866
788.275	1835
788.766	1806
789.257	1828
789.748	1790
790.24	1785
790.731	1808
791.222	1804
791.713	1800
792.204	1794
792.696	1741
793.187	1752
793.678	1746
794.169	1705
794.661	1755
795.152	1750
795.644	1749
796.135	1752
796.627	1747
797.118	1718
797.61	1704
798.101	1699
798.593	1735
799.085	1710
799.576	1728
800.068	1710
800.56	1706
801.052	1647
801.544	1636
802.035	1633
802.527	1625
803.019	1632
803.511	1641
804.003	1640
804.495	1654
804.987	1632
805.479	1587
805.971	1595
806.464	1606
806.956	1578
807.448	1588
807.94	1593
808.433	1598
808.925	1577
809.417	1557
809.91	1542
810.402	1509
810.894	1527
811.387	1540
811.879	1531
812.372	1540
812.865	1526
813.357	1508
813.85	1493
814.342	1476
814.835	1483
815.328	1491
815.821	1483
816.313	1505
816.806	1507
817.299	1506
817.792	1513
818.285	1489
818.778	1507
819.271	1507
819.764	1491
820.257	1499
820.75	1503
821.243	1512
821.736	1492
822.229	1504
822.722	1498
823.216	1530
