Data from lamp4helium_zwak_dubbel_Subt2__139__739.txt Node

Date: Wed Apr 09 12:16:33 CEST 2025
User: fys-lab-0081
Spectrometer: S04999
Trigger mode: 0
Resolution mode: 1024 pixels
Integration Time (sec): 1.000000E-1
Scans to average: 1
Nonlinearity correction enabled: false
Boxcar width: 0
Baseline correction enabled: true
XAxis mode: Wavelengths
Number of Pixels in Spectrum: 1024
>>>>>Begin Spectral Data<<<<<
336.42	3
336.877	3
337.334	4
337.792	2
338.249	0
338.706	0
339.164	2
339.621	-1
340.079	5
340.536	4
340.994	5
341.452	5
341.909	6
342.367	1
342.825	-4
343.283	4
343.741	5
344.198	3
344.656	-5
345.114	1
345.572	5
346.03	1
346.488	-1
346.947	-2
347.405	3
347.863	-1
348.321	1
348.779	6
349.238	2
349.696	5
350.154	1
350.613	4
351.071	2
351.53	8
351.988	5
352.447	2
352.905	-5
353.364	0
353.823	5
354.282	4
354.74	-6
355.199	6
355.658	11
356.117	0
356.576	2
357.035	2
357.494	3
357.953	3
358.412	6
358.871	5
359.33	2
359.789	1
360.249	9
360.708	8
361.167	3
361.626	1
362.086	2
362.545	4
363.005	7
363.464	6
363.924	3
364.383	5
364.843	5
365.303	10
365.762	11
366.222	8
366.682	5
367.142	8
367.601	9
368.061	6
368.521	8
368.981	7
369.441	9
369.901	12
370.361	4
370.821	10
371.282	9
371.742	7
372.202	8
372.662	8
373.123	4
373.583	6
374.043	10
374.504	7
374.964	12
375.425	10
375.885	9
376.346	10
376.806	13
377.267	14
377.728	14
378.188	13
378.649	8
379.11	12
379.571	8
380.032	15
380.493	13
380.954	19
381.414	10
381.876	13
382.337	11
382.798	15
383.259	16
383.72	14
384.181	16
384.642	16
385.104	18
385.565	21
386.026	24
386.488	24
386.949	21
387.411	26
387.872	24
388.334	24
388.795	23
389.257	24
389.719	24
390.181	27
390.642	24
391.104	29
391.566	27
392.028	24
392.49	33
392.952	32
393.414	30
393.876	33
394.338	31
394.8	31
395.262	24
395.724	34
396.186	36
396.648	36
397.111	36
397.573	37
398.035	35
398.498	36
398.96	41
399.423	36
399.885	29
400.348	38
400.81	42
401.273	37
401.736	36
402.198	49
402.661	46
403.124	40
403.587	48
404.049	48.5
404.512	49
404.975	44
405.438	52
405.901	52
406.364	50
406.827	52
407.29	50
407.754	49
408.217	51
408.68	54
409.143	53
409.607	59
410.07	56
410.533	53
410.997	55
411.46	56
411.924	62
412.387	60
412.851	57
413.314	57
413.778	57
414.242	63
414.705	70
415.169	66
415.633	68
416.097	66
416.561	70
417.024	71
417.488	68
417.952	72
418.416	68
418.88	67
419.344	63
419.809	69
420.273	70
420.737	68
421.201	72
421.665	69
422.13	74
422.594	77
423.059	77
423.523	82
423.987	76
424.452	83
424.916	86
425.381	82
425.846	80
426.31	98
426.775	94
427.24	92
427.704	89
428.169	93
428.634	101
429.099	96
429.564	94
430.029	92
430.494	97
430.959	93
431.424	95
431.889	99
432.354	102
432.819	103
433.284	105
433.75	101
434.215	108
434.68	105
435.146	105
435.611	111
436.077	116
436.542	114
437.008	125
437.473	126
437.939	120
438.404	131
438.87	136
439.336	135
439.801	131
440.267	134
440.733	134
441.199	133
441.665	138
442.131	143
442.596	135
443.062	143
443.529	149
443.995	148
444.461	151
444.927	157
445.393	156
445.859	162
446.325	165
446.792	177
447.258	174
447.724	181
448.191	185
448.657	192
449.124	186
449.59	193
450.057	209
450.523	212
450.99	212
451.457	212
451.923	216
452.39	214
452.857	220
453.324	213
453.791	217
454.257	225
454.724	225
455.191	222
455.658	225
456.125	232
456.592	229
457.059	234
457.527	234
457.994	247
458.461	248
458.928	251
459.396	251
459.863	254
460.33	254
460.798	265
461.265	266
461.732	262
462.2	273
462.668	271
463.135	270
463.603	263
464.07	277
464.538	267
465.006	274
465.474	268
465.941	273
466.409	273
466.877	266
467.345	266
467.813	271
468.281	278
468.749	278
469.217	273
469.685	281
470.153	287
470.621	287
471.09	282
471.558	296
472.026	293
472.494	300
472.963	306
473.431	312
473.9	325
474.368	334
474.837	331
475.305	344
475.774	339
476.242	362
476.711	361
477.18	368
477.648	363
478.117	374
478.586	378
479.055	370
479.524	377
479.993	374
480.462	367
480.93	377
481.399	379
481.869	381
482.338	367
482.807	377
483.276	375
483.745	373
484.214	385
484.684	392
485.153	384
485.622	390
486.092	400
486.561	394
487.031	408
487.5	418
487.97	415
488.439	423
488.909	437
489.378	454
489.848	453
490.318	467
490.787	496
491.257	493
491.727	497
492.197	511
492.667	513
493.137	518
493.607	526
494.077	529
494.547	526
495.017	525
495.487	536
495.957	546
496.427	535
496.897	532
497.368	544
497.838	536
498.308	545
498.779	541
499.249	544
499.719	548
500.19	557
500.66	557
501.131	561
501.602	575
502.072	570
502.543	587
503.014	603
503.484	597
503.955	612
504.426	630
504.897	639
505.368	653
505.838	656
506.309	662
506.78	693
507.251	706
507.722	715
508.194	735
508.665	756
509.136	746
509.607	777
510.078	789
510.549	800
511.021	817
511.492	820
511.964	838
512.435	839
512.906	835
513.378	851
513.849	865
514.321	858
514.793	862
515.264	877
515.736	886
516.208	896
516.679	901
517.151	917
517.623	920
518.095	928
518.567	936
519.038	961
519.51	962
519.982	974
520.454	995
520.927	1003
521.399	1012
521.871	1018
522.343	1026
522.815	1043
523.287	1038
523.76	1048
524.232	1067
524.704	1078
525.177	1054
525.649	1060
526.122	1096
526.594	1066
527.067	1083
527.539	1101
528.012	1100
528.484	1095
528.957	1099
529.43	1101
529.903	1104
530.375	1134
530.848	1096
531.321	1113
531.794	1124
532.267	1136
532.74	1110
533.213	1116
533.686	1136
534.159	1113
534.632	1139
535.105	1145
535.578	1167
536.051	1166
536.525	1168
536.998	1173
537.471	1208
537.945	1188
538.418	1198
538.891	1211
539.365	1242
539.838	1240
540.312	1243
540.786	1256
541.259	1266
541.733	1282
542.206	1273
542.68	1259
543.154	1268
543.628	1275
544.101	1291
544.575	1296
545.049	1279
545.523	1299
545.997	1286
546.471	1289
546.945	1290
547.419	1304
547.893	1240
548.367	1272
548.842	1266
549.316	1268
549.79	1273
550.264	1270
550.739	1285
551.213	1287
551.687	1274
552.162	1288
552.636	1295
553.111	1283
553.585	1305
554.06	1283
554.534	1321
555.009	1313
555.484	1327
555.958	1329
556.433	1343
556.908	1362
557.383	1352
557.858	1371
558.333	1385
558.807	1371
559.282	1402
559.757	1427
560.232	1425
560.708	1411
561.183	1419
561.658	1419
562.133	1418
562.608	1410
563.083	1465
563.559	1423
564.034	1433
564.509	1444
564.985	1462
565.46	1446
565.936	1462
566.411	1455
566.887	1445
567.362	1454
567.838	1447
568.313	1455
568.789	1447
569.265	1452
569.74	1462
570.216	1432
570.692	1450
571.168	1459
571.644	1462
572.12	1438
572.596	1452
573.071	1451
573.547	1484
574.024	1503
574.5	1496
574.976	1506
575.452	1535
575.928	1552
576.404	1560
576.881	1601
577.357	1588
577.833	1612
578.31	1651
578.786	1666
579.262	1693
579.739	1690
580.215	1748
580.692	1739
581.169	1723
581.645	1744
582.122	1802
582.598	1798
583.075	1785
583.552	1796
584.029	1798
584.506	1797
584.982	1782
585.459	1809
585.936	1775
586.413	1813
586.89	1851
587.367	1823
587.844	1828
588.321	1815
588.799	1836
589.276	1818
589.753	1840
590.23	1841
590.707	1838
591.185	1855
591.662	1854
592.139	1869
592.617	1889
593.094	1883
593.572	1910
594.049	1933
594.527	1927
595.004	1919
595.482	1977
595.96	1976
596.437	1980
596.915	2017
597.393	1991
597.871	2049
598.349	2030
598.826	2062
599.304	2066
599.782	2098
600.26	2071
600.738	2119
601.216	2104
601.694	2112
602.173	2126
602.651	2167
603.129	2166
603.607	2182
604.085	2195
604.564	2190
605.042	2212
605.52	2213
605.999	2271
606.477	2218
606.956	2210
607.434	2237.5
607.913	2265
608.391	2258
608.87	2239
609.348	2206
609.827	2216
610.306	2242
610.785	2243
611.263	2229
611.742	2206
612.221	2195
612.7	2236
613.179	2246
613.658	2207
614.137	2226
614.616	2253
615.095	2208
615.574	2235
616.053	2234
616.532	2217
617.011	2243
617.491	2263
617.97	2262
618.449	2278
618.928	2292
619.408	2290
619.887	2317
620.367	2336
620.846	2356
621.326	2343
621.805	2375
622.285	2372
622.764	2406
623.244	2409
623.724	2405
624.203	2410
624.683	2376
625.163	2445
625.643	2442
626.123	2420
626.602	2448
627.082	2385
627.562	2404
628.042	2475
628.522	2453
629.002	2433
629.482	2443
629.963	2463
630.443	2460
630.923	2474
631.403	2477
631.883	2450
632.364	2457
632.844	2447
633.324	2471
633.805	2470
634.285	2440
634.766	2418
635.246	2451
635.727	2463
636.207	2466
636.688	2455
637.168	2440
637.649	2424
638.13	2408
638.611	2430
639.091	2428
639.572	2416
640.053	2397
640.534	2437
641.015	2464
641.496	2420
641.977	2456
642.458	2408
642.939	2406
643.42	2432
643.901	2445
644.382	2449
644.863	2447
645.345	2438
645.826	2449
646.307	2457
646.788	2504
647.27	2458
647.751	2469
648.233	2484
648.714	2439
649.196	2514
649.677	2503
650.159	2500
650.64	2456
651.122	2491
651.603	2458
652.085	2501
652.567	2518
653.049	2479
653.53	2472
654.012	2501
654.494	2451
654.976	2491
655.458	2491
655.94	2479
656.422	2509
656.904	2486
657.386	2477
657.868	2494
658.35	2492
658.833	2486
659.315	2484
659.797	2475
660.279	2490
660.762	2516
661.244	2491
661.726	2452
662.209	2440
662.691	2446
663.174	2397
663.656	2406
664.139	2397
664.621	2365
665.104	2338
665.587	2365
666.069	2386
666.552	2378
667.035	2358
667.517	2355
668	2359
668.483	2366
668.966	2356
669.449	2347
669.932	2356
670.415	2392
670.898	2366
671.381	2369
671.864	2386
672.347	2370
672.83	2388
673.313	2399
673.797	2371
674.28	2406
674.763	2409
675.247	2431
675.73	2437
676.213	2462
676.697	2477
677.18	2461
677.664	2476
678.147	2493
678.631	2504
679.114	2533
679.598	2509
680.082	2519
680.565	2517
681.049	2520
681.533	2526
682.017	2560
682.5	2547
682.984	2550
683.468	2534
683.952	2499
684.436	2568
684.92	2529
685.404	2535
685.888	2547
686.372	2522
686.856	2532
687.341	2577
687.825	2563
688.309	2584
688.793	2588
689.278	2540
689.762	2577
690.246	2576
690.731	2583
691.215	2596
691.7	2519
692.184	2539
692.669	2538
693.153	2568
693.638	2545
694.122	2553
694.607	2571
695.092	2526
695.577	2549
696.061	2520
696.546	2527
697.031	2521
697.516	2532
698.001	2522
698.486	2491
698.971	2522
699.456	2466
699.941	2490
700.426	2497
700.911	2510
701.396	2488
701.881	2500
702.366	2494
702.852	2505
703.337	2526
703.822	2533
704.308	2514
704.793	2512
705.278	2495
705.764	2504
706.249	2501
706.735	2522
707.22	2547
707.706	2512
708.191	2540
708.677	2539
709.163	2527
709.648	2570
710.134	2596
710.62	2574
711.106	2564
711.592	2582
712.077	2585
712.563	2523
713.049	2554
713.535	2600
714.021	2587
714.507	2560
714.993	2520
715.479	2547
715.966	2522
716.452	2540
716.938	2554
717.424	2476
717.91	2512
718.397	2468
718.883	2443
719.369	2453
719.856	2440
720.342	2479
720.829	2448
721.315	2452
721.802	2436
722.288	2465
722.775	2399
723.262	2338
723.748	2451
724.235	2431
724.722	2454
725.208	2388
725.695	2393
726.182	2404
726.669	2392
727.156	2418
727.643	2382
728.13	2379
728.617	2359
729.104	2354
729.591	2331
730.078	2364
730.565	2378
731.052	2347
731.539	2349
732.027	2322
732.514	2293
733.001	2331
733.488	2334
733.976	2345
734.463	2340
734.951	2328
735.438	2353
735.926	2317
736.413	2335
736.901	2330
737.388	2373
737.876	2372
738.364	2343
738.851	2339
739.339	2326
739.827	2361
740.314	2302
740.802	2343
741.29	2362
741.778	2336
742.266	2323
742.754	2312
743.242	2317
743.73	2286
744.218	2297
744.706	2284
745.194	2315
745.682	2288
746.17	2297
746.659	2280
747.147	2232
747.635	2272
748.123	2282
748.612	2281
749.1	2266
749.589	2270
750.077	2246
750.566	2230
751.054	2253
751.543	2284
752.031	2244
752.52	2254
753.008	2202
753.497	2182
753.986	2174
754.474	2146
754.963	2172
755.452	2163
755.941	2167
756.43	2161
756.919	2150
757.408	2128
757.896	2132
758.385	2136
758.875	2130
759.364	2121
759.853	2132
760.342	2091
760.831	2135
761.32	2113
761.809	2078
762.299	2093
762.788	2110
763.277	2123
763.767	2103
764.256	2098
764.745	2056
765.235	2079
765.724	2029
766.214	2074
766.703	2081
767.193	2061
767.683	2076
768.172	2042
768.662	2050
769.152	2032
769.641	2041
770.131	2002
770.621	2051
771.111	2034
771.601	2055
772.09	2036
772.58	1994
773.07	1989
773.56	2008
774.05	1976
774.54	1995
775.031	1995
775.521	1991
776.011	1984
776.501	1985
776.991	1935
777.482	1940
777.972	1915
778.462	1930
778.953	1967
779.443	1952
779.933	1947
780.424	1908
780.914	1913
781.405	1913
781.895	1902
782.386	1908
782.877	1914
783.367	1898
783.858	1880
784.349	1873
784.839	1849
785.33	1844
785.821	1830
786.312	1831
786.803	1848
787.293	1863
787.784	1842
788.275	1809
788.766	1790
789.257	1815
789.748	1778
790.24	1769
790.731	1802
791.222	1785
791.713	1788
792.204	1793
792.696	1736
793.187	1737
793.678	1727
794.169	1693
794.661	1741
795.152	1734
795.644	1724
796.135	1727
796.627	1725
797.118	1695
797.61	1674
798.101	1674
798.593	1710
799.085	1692
799.576	1717
800.068	1706
800.56	1689
801.052	1637
801.544	1624
802.035	1628
802.527	1615
803.019	1619
803.511	1625
804.003	1624
804.495	1627
804.987	1609
805.479	1557
805.971	1575
806.464	1582
806.956	1563
807.448	1568
807.94	1568
808.433	1571
808.925	1550
809.417	1527
809.91	1522
810.402	1483
810.894	1501
811.387	1519
811.879	1503
812.372	1509
812.865	1502
813.357	1481
813.85	1470
814.342	1457
814.835	1457
815.328	1466
815.821	1468
816.313	1479
816.806	1497
817.299	1492
817.792	1504
818.285	1479
818.778	1501
819.271	1500
819.764	1476
820.257	1500
820.75	1500
821.243	1511
821.736	1500
822.229	1510
822.722	1497
823.216	1526
