Data from lamp4helium_zwak_dubbel_Subt2__178__778.txt Node

Date: Wed Apr 09 12:16:37 CEST 2025
User: fys-lab-0081
Spectrometer: S04999
Trigger mode: 0
Resolution mode: 1024 pixels
Integration Time (sec): 1.000000E-1
Scans to average: 1
Nonlinearity correction enabled: false
Boxcar width: 0
Baseline correction enabled: true
XAxis mode: Wavelengths
Number of Pixels in Spectrum: 1024
>>>>>Begin Spectral Data<<<<<
336.42	2
336.877	1
337.334	0
337.792	3
338.249	6
338.706	0
339.164	1
339.621	5
340.079	6
340.536	5
340.994	-2
341.452	0
341.909	9
342.367	5
342.825	-1
343.283	5
343.741	2
344.198	4
344.656	1
345.114	2
345.572	3
346.03	2
346.488	0
346.947	1
347.405	1
347.863	3
348.321	1
348.779	10
349.238	2
349.696	1
350.154	-2
350.613	5
351.071	2
351.53	9
351.988	2
352.447	6
352.905	-1
353.364	3
353.823	5
354.282	3
354.74	-1
355.199	4
355.658	7
356.117	3
356.576	7
357.035	-2
357.494	5
357.953	2
358.412	6
358.871	4
359.33	5
359.789	4
360.249	6
360.708	5
361.167	3
361.626	1
362.086	4
362.545	2
363.005	4
363.464	5
363.924	7
364.383	3
364.843	6
365.303	10
365.762	11
366.222	3
366.682	4
367.142	5
367.601	5
368.061	7
368.521	4
368.981	7
369.441	9
369.901	9
370.361	9
370.821	6
371.282	7
371.742	12
372.202	7
372.662	9
373.123	6
373.583	10
374.043	11
374.504	7
374.964	9
375.425	11
375.885	5
376.346	11
376.806	17
377.267	9
377.728	14
378.188	15
378.649	8
379.11	9
379.571	7
380.032	17
380.493	12
380.954	16
381.414	11
381.876	16
382.337	14
382.798	15
383.259	16
383.72	13
384.181	12
384.642	17
385.104	19
385.565	22
386.026	24
386.488	21
386.949	19
387.411	19
387.872	26
388.334	25
388.795	27
389.257	25
389.719	22
390.181	22
390.642	22
391.104	24
391.566	26
392.028	29
392.49	34
392.952	34
393.414	34
393.876	33
394.338	30
394.8	29
395.262	29
395.724	35
396.186	33
396.648	35
397.111	36
397.573	35
398.035	34
398.498	34
398.96	38
399.423	36
399.885	35
400.348	42
400.81	40
401.273	38
401.736	32
402.198	44
402.661	45
403.124	36
403.587	52
404.049	49.5
404.512	47
404.975	47
405.438	50
405.901	52
406.364	54
406.827	49
407.29	51
407.754	50
408.217	54
408.68	56
409.143	58
409.607	56
410.07	52
410.533	51
410.997	55
411.46	54
411.924	64
412.387	57
412.851	58
413.314	58
413.778	63
414.242	63
414.705	70
415.169	70
415.633	64
416.097	63
416.561	67
417.024	71
417.488	69
417.952	73
418.416	64
418.88	66
419.344	66
419.809	67
420.273	74
420.737	69
421.201	73
421.665	74
422.13	76
422.594	78
423.059	79
423.523	80
423.987	79
424.452	83
424.916	84
425.381	85
425.846	88
426.31	94
426.775	91
427.24	95
427.704	94
428.169	91
428.634	96
429.099	98
429.564	87
430.029	93
430.494	98
430.959	90
431.424	93
431.889	102
432.354	100
432.819	96
433.284	106
433.75	99
434.215	109
434.68	106
435.146	104
435.611	108
436.077	117
436.542	115
437.008	123
437.473	122
437.939	123
438.404	126
438.87	133
439.336	129
439.801	133
440.267	129
440.733	134
441.199	135
441.665	140
442.131	142
442.596	130
443.062	139
443.529	153
443.995	148
444.461	149
444.927	158
445.393	152
445.859	158
446.325	166
446.792	178
447.258	172
447.724	185
448.191	187
448.657	191
449.124	190
449.59	197
450.057	210
450.523	210
450.99	210
451.457	210
451.923	215
452.39	214
452.857	222
453.324	212
453.791	219
454.257	228
454.724	227
455.191	223
455.658	223
456.125	232
456.592	233
457.059	236
457.527	232
457.994	244
458.461	246
458.928	248
459.396	249
459.863	253
460.33	259
460.798	259
461.265	266
461.732	261
462.2	269
462.668	268
463.135	274
463.603	266
464.07	275
464.538	265
465.006	275
465.474	274
465.941	269
466.409	269
466.877	266
467.345	275
467.813	270
468.281	276
468.749	275
469.217	279
469.685	286
470.153	287
470.621	286
471.09	287
471.558	300
472.026	299
472.494	298
472.963	307
473.431	313
473.9	323
474.368	331
474.837	336
475.305	345
475.774	349
476.242	355
476.711	363
477.18	371
477.648	371
478.117	378
478.586	373
479.055	374
479.524	381
479.993	373
480.462	374
480.93	373
481.399	380
481.869	381
482.338	375
482.807	377
483.276	382
483.745	376
484.214	389
484.684	396
485.153	388
485.622	399
486.092	405
486.561	397
487.031	412
487.5	410
487.97	417
488.439	429
488.909	440
489.378	453
489.848	457
490.318	468
490.787	499
491.257	501
491.727	502
492.197	514
492.667	516
493.137	516
493.607	526
494.077	530
494.547	525
495.017	523
495.487	537
495.957	549
496.427	539
496.897	541
497.368	547
497.838	537
498.308	546
498.779	546
499.249	547
499.719	553
500.19	564
500.66	559
501.131	566
501.602	576
502.072	576
502.543	590
503.014	600
503.484	605
503.955	613
504.426	638
504.897	638
505.368	652
505.838	666
506.309	676
506.78	700
507.251	720
507.722	722
508.194	745
508.665	765
509.136	757
509.607	781
510.078	801
510.549	810
511.021	829
511.492	827
511.964	842
512.435	853
512.906	840
513.378	856
513.849	868
514.321	865
514.793	866
515.264	891
515.736	894
516.208	898
516.679	907
517.151	928
517.623	930
518.095	937
518.567	950
519.038	974
519.51	980
519.982	987
520.454	1001
520.927	1016
521.399	1021
521.871	1025
522.343	1032
522.815	1057
523.287	1048
523.76	1060
524.232	1090
524.704	1084
525.177	1070
525.649	1076
526.122	1103
526.594	1073
527.067	1097
527.539	1108
528.012	1108
528.484	1102
528.957	1109
529.43	1112
529.903	1112
530.375	1145
530.848	1105
531.321	1124
531.794	1132
532.267	1147
532.74	1120
533.213	1126
533.686	1147
534.159	1137
534.632	1154
535.105	1168
535.578	1196
536.051	1187
536.525	1188
536.998	1197
537.471	1229
537.945	1208
538.418	1226
538.891	1241
539.365	1266
539.838	1267
540.312	1266
540.786	1271
541.259	1286
541.733	1295
542.206	1291
542.68	1273
543.154	1281
543.628	1275
544.101	1303
544.575	1302
545.049	1286
545.523	1306
545.997	1293
546.471	1308
546.945	1307
547.419	1325
547.893	1262
548.367	1291
548.842	1279
549.316	1284
549.79	1286
550.264	1284
550.739	1297
551.213	1307
551.687	1291
552.162	1298
552.636	1305
553.111	1299
553.585	1323
554.06	1298
554.534	1332
555.009	1326
555.484	1335
555.958	1330
556.433	1348
556.908	1369
557.383	1354
557.858	1379
558.333	1400
558.807	1388
559.282	1405
559.757	1442
560.232	1446
560.708	1425
561.183	1430
561.658	1441
562.133	1433
562.608	1433
563.083	1478
563.559	1443
564.034	1445
564.509	1452
564.985	1470
565.46	1448
565.936	1469
566.411	1460
566.887	1451
567.362	1463
567.838	1458
568.313	1467
568.789	1461
569.265	1467
569.74	1472
570.216	1445
570.692	1464
571.168	1473
571.644	1482
572.12	1460
572.596	1466
573.071	1465
573.547	1509
574.024	1523
574.5	1523
574.976	1532
575.452	1555
575.928	1584
576.404	1585
576.881	1622
577.357	1602
577.833	1631
578.31	1666
578.786	1671
579.262	1699
579.739	1697
580.215	1761
580.692	1753
581.169	1728
581.645	1741
582.122	1800
582.598	1801
583.075	1793
583.552	1802
584.029	1811
584.506	1810
584.982	1797
585.459	1829
585.936	1798
586.413	1835
586.89	1877
587.367	1843
587.844	1858
588.321	1839
588.799	1861
589.276	1848
589.753	1869
590.23	1870
590.707	1858
591.185	1880
591.662	1880
592.139	1893
592.617	1906
593.094	1903
593.572	1923
594.049	1938
594.527	1935
595.004	1924
595.482	1981
595.96	1984
596.437	1987
596.915	2025
597.393	1991
597.871	2054
598.349	2039
598.826	2082
599.304	2069
599.782	2121
600.26	2089
600.738	2149
601.216	2142
601.694	2146
602.173	2156
602.651	2190
603.129	2199
603.607	2219
604.085	2223
604.564	2221
605.042	2238
605.52	2239
605.999	2295
606.477	2237
606.956	2232
607.434	2251.5
607.913	2271
608.391	2267
608.87	2236
609.348	2208
609.827	2224
610.306	2252
610.785	2256
611.263	2245
611.742	2232
612.221	2208
612.7	2261
613.179	2264
613.658	2234
614.137	2258
614.616	2283
615.095	2245
615.574	2267
616.053	2267
616.532	2242
617.011	2281
617.491	2294
617.97	2297
618.449	2324
618.928	2326
619.408	2313
619.887	2338
620.367	2351
620.846	2368
621.326	2351
621.805	2378
622.285	2386
622.764	2410
623.244	2415
623.724	2410
624.203	2419
624.683	2380
625.163	2442
625.643	2440
626.123	2414
626.602	2458
627.082	2401
627.562	2418
628.042	2488
628.522	2466
629.002	2458
629.482	2462
629.963	2477
630.443	2479
630.923	2483
631.403	2503
631.883	2477
632.364	2497
632.844	2483
633.324	2513
633.805	2513
634.285	2474
634.766	2475
635.246	2490
635.727	2507
636.207	2509
636.688	2473
637.168	2460
637.649	2438
638.13	2427
638.611	2450
639.091	2443
639.572	2423
640.053	2389
640.534	2438
641.015	2442
641.496	2402
641.977	2440
642.458	2406
642.939	2399
643.42	2424
643.901	2452
644.382	2465
644.863	2451
645.345	2444
645.826	2446
646.307	2466
646.788	2526
647.27	2477
647.751	2484
648.233	2508
648.714	2456
649.196	2547
649.677	2533
650.159	2528
650.64	2486
651.122	2530
651.603	2483
652.085	2535
652.567	2541
653.049	2513
653.53	2499
654.012	2527
654.494	2492
654.976	2512
655.458	2520
655.94	2494
656.422	2528
656.904	2495
657.386	2485
657.868	2507
658.35	2494
658.833	2496
659.315	2491
659.797	2467
660.279	2478
660.762	2511
661.244	2479
661.726	2442
662.209	2432
662.691	2453
663.174	2408
663.656	2423
664.139	2415
664.621	2393
665.104	2373
665.587	2396
666.069	2415
666.552	2415
667.035	2389
667.517	2378
668	2392
668.483	2399
668.966	2386
669.449	2383
669.932	2391
670.415	2426
670.898	2397
671.381	2397
671.864	2413
672.347	2399
672.83	2415
673.313	2419
673.797	2401
674.28	2426
674.763	2417
675.247	2442
675.73	2442
676.213	2460
676.697	2471
677.18	2467
677.664	2475
678.147	2489
678.631	2493
679.114	2511
679.598	2493
680.082	2511
680.565	2514
681.049	2516
681.533	2527
682.017	2561
682.5	2564
682.984	2555
683.468	2555
683.952	2523
684.436	2593
684.92	2553
685.404	2554
685.888	2573
686.372	2549
686.856	2567
687.341	2611
687.825	2606
688.309	2619
688.793	2618
689.278	2570
689.762	2608
690.246	2604
690.731	2621
691.215	2621
691.7	2533
692.184	2558
692.669	2546
693.153	2565
693.638	2541
694.122	2557
694.607	2584
695.092	2530
695.577	2556
696.061	2512
696.546	2519
697.031	2509
697.516	2530
698.001	2524
698.486	2486
698.971	2524
699.456	2471
699.941	2497
700.426	2497
700.911	2519
701.396	2490
701.881	2504
702.366	2496
702.852	2499
703.337	2532
703.822	2540
704.308	2528
704.793	2528
705.278	2515
705.764	2531
706.249	2524
706.735	2546
707.22	2577
707.706	2526
708.191	2545
708.677	2537
709.163	2530
709.648	2567
710.134	2601
710.62	2577
711.106	2562
711.592	2584
712.077	2569
712.563	2530
713.049	2535
713.535	2593
714.021	2582
714.507	2554
714.993	2511
715.479	2543
715.966	2528
716.452	2559
716.938	2573
717.424	2498
717.91	2544
718.397	2508
718.883	2478
719.369	2483
719.856	2485
720.342	2529
720.829	2494
721.315	2496
721.802	2482
722.288	2522
722.775	2445
723.262	2386
723.748	2491
724.235	2465
724.722	2485
725.208	2425
725.695	2425
726.182	2433
726.669	2412
727.156	2444
727.643	2408
728.13	2395
728.617	2377
729.104	2370
729.591	2353
730.078	2387
730.565	2401
731.052	2368
731.539	2363
732.027	2340
732.514	2304
733.001	2335
733.488	2331
733.976	2347
734.463	2333
734.951	2307
735.438	2322
735.926	2298
736.413	2314
736.901	2309
737.388	2355
737.876	2358
738.364	2331
738.851	2329
739.339	2320
739.827	2348
740.314	2293
740.802	2327
741.29	2355
741.778	2324
742.266	2324
742.754	2315
743.242	2316
743.73	2287
744.218	2304
744.706	2300
745.194	2339
745.682	2315
746.17	2311
746.659	2299
747.147	2258
747.635	2293
748.123	2312
748.612	2322
749.1	2295
749.589	2297
750.077	2260
750.566	2240
751.054	2277
751.543	2295
752.031	2250
752.52	2269
753.008	2210
753.497	2201
753.986	2183
754.474	2163
754.963	2183
755.452	2174
755.941	2169
756.43	2156
756.919	2143
757.408	2115
757.896	2118
758.385	2131
758.875	2124
759.364	2122
759.853	2131
760.342	2101
760.831	2133
761.32	2113
761.809	2075
762.299	2089
762.788	2109
763.277	2123
763.767	2100
764.256	2105
764.745	2063
765.235	2084
765.724	2038
766.214	2080
766.703	2084
767.193	2067
767.683	2087
768.172	2051
768.662	2065
769.152	2058
769.641	2069
770.131	2029
770.621	2071
771.111	2061
771.601	2080
772.09	2055
772.58	2015
773.07	2013
773.56	2024
774.05	1993
774.54	2007
775.031	2000
775.521	1998
776.011	1980
776.501	1990
776.991	1941
777.482	1953
777.972	1919
778.462	1929
778.953	1962
779.443	1953
779.933	1945
780.424	1909
780.914	1910
781.405	1905
781.895	1893
782.386	1903
782.877	1909
783.367	1884
783.858	1864
784.349	1869
784.839	1841
785.33	1846
785.821	1824
786.312	1832
786.803	1842
787.293	1852
787.784	1840
788.275	1811
788.766	1793
789.257	1822
789.748	1784
790.24	1780
790.731	1820
791.222	1797
791.713	1808
792.204	1803
792.696	1743
793.187	1754
793.678	1734
794.169	1698
794.661	1751
795.152	1739
795.644	1735
796.135	1742
796.627	1741
797.118	1717
797.61	1692
798.101	1689
798.593	1728
799.085	1704
799.576	1722
800.068	1700
800.56	1697
801.052	1642
801.544	1625
802.035	1631
802.527	1625
803.019	1625
803.511	1627
804.003	1634
804.495	1642
804.987	1630
805.479	1574
805.971	1593
806.464	1601
806.956	1569
807.448	1585
807.94	1592
808.433	1588
808.925	1569
809.417	1547
809.91	1533
810.402	1491
810.894	1511
811.387	1528
811.879	1505
812.372	1526
812.865	1504
813.357	1497
813.85	1481
814.342	1462
814.835	1471
815.328	1473
815.821	1476
816.313	1495
816.806	1505
817.299	1498
817.792	1510
818.285	1483
818.778	1505
819.271	1516
819.764	1495
820.257	1501
820.75	1497
821.243	1513
821.736	1498
822.229	1510
822.722	1496
823.216	1530
