Data from lamp4helium_zwak_dubbel_Subt2__114__714.txt Node

Date: Wed Apr 09 12:16:30 CEST 2025
User: fys-lab-0081
Spectrometer: S04999
Trigger mode: 0
Resolution mode: 1024 pixels
Integration Time (sec): 1.000000E-1
Scans to average: 1
Nonlinearity correction enabled: false
Boxcar width: 0
Baseline correction enabled: true
XAxis mode: Wavelengths
Number of Pixels in Spectrum: 1024
>>>>>Begin Spectral Data<<<<<
336.42	-2
336.877	1
337.334	2
337.792	6
338.249	2
338.706	3
339.164	2
339.621	4
340.079	6
340.536	11
340.994	3
341.452	4
341.909	6
342.367	3
342.825	0
343.283	7
343.741	1
344.198	1
344.656	0
345.114	2
345.572	8
346.03	4
346.488	5
346.947	-2
347.405	6
347.863	0
348.321	1
348.779	5
349.238	1
349.696	2
350.154	-3
350.613	2
351.071	4
351.53	6
351.988	4
352.447	1
352.905	-2
353.364	-1
353.823	10
354.282	7
354.74	-2
355.199	2
355.658	10
356.117	3
356.576	2
357.035	2
357.494	6
357.953	-1
358.412	8
358.871	6
359.33	5
359.789	1
360.249	6
360.708	3
361.167	3
361.626	1
362.086	5
362.545	9
363.005	5
363.464	4
363.924	4
364.383	7
364.843	6
365.303	7
365.762	8
366.222	4
366.682	3
367.142	5
367.601	6
368.061	8
368.521	7
368.981	3
369.441	12
369.901	9
370.361	7
370.821	7
371.282	7
371.742	8
372.202	7
372.662	11
373.123	4
373.583	7
374.043	11
374.504	10
374.964	6
375.425	8
375.885	8
376.346	12
376.806	15
377.267	9
377.728	10
378.188	14
378.649	14
379.11	17
379.571	6
380.032	13
380.493	12
380.954	18
381.414	16
381.876	14
382.337	16
382.798	16
383.259	15
383.72	16
384.181	15
384.642	16
385.104	17
385.565	24
386.026	25
386.488	20
386.949	22
387.411	22
387.872	23
388.334	27
388.795	26
389.257	23
389.719	25
390.181	27
390.642	21
391.104	26
391.566	31
392.028	27
392.49	36
392.952	33
393.414	32
393.876	36
394.338	28
394.8	27
395.262	28
395.724	31
396.186	40
396.648	38
397.111	39
397.573	38
398.035	36
398.498	37
398.96	40
399.423	37
399.885	39
400.348	39
400.81	41
401.273	38
401.736	41
402.198	44
402.661	43
403.124	42
403.587	49
404.049	48.5
404.512	48
404.975	49
405.438	53
405.901	55
406.364	52
406.827	54
407.29	51
407.754	52
408.217	54
408.68	52
409.143	58
409.607	58
410.07	60
410.533	56
410.997	61
411.46	58
411.924	66
412.387	61
412.851	63
413.314	64
413.778	61
414.242	67
414.705	72
415.169	75
415.633	68
416.097	68
416.561	72
417.024	70
417.488	73
417.952	72
418.416	65
418.88	67
419.344	65
419.809	71
420.273	73
420.737	70
421.201	77
421.665	79
422.13	79
422.594	85
423.059	81
423.523	79
423.987	76
424.452	87
424.916	87
425.381	87
425.846	86
426.31	102
426.775	97
427.24	94
427.704	96
428.169	95
428.634	96
429.099	95
429.564	96
430.029	96
430.494	97
430.959	96
431.424	96
431.889	101
432.354	104
432.819	101
433.284	104
433.75	102
434.215	112
434.68	112
435.146	111
435.611	114
436.077	118
436.542	119
437.008	127
437.473	125
437.939	129
438.404	131
438.87	136
439.336	130
439.801	134
440.267	138
440.733	143
441.199	137
441.665	144
442.131	145
442.596	139
443.062	143
443.529	154
443.995	152
444.461	154
444.927	159
445.393	153
445.859	160
446.325	164
446.792	182
447.258	179
447.724	188
448.191	192
448.657	201
449.124	198
449.59	195
450.057	209
450.523	210
450.99	220
451.457	220
451.923	221
452.39	216
452.857	228
453.324	222
453.791	225
454.257	236
454.724	230
455.191	230
455.658	231
456.125	238
456.592	232
457.059	238
457.527	237
457.994	254
458.461	249
458.928	256
459.396	255
459.863	265
460.33	264
460.798	268
461.265	275
461.732	272
462.2	275
462.668	276
463.135	274
463.603	270
464.07	286
464.538	275
465.006	284
465.474	277
465.941	277
466.409	275
466.877	274
467.345	283
467.813	270
468.281	280
468.749	278
469.217	287
469.685	291
470.153	295
470.621	291
471.09	286
471.558	306
472.026	308
472.494	309
472.963	314
473.431	320
473.9	332
474.368	342
474.837	346
475.305	350
475.774	354
476.242	362
476.711	370
477.18	376
477.648	377
478.117	379
478.586	379
479.055	376
479.524	384
479.993	383
480.462	379
480.93	379
481.399	388
481.869	388
482.338	383
482.807	392
483.276	389
483.745	388
484.214	396
484.684	404
485.153	398
485.622	406
486.092	407
486.561	404
487.031	417
487.5	421
487.97	423
488.439	431
488.909	447
489.378	466
489.848	465
490.318	478
490.787	504
491.257	512
491.727	514
492.197	528
492.667	524
493.137	528
493.607	542
494.077	545
494.547	532
495.017	535
495.487	547
495.957	558
496.427	555
496.897	547
497.368	556
497.838	552
498.308	556
498.779	562
499.249	560
499.719	561
500.19	574
500.66	572
501.131	575
501.602	587
502.072	587
502.543	599
503.014	610
503.484	614
503.955	620
504.426	643
504.897	651
505.368	667
505.838	674
506.309	681
506.78	710
507.251	725
507.722	741
508.194	758
508.665	773
509.136	768
509.607	790
510.078	812
510.549	824
511.021	844
511.492	838
511.964	857
512.435	864
512.906	855
513.378	870
513.849	884
514.321	875
514.793	886
515.264	901
515.736	905
516.208	917
516.679	925
517.151	940
517.623	943
518.095	955
518.567	972
519.038	993
519.51	995
519.982	1000
520.454	1019
520.927	1031
521.399	1043
521.871	1048
522.343	1056
522.815	1072
523.287	1069
523.76	1081
524.232	1100
524.704	1105
525.177	1085
525.649	1098
526.122	1124
526.594	1097
527.067	1113
527.539	1125
528.012	1126
528.484	1118
528.957	1128
529.43	1127
529.903	1132
530.375	1158
530.848	1121
531.321	1141
531.794	1158
532.267	1168
532.74	1144
533.213	1148
533.686	1161
534.159	1158
534.632	1183
535.105	1191
535.578	1211
536.051	1199
536.525	1198
536.998	1210
537.471	1239
537.945	1218
538.418	1233
538.891	1241
539.365	1266
539.838	1269
540.312	1271
540.786	1280
541.259	1294
541.733	1305
542.206	1310
542.68	1297
543.154	1297
543.628	1303
544.101	1320
544.575	1324
545.049	1305
545.523	1328
545.997	1313
546.471	1330
546.945	1322
547.419	1338
547.893	1279
548.367	1305
548.842	1296
549.316	1297
549.79	1304
550.264	1300
550.739	1318
551.213	1317
551.687	1305
552.162	1315
552.636	1325
553.111	1316
553.585	1338
554.06	1320
554.534	1363
555.009	1351
555.484	1363
555.958	1363
556.433	1382
556.908	1407
557.383	1385
557.858	1406
558.333	1424
558.807	1409
559.282	1430
559.757	1460
560.232	1456
560.708	1439
561.183	1443
561.658	1452
562.133	1443
562.608	1435
563.083	1493
563.559	1452
564.034	1447
564.509	1468
564.985	1480
565.46	1473
565.936	1485
566.411	1482
566.887	1479
567.362	1495
567.838	1484
568.313	1493
568.789	1479
569.265	1491
569.74	1494
570.216	1470
570.692	1492
571.168	1493
571.644	1500
572.12	1473
572.596	1483
573.071	1472
573.547	1516
574.024	1534
574.5	1528
574.976	1533
575.452	1566
575.928	1575
576.404	1588
576.881	1624
577.357	1618
577.833	1642
578.31	1684
578.786	1696
579.262	1721
579.739	1723
580.215	1788
580.692	1785
581.169	1763
581.645	1772
582.122	1836
582.598	1833
583.075	1826
583.552	1837
584.029	1844
584.506	1846
584.982	1826
585.459	1847
585.936	1815
586.413	1846
586.89	1877
587.367	1848
587.844	1851
588.321	1836
588.799	1859
589.276	1849
589.753	1858
590.23	1874
590.707	1871
591.185	1887
591.662	1890
592.139	1910
592.617	1942
593.094	1937
593.572	1954
594.049	1969
594.527	1975
595.004	1976
595.482	2026
595.96	2040
596.437	2045
596.915	2076
597.393	2041
597.871	2101
598.349	2077
598.826	2120
599.304	2100
599.782	2142
600.26	2107
600.738	2155
601.216	2141
601.694	2143
602.173	2155
602.651	2201
603.129	2194
603.607	2211
604.085	2226
604.564	2224
605.042	2237
605.52	2243
605.999	2299
606.477	2254
606.956	2255
607.434	2279.5
607.913	2304
608.391	2308
608.87	2283
609.348	2245
609.827	2260
610.306	2290
610.785	2291
611.263	2283
611.742	2258
612.221	2242
612.7	2283
613.179	2288
613.658	2247
614.137	2271
614.616	2286
615.095	2249
615.574	2272
616.053	2267
616.532	2249
617.011	2274
617.491	2294
617.97	2294
618.449	2315
618.928	2330
619.408	2320
619.887	2351
620.367	2366
620.846	2383
621.326	2359
621.805	2404
622.285	2404
622.764	2443
623.244	2439
623.724	2443
624.203	2462
624.683	2412
625.163	2486
625.643	2482
626.123	2463
626.602	2488
627.082	2427
627.562	2434
628.042	2513
628.522	2495
629.002	2467
629.482	2482
629.963	2498
630.443	2495
630.923	2495
631.403	2508
631.883	2474
632.364	2475
632.844	2457
633.324	2486
633.805	2484
634.285	2455
634.766	2443
635.246	2461
635.727	2494
636.207	2498
636.688	2481
637.168	2476
637.649	2452
638.13	2443
638.611	2480
639.091	2465
639.572	2458
640.053	2441
640.534	2485
641.015	2496
641.496	2450
641.977	2484
642.458	2450
642.939	2444
643.42	2465
643.901	2482
644.382	2493
644.863	2478
645.345	2475
645.826	2492
646.307	2492
646.788	2542
647.27	2496
647.751	2492
648.233	2510
648.714	2459
649.196	2539
649.677	2525
650.159	2516
650.64	2492
651.122	2523
651.603	2485
652.085	2531
652.567	2546
653.049	2523
653.53	2510
654.012	2551
654.494	2505
654.976	2537
655.458	2548
655.94	2535
656.422	2568
656.904	2563
657.386	2553
657.868	2578
658.35	2561
658.833	2557
659.315	2548
659.797	2530
660.279	2533
660.762	2562
661.244	2536
661.726	2496
662.209	2473
662.691	2482
663.174	2432
663.656	2439
664.139	2432
664.621	2392
665.104	2368
665.587	2391
666.069	2417
666.552	2411
667.035	2387
667.517	2376
668	2386
668.483	2394
668.966	2390
669.449	2398
669.932	2408
670.415	2441
670.898	2429
671.381	2432
671.864	2449
672.347	2430
672.83	2451
673.313	2449
673.797	2431
674.28	2470
674.763	2459
675.247	2490
675.73	2486
676.213	2500
676.697	2516
677.18	2503
677.664	2513
678.147	2514
678.631	2523
679.114	2538
679.598	2526
680.082	2535
680.565	2540
681.049	2537
681.533	2546
682.017	2568
682.5	2546
682.984	2554
683.468	2549
683.952	2523
684.436	2579
684.92	2550
685.404	2558
685.888	2571
686.372	2563
686.856	2568
687.341	2632
687.825	2620
688.309	2646
688.793	2644
689.278	2601
689.762	2642
690.246	2640
690.731	2669
691.215	2678
691.7	2591
692.184	2603
692.669	2620
693.153	2639
693.638	2610
694.122	2618
694.607	2642
695.092	2600
695.577	2614
696.061	2577
696.546	2588
697.031	2580
697.516	2594
698.001	2565
698.486	2531
698.971	2556
699.456	2505
699.941	2530
700.426	2522
700.911	2542
701.396	2525
701.881	2543
702.366	2531
702.852	2527
703.337	2558
703.822	2553
704.308	2540
704.793	2544
705.278	2532
705.764	2537
706.249	2535
706.735	2569
707.22	2589
707.706	2545
708.191	2568
708.677	2571
709.163	2567
709.648	2608
710.134	2637
710.62	2613
711.106	2613
711.592	2644
712.077	2640
712.563	2582
713.049	2605
713.535	2669
714.021	2658
714.507	2627
714.993	2591
715.479	2625
715.966	2596
716.452	2607
716.938	2621
717.424	2539
717.91	2577
718.397	2524
718.883	2489
719.369	2493
719.856	2488
720.342	2522
720.829	2495
721.315	2487
721.802	2475
722.288	2500
722.775	2426
723.262	2375
723.748	2495
724.235	2470
724.722	2493
725.208	2420
725.695	2416
726.182	2425
726.669	2417
727.156	2438
727.643	2405
728.13	2403
728.617	2387
729.104	2387
729.591	2362
730.078	2404
730.565	2414
731.052	2381
731.539	2380
732.027	2357
732.514	2326
733.001	2362
733.488	2366
733.976	2382
734.463	2372
734.951	2360
735.438	2381
735.926	2350
736.413	2370
736.901	2363
737.388	2412
737.876	2413
738.364	2385
738.851	2381
739.339	2372
739.827	2395
740.314	2348
740.802	2370
741.29	2396
741.778	2364
742.266	2352
742.754	2331
743.242	2338
743.73	2298
744.218	2312
744.706	2306
745.194	2328
745.682	2315
746.17	2311
746.659	2296
747.147	2250
747.635	2287
748.123	2309
748.612	2312
749.1	2295
749.589	2300
750.077	2280
750.566	2267
751.054	2287
751.543	2316
752.031	2289
752.52	2307
753.008	2248
753.497	2234
753.986	2228
754.474	2205
754.963	2230
755.452	2216
755.941	2214
756.43	2217
756.919	2206
757.408	2174
757.896	2175
758.385	2185
758.875	2175
759.364	2175
759.853	2172
760.342	2139
760.831	2170
761.32	2151
761.809	2120
762.299	2143
762.788	2159
763.277	2167
763.767	2152
764.256	2139
764.745	2095
765.235	2117
765.724	2064
766.214	2104
766.703	2116
767.193	2094
767.683	2112
768.172	2061
768.662	2079
769.152	2050
769.641	2064
770.131	2024
770.621	2069
771.111	2058
771.601	2073
772.09	2052
772.58	2008
773.07	2001
773.56	2018
774.05	2001
774.54	2004
775.031	2010
775.521	2006
776.011	1997
776.501	2004
776.991	1955
777.482	1979
777.972	1940
778.462	1967
778.953	1999
779.443	1997
779.933	1990
780.424	1952
780.914	1954
781.405	1953
781.895	1943
782.386	1958
782.877	1956
783.367	1931
783.858	1916
784.349	1910
784.839	1888
785.33	1889
785.821	1877
786.312	1869
786.803	1882
787.293	1890
787.784	1878
788.275	1843
788.766	1826
789.257	1851
789.748	1808
790.24	1799
790.731	1832
791.222	1812
791.713	1811
792.204	1807
792.696	1751
793.187	1755
793.678	1748
794.169	1711
794.661	1763
795.152	1754
795.644	1761
796.135	1763
796.627	1753
797.118	1724
797.61	1711
798.101	1704
798.593	1736
799.085	1717
799.576	1737
800.068	1718
800.56	1713
801.052	1656
801.544	1652
802.035	1657
802.527	1647
803.019	1652
803.511	1647
804.003	1652
804.495	1658
804.987	1643
805.479	1596
805.971	1604
806.464	1614
806.956	1585
807.448	1597
807.94	1610
808.433	1600
808.925	1587
809.417	1571
809.91	1554
810.402	1520
810.894	1537
811.387	1556
811.879	1544
812.372	1549
812.865	1530
813.357	1512
813.85	1498
814.342	1481
814.835	1482
815.328	1495
815.821	1489
816.313	1513
816.806	1525
817.299	1516
817.792	1524
818.285	1501
818.778	1522
819.271	1522
819.764	1499
820.257	1508
820.75	1517
821.243	1521
821.736	1507
822.229	1521
822.722	1515
823.216	1543
