Data from lamp4helium_zwak_dubbel_Subt2__185__785.txt Node

Date: Wed Apr 09 12:16:38 CEST 2025
User: fys-lab-0081
Spectrometer: S04999
Trigger mode: 0
Resolution mode: 1024 pixels
Integration Time (sec): 1.000000E-1
Scans to average: 1
Nonlinearity correction enabled: false
Boxcar width: 0
Baseline correction enabled: true
XAxis mode: Wavelengths
Number of Pixels in Spectrum: 1024
>>>>>Begin Spectral Data<<<<<
336.42	-3
336.877	3
337.334	5
337.792	1
338.249	7
338.706	-1
339.164	3
339.621	1
340.079	1
340.536	3
340.994	3
341.452	4
341.909	5
342.367	-1
342.825	0
343.283	5
343.741	2
344.198	3
344.656	3
345.114	1
345.572	5
346.03	1
346.488	6
346.947	-3
347.405	-2
347.863	-4
348.321	2
348.779	5
349.238	0
349.696	3
350.154	2
350.613	6
351.071	5
351.53	2
351.988	3
352.447	4
352.905	-1
353.364	-1
353.823	4
354.282	2
354.74	-1
355.199	1
355.658	4
356.117	-1
356.576	7
357.035	3
357.494	1
357.953	0
358.412	8
358.871	2
359.33	6
359.789	-1
360.249	6
360.708	4
361.167	6
361.626	4
362.086	2
362.545	6
363.005	8
363.464	2
363.924	5
364.383	4
364.843	7
365.303	11
365.762	10
366.222	8
366.682	4
367.142	11
367.601	6
368.061	7
368.521	7
368.981	6
369.441	13
369.901	10
370.361	8
370.821	8
371.282	7
371.742	10
372.202	7
372.662	9
373.123	4
373.583	14
374.043	11
374.504	8
374.964	7
375.425	8
375.885	9
376.346	12
376.806	14
377.267	7
377.728	17
378.188	12
378.649	8
379.11	14
379.571	9
380.032	13
380.493	15
380.954	17
381.414	11
381.876	13
382.337	13
382.798	16
383.259	14
383.72	11
384.181	16
384.642	12
385.104	16
385.565	17
386.026	23
386.488	19
386.949	24
387.411	20
387.872	21
388.334	24
388.795	28
389.257	24
389.719	24
390.181	24
390.642	28
391.104	24
391.566	31
392.028	25
392.49	34
392.952	32
393.414	33
393.876	37
394.338	30
394.8	35
395.262	29
395.724	40
396.186	37
396.648	33
397.111	34
397.573	36
398.035	37
398.498	37
398.96	37
399.423	33
399.885	36
400.348	37
400.81	41
401.273	38
401.736	37
402.198	49
402.661	45
403.124	40
403.587	49
404.049	48
404.512	47
404.975	47
405.438	50
405.901	55
406.364	54
406.827	52
407.29	46
407.754	54
408.217	52
408.68	53
409.143	56
409.607	58
410.07	54
410.533	53
410.997	56
411.46	55
411.924	65
412.387	60
412.851	58
413.314	58
413.778	60
414.242	68
414.705	61
415.169	69
415.633	68
416.097	65
416.561	69
417.024	66
417.488	71
417.952	68
418.416	66
418.88	65
419.344	62
419.809	70
420.273	71
420.737	68
421.201	72
421.665	76
422.13	74
422.594	78
423.059	75
423.523	80
423.987	77
424.452	83
424.916	86
425.381	84
425.846	85
426.31	93
426.775	91
427.24	93
427.704	88
428.169	88
428.634	101
429.099	96
429.564	95
430.029	96
430.494	93
430.959	92
431.424	92
431.889	100
432.354	102
432.819	99
433.284	103
433.75	101
434.215	112
434.68	104
435.146	104
435.611	114
436.077	114
436.542	114
437.008	121
437.473	126
437.939	123
438.404	128
438.87	129
439.336	127
439.801	130
440.267	132
440.733	139
441.199	139
441.665	135
442.131	141
442.596	132
443.062	141
443.529	149
443.995	144
444.461	149
444.927	159
445.393	156
445.859	158
446.325	166
446.792	181
447.258	175
447.724	184
448.191	190
448.657	191
449.124	191
449.59	192
450.057	209
450.523	210
450.99	210
451.457	210
451.923	216
452.39	210
452.857	219
453.324	219
453.791	220
454.257	227
454.724	225
455.191	225
455.658	230
456.125	229
456.592	227
457.059	235
457.527	231
457.994	243
458.461	248
458.928	247
459.396	244
459.863	255
460.33	256
460.798	257
461.265	266
461.732	266
462.2	271
462.668	270
463.135	274
463.603	265
464.07	281
464.538	266
465.006	274
465.474	270
465.941	270
466.409	273
466.877	266
467.345	271
467.813	269
468.281	270
468.749	278
469.217	275
469.685	288
470.153	289
470.621	291
471.09	288
471.558	298
472.026	294
472.494	302
472.963	308
473.431	315
473.9	326
474.368	336
474.837	336
475.305	348
475.774	347
476.242	356
476.711	365
477.18	375
477.648	370
478.117	383
478.586	382
479.055	374
479.524	383
479.993	379
480.462	375
480.93	378
481.399	379
481.869	381
482.338	376
482.807	383
483.276	378
483.745	378
484.214	390
484.684	394
485.153	396
485.622	392
486.092	403
486.561	395
487.031	414
487.5	415
487.97	419
488.439	433
488.909	444
489.378	457
489.848	456
490.318	469
490.787	501
491.257	496
491.727	505
492.197	516
492.667	511
493.137	518
493.607	522
494.077	533
494.547	523
495.017	532
495.487	538
495.957	546
496.427	543
496.897	539
497.368	553
497.838	542
498.308	544
498.779	549
499.249	546
499.719	555
500.19	561
500.66	563
501.131	569
501.602	581
502.072	580
502.543	590
503.014	600
503.484	601
503.955	614
504.426	635
504.897	642
505.368	653
505.838	659
506.309	677
506.78	702
507.251	724
507.722	732
508.194	749
508.665	767
509.136	759
509.607	788
510.078	804
510.549	815
511.021	827
511.492	829
511.964	842
512.435	847
512.906	838
513.378	849
513.849	873
514.321	865
514.793	867
515.264	882
515.736	893
516.208	904
516.679	908
517.151	932
517.623	929
518.095	939
518.567	953
519.038	979
519.51	979
519.982	988
520.454	1011
520.927	1019
521.399	1018
521.871	1030
522.343	1035
522.815	1055
523.287	1053
523.76	1058
524.232	1087
524.704	1084
525.177	1067
525.649	1080
526.122	1102
526.594	1077
527.067	1096
527.539	1109
528.012	1113
528.484	1109
528.957	1113
529.43	1114
529.903	1113
530.375	1141
530.848	1106
531.321	1124
531.794	1133
532.267	1146
532.74	1128
533.213	1127
533.686	1150
534.159	1135
534.632	1159
535.105	1169
535.578	1189
536.051	1181
536.525	1186
536.998	1203
537.471	1232
537.945	1208
538.418	1221
538.891	1247
539.365	1274
539.838	1272
540.312	1266
540.786	1285
541.259	1292
541.733	1301
542.206	1295
542.68	1275
543.154	1277
543.628	1284
544.101	1306
544.575	1310
545.049	1285
545.523	1304
545.997	1292
546.471	1308
546.945	1302
547.419	1326
547.893	1261
548.367	1287
548.842	1285
549.316	1287
549.79	1291
550.264	1282
550.739	1305
551.213	1309
551.687	1293
552.162	1303
552.636	1305
553.111	1296
553.585	1319
554.06	1298
554.534	1334
555.009	1325
555.484	1333
555.958	1337
556.433	1350
556.908	1376
557.383	1361
557.858	1381
558.333	1399
558.807	1389
559.282	1412
559.757	1440
560.232	1438
560.708	1429
561.183	1432
561.658	1445
562.133	1443
562.608	1427
563.083	1489
563.559	1452
564.034	1438
564.509	1454
564.985	1472
565.46	1457
565.936	1468
566.411	1463
566.887	1454
567.362	1469
567.838	1464
568.313	1466
568.789	1462
569.265	1469
569.74	1470
570.216	1448
570.692	1469
571.168	1471
571.644	1480
572.12	1461
572.596	1477
573.071	1469
573.547	1511
574.024	1531
574.5	1525
574.976	1536
575.452	1565
575.928	1587
576.404	1590
576.881	1623
577.357	1611
577.833	1630
578.31	1671
578.786	1680
579.262	1704
579.739	1703
580.215	1759
580.692	1757
581.169	1730
581.645	1742
582.122	1796
582.598	1791
583.075	1794
583.552	1807
584.029	1808
584.506	1811
584.982	1800
585.459	1830
585.936	1797
586.413	1837
586.89	1880
587.367	1848
587.844	1861
588.321	1850
588.799	1863
589.276	1851
589.753	1876
590.23	1879
590.707	1876
591.185	1877
591.662	1879
592.139	1892
592.617	1912
593.094	1908
593.572	1928
594.049	1939
594.527	1935
595.004	1926
595.482	1987
595.96	1988
596.437	1990
596.915	2025
597.393	1994
597.871	2052
598.349	2034
598.826	2077
599.304	2067
599.782	2113
600.26	2097
600.738	2151
601.216	2136
601.694	2145
602.173	2153
602.651	2193
603.129	2208
603.607	2219
604.085	2231
604.564	2229
605.042	2242
605.52	2238
605.999	2294
606.477	2239
606.956	2231
607.434	2256.5
607.913	2282
608.391	2270
608.87	2249
609.348	2207
609.827	2225
610.306	2251
610.785	2251
611.263	2248
611.742	2228
612.221	2213
612.7	2261
613.179	2269
613.658	2242
614.137	2258
614.616	2282
615.095	2248
615.574	2271
616.053	2274
616.532	2253
617.011	2270
617.491	2298
617.97	2304
618.449	2320
618.928	2329
619.408	2315
619.887	2344
620.367	2364
620.846	2364
621.326	2353
621.805	2388
622.285	2386
622.764	2417
623.244	2418
623.724	2408
624.203	2414
624.683	2383
625.163	2449
625.643	2447
626.123	2421
626.602	2454
627.082	2392
627.562	2415
628.042	2494
628.522	2477
629.002	2464
629.482	2461
629.963	2481
630.443	2484
630.923	2496
631.403	2503
631.883	2488
632.364	2502
632.844	2494
633.324	2514
633.805	2516
634.285	2479
634.766	2468
635.246	2488
635.727	2508
636.207	2505
636.688	2487
637.168	2471
637.649	2443
638.13	2426
638.611	2452
639.091	2442
639.572	2434
640.053	2389
640.534	2442
641.015	2453
641.496	2409
641.977	2451
642.458	2414
642.939	2414
643.42	2429
643.901	2453
644.382	2471
644.863	2459
645.345	2443
645.826	2461
646.307	2476
646.788	2522
647.27	2483
647.751	2492
648.233	2513
648.714	2461
649.196	2546
649.677	2536
650.159	2532
650.64	2499
651.122	2526
651.603	2498
652.085	2538
652.567	2541
653.049	2508
653.53	2499
654.012	2531
654.494	2500
654.976	2519
655.458	2518
655.94	2490
656.422	2518
656.904	2504
657.386	2490
657.868	2509
658.35	2494
658.833	2494
659.315	2502
659.797	2475
660.279	2483
660.762	2511
661.244	2486
661.726	2446
662.209	2436
662.691	2445
663.174	2410
663.656	2425
664.139	2423
664.621	2397
665.104	2373
665.587	2403
666.069	2422
666.552	2421
667.035	2385
667.517	2384
668	2395
668.483	2409
668.966	2392
669.449	2392
669.932	2401
670.415	2426
670.898	2401
671.381	2404
671.864	2417
672.347	2405
672.83	2415
673.313	2425
673.797	2393
674.28	2427
674.763	2422
675.247	2449
675.73	2448
676.213	2466
676.697	2471
677.18	2467
677.664	2475
678.147	2482
678.631	2500
679.114	2514
679.598	2498
680.082	2508
680.565	2520
681.049	2522
681.533	2540
682.017	2571
682.5	2557
682.984	2566
683.468	2562
683.952	2543
684.436	2589
684.92	2567
685.404	2563
685.888	2584
686.372	2563
686.856	2566
687.341	2630
687.825	2608
688.309	2629
688.793	2622
689.278	2573
689.762	2612
690.246	2601
690.731	2622
691.215	2623
691.7	2545
692.184	2564
692.669	2550
693.153	2559
693.638	2543
694.122	2553
694.607	2585
695.092	2543
695.577	2560
696.061	2520
696.546	2528
697.031	2525
697.516	2551
698.001	2521
698.486	2486
698.971	2525
699.456	2478
699.941	2497
700.426	2504
700.911	2523
701.396	2494
701.881	2520
702.366	2504
702.852	2505
703.337	2541
703.822	2547
704.308	2537
704.793	2533
705.278	2524
705.764	2532
706.249	2525
706.735	2558
707.22	2588
707.706	2532
708.191	2553
708.677	2550
709.163	2548
709.648	2591
710.134	2611
710.62	2574
711.106	2567
711.592	2587
712.077	2587
712.563	2532
713.049	2534
713.535	2593
714.021	2576
714.507	2550
714.993	2513
715.479	2546
715.966	2534
716.452	2561
716.938	2587
717.424	2507
717.91	2553
718.397	2500
718.883	2473
719.369	2492
719.856	2481
720.342	2523
720.829	2499
721.315	2501
721.802	2493
722.288	2520
722.775	2444
723.262	2388
723.748	2500
724.235	2473
724.722	2497
725.208	2430
725.695	2431
726.182	2428
726.669	2418
727.156	2450
727.643	2405
728.13	2404
728.617	2381
729.104	2379
729.591	2356
730.078	2400
730.565	2421
731.052	2378
731.539	2371
732.027	2347
732.514	2309
733.001	2340
733.488	2341
733.976	2350
734.463	2336
734.951	2315
735.438	2334
735.926	2305
736.413	2330
736.901	2317
737.388	2365
737.876	2362
738.364	2340
738.851	2342
739.339	2334
739.827	2357
740.314	2297
740.802	2333
741.29	2357
741.778	2326
742.266	2327
742.754	2321
743.242	2333
743.73	2294
744.218	2320
744.706	2312
745.194	2345
745.682	2322
746.17	2316
746.659	2306
747.147	2265
747.635	2301
748.123	2321
748.612	2315
749.1	2301
749.589	2306
750.077	2272
750.566	2246
751.054	2273
751.543	2306
752.031	2267
752.52	2276
753.008	2221
753.497	2206
753.986	2190
754.474	2170
754.963	2186
755.452	2168
755.941	2163
756.43	2168
756.919	2151
757.408	2118
757.896	2120
758.385	2129
758.875	2120
759.364	2125
759.853	2132
760.342	2101
760.831	2131
761.32	2111
761.809	2076
762.299	2093
762.788	2116
763.277	2121
763.767	2101
764.256	2108
764.745	2074
765.235	2088
765.724	2043
766.214	2086
766.703	2095
767.193	2079
767.683	2104
768.172	2058
768.662	2075
769.152	2061
769.641	2074
770.131	2041
770.621	2083
771.111	2066
771.601	2094
772.09	2076
772.58	2018
773.07	2021
773.56	2028
774.05	1992
774.54	2005
775.031	2008
775.521	2000
776.011	1990
776.501	1995
776.991	1938
777.482	1955
777.972	1919
778.462	1936
778.953	1974
779.443	1961
779.933	1943
780.424	1911
780.914	1914
781.405	1906
781.895	1893
782.386	1908
782.877	1909
783.367	1887
783.858	1872
784.349	1868
784.839	1846
785.33	1840
785.821	1832
786.312	1832
786.803	1848
787.293	1859
787.784	1850
788.275	1819
788.766	1799
789.257	1832
789.748	1793
790.24	1790
790.731	1818
791.222	1800
791.713	1816
792.204	1809
792.696	1750
793.187	1762
793.678	1741
794.169	1707
794.661	1752
795.152	1747
795.644	1745
796.135	1750
796.627	1752
797.118	1722
797.61	1699
798.101	1693
798.593	1734
799.085	1709
799.576	1728
800.068	1706
800.56	1710
801.052	1642
801.544	1631
802.035	1633
802.527	1628
803.019	1633
803.511	1633
804.003	1640
804.495	1638
804.987	1631
805.479	1579
805.971	1583
806.464	1591
806.956	1572
807.448	1586
807.94	1592
808.433	1591
808.925	1565
809.417	1542
809.91	1527
810.402	1493
810.894	1506
811.387	1524
811.879	1512
812.372	1525
812.865	1503
813.357	1489
813.85	1473
814.342	1457
814.835	1470
815.328	1478
815.821	1473
816.313	1498
816.806	1507
817.299	1500
817.792	1515
818.285	1486
818.778	1509
819.271	1517
819.764	1498
820.257	1503
820.75	1508
821.243	1516
821.736	1504
822.229	1509
822.722	1503
823.216	1530
