Data from lamp4helium_zwak_dubbel_Subt2__143__743.txt Node

Date: Wed Apr 09 12:16:33 CEST 2025
User: fys-lab-0081
Spectrometer: S04999
Trigger mode: 0
Resolution mode: 1024 pixels
Integration Time (sec): 1.000000E-1
Scans to average: 1
Nonlinearity correction enabled: false
Boxcar width: 0
Baseline correction enabled: true
XAxis mode: Wavelengths
Number of Pixels in Spectrum: 1024
>>>>>Begin Spectral Data<<<<<
336.42	-2
336.877	4
337.334	0
337.792	1
338.249	1
338.706	-1
339.164	3
339.621	1
340.079	4
340.536	5
340.994	2
341.452	3
341.909	7
342.367	0
342.825	0
343.283	6
343.741	2
344.198	1
344.656	0
345.114	-1
345.572	5
346.03	3
346.488	3
346.947	3
347.405	5
347.863	-1
348.321	-1
348.779	4
349.238	2
349.696	6
350.154	-5
350.613	4
351.071	3
351.53	8
351.988	7
352.447	0
352.905	-1
353.364	1
353.823	-1
354.282	0
354.74	-4
355.199	9
355.658	9
356.117	4
356.576	6
357.035	2
357.494	5
357.953	4
358.412	7
358.871	3
359.33	3
359.789	1
360.249	6
360.708	7
361.167	8
361.626	3
362.086	2
362.545	7
363.005	6
363.464	10
363.924	3
364.383	2
364.843	8
365.303	7
365.762	9
366.222	7
366.682	8
367.142	10
367.601	5
368.061	4
368.521	7
368.981	7
369.441	11
369.901	11
370.361	7
370.821	5
371.282	5
371.742	10
372.202	11
372.662	10
373.123	4
373.583	12
374.043	14
374.504	7
374.964	5
375.425	2
375.885	9
376.346	16
376.806	14
377.267	11
377.728	19
378.188	15
378.649	8
379.11	11
379.571	5
380.032	15
380.493	12
380.954	15
381.414	9
381.876	11
382.337	16
382.798	18
383.259	20
383.72	17
384.181	17
384.642	16
385.104	20
385.565	21
386.026	19
386.488	21
386.949	16
387.411	23
387.872	26
388.334	22
388.795	27
389.257	27
389.719	20
390.181	22
390.642	24
391.104	26
391.566	29
392.028	25
392.49	34
392.952	36
393.414	33
393.876	32
394.338	28
394.8	30
395.262	29
395.724	34
396.186	34
396.648	33
397.111	39
397.573	38
398.035	37
398.498	35
398.96	36
399.423	37
399.885	34
400.348	39
400.81	39
401.273	39
401.736	38
402.198	44
402.661	45
403.124	40
403.587	49
404.049	47.5
404.512	46
404.975	45
405.438	52
405.901	56
406.364	54
406.827	52
407.29	52
407.754	52
408.217	57
408.68	50
409.143	57
409.607	59
410.07	52
410.533	55
410.997	54
411.46	56
411.924	64
412.387	61
412.851	56
413.314	61
413.778	64
414.242	62
414.705	67
415.169	67
415.633	64
416.097	62
416.561	73
417.024	67
417.488	71
417.952	71
418.416	67
418.88	69
419.344	63
419.809	70
420.273	71
420.737	71
421.201	74
421.665	74
422.13	74
422.594	81
423.059	80
423.523	79
423.987	75
424.452	82
424.916	82
425.381	89
425.846	82
426.31	91
426.775	91
427.24	93
427.704	93
428.169	93
428.634	99
429.099	93
429.564	92
430.029	89
430.494	91
430.959	95
431.424	90
431.889	101
432.354	100
432.819	95
433.284	105
433.75	105
434.215	105
434.68	101
435.146	109
435.611	111
436.077	115
436.542	112
437.008	122
437.473	123
437.939	121
438.404	126
438.87	132
439.336	131
439.801	129
440.267	133
440.733	135
441.199	134
441.665	140
442.131	142
442.596	133
443.062	141
443.529	153
443.995	148
444.461	149
444.927	155
445.393	149
445.859	159
446.325	163
446.792	171
447.258	174
447.724	185
448.191	191
448.657	187
449.124	187
449.59	194
450.057	207
450.523	207
450.99	212
451.457	212
451.923	213
452.39	210
452.857	224
453.324	214
453.791	220
454.257	226
454.724	230
455.191	219
455.658	220
456.125	230
456.592	225
457.059	235
457.527	226
457.994	246
458.461	239
458.928	251
459.396	251
459.863	258
460.33	256
460.798	261
461.265	265
461.732	264
462.2	269
462.668	264
463.135	266
463.603	261
464.07	279
464.538	264
465.006	272
465.474	270
465.941	270
466.409	264
466.877	261
467.345	270
467.813	272
468.281	274
468.749	271
469.217	272
469.685	283
470.153	282
470.621	282
471.09	282
471.558	296
472.026	298
472.494	302
472.963	303
473.431	311
473.9	319
474.368	333
474.837	330
475.305	338
475.774	339
476.242	352
476.711	355
477.18	368
477.648	359
478.117	371
478.586	369
479.055	366
479.524	376
479.993	372
480.462	368
480.93	366
481.399	372
481.869	373
482.338	366
482.807	379
483.276	377
483.745	379
484.214	384
484.684	383
485.153	384
485.622	391
486.092	397
486.561	390
487.031	406
487.5	411
487.97	406
488.439	421
488.909	433
489.378	448
489.848	451
490.318	461
490.787	487
491.257	485
491.727	494
492.197	506
492.667	506
493.137	512
493.607	516
494.077	531
494.547	519
495.017	517
495.487	534
495.957	542
496.427	530
496.897	527
497.368	544
497.838	533
498.308	538
498.779	541
499.249	545
499.719	546
500.19	553
500.66	548
501.131	556
501.602	573
502.072	568
502.543	579
503.014	593
503.484	597
503.955	604
504.426	617
504.897	621
505.368	642
505.838	647
506.309	658
506.78	689
507.251	703
507.722	709
508.194	732
508.665	754
509.136	748
509.607	775
510.078	788
510.549	795
511.021	811
511.492	811
511.964	828
512.435	839
512.906	832
513.378	847
513.849	859
514.321	854
514.793	859
515.264	870
515.736	884
516.208	891
516.679	895
517.151	914
517.623	914
518.095	924
518.567	935
519.038	960
519.51	959
519.982	968
520.454	984
520.927	999
521.399	1000
521.871	1010
522.343	1017
522.815	1039
523.287	1033
523.76	1037
524.232	1066
524.704	1073
525.177	1050
525.649	1059
526.122	1083
526.594	1064
527.067	1074
527.539	1086
528.012	1090
528.484	1085
528.957	1091
529.43	1092
529.903	1093
530.375	1120
530.848	1090
531.321	1112
531.794	1115
532.267	1129
532.74	1105
533.213	1112
533.686	1131
534.159	1114
534.632	1133
535.105	1142
535.578	1161
536.051	1157
536.525	1159
536.998	1165
537.471	1196
537.945	1177
538.418	1189
538.891	1205
539.365	1232
539.838	1235
540.312	1231
540.786	1238
541.259	1256
541.733	1266
542.206	1265
542.68	1247
543.154	1264
543.628	1266
544.101	1282
544.575	1282
545.049	1265
545.523	1284
545.997	1265
546.471	1285
546.945	1280
547.419	1296
547.893	1238
548.367	1265
548.842	1262
549.316	1262
549.79	1261
550.264	1260
550.739	1280
551.213	1278
551.687	1258
552.162	1277
552.636	1273
553.111	1275
553.585	1301
554.06	1271
554.534	1311
555.009	1303
555.484	1316
555.958	1317
556.433	1332
556.908	1363
557.383	1330
557.858	1359
558.333	1375
558.807	1370
559.282	1382
559.757	1412
560.232	1421
560.708	1399
561.183	1401
561.658	1404
562.133	1408
562.608	1402
563.083	1454
563.559	1419
564.034	1420
564.509	1429
564.985	1449
565.46	1438
565.936	1444
566.411	1446
566.887	1439
567.362	1455
567.838	1438
568.313	1455
568.789	1448
569.265	1451
569.74	1446
570.216	1425
570.692	1445
571.168	1448
571.644	1450
572.12	1434
572.596	1437
573.071	1436
573.547	1478
574.024	1486
574.5	1487
574.976	1492
575.452	1518
575.928	1537
576.404	1537
576.881	1586
577.357	1568
577.833	1600
578.31	1639
578.786	1647
579.262	1671
579.739	1677
580.215	1732
580.692	1727
581.169	1715
581.645	1728
582.122	1791
582.598	1781
583.075	1778
583.552	1785
584.029	1790
584.506	1787
584.982	1778
585.459	1798
585.936	1769
586.413	1803
586.89	1836
587.367	1803
587.844	1811
588.321	1799
588.799	1816
589.276	1804
589.753	1825
590.23	1832
590.707	1827
591.185	1840
591.662	1839
592.139	1855
592.617	1881
593.094	1870
593.572	1893
594.049	1907
594.527	1906
595.004	1901
595.482	1971
595.96	1975
596.437	1967
596.915	1998
597.393	1965
597.871	2033
598.349	2011
598.826	2049
599.304	2043
599.782	2082
600.26	2049
600.738	2101
601.216	2081
601.694	2091
602.173	2103
602.651	2143
603.129	2135
603.607	2158
604.085	2168
604.564	2160
605.042	2174
605.52	2183
605.999	2244
606.477	2190
606.956	2190
607.434	2213.5
607.913	2237
608.391	2226
608.87	2215
609.348	2174
609.827	2187
610.306	2217
610.785	2220
611.263	2214
611.742	2196
612.221	2168
612.7	2217
613.179	2225
613.658	2184
614.137	2203
614.616	2228
615.095	2193
615.574	2218
616.053	2219
616.532	2189
617.011	2213
617.491	2233
617.97	2244
618.449	2261
618.928	2269
619.408	2260
619.887	2281
620.367	2304
620.846	2321
621.326	2303
621.805	2337
622.285	2347
622.764	2379
623.244	2379
623.724	2383
624.203	2396
624.683	2357
625.163	2425
625.643	2417
626.123	2393
626.602	2437
627.082	2371
627.562	2397
628.042	2459
628.522	2439
629.002	2427
629.482	2424
629.963	2445
630.443	2439
630.923	2436
631.403	2441
631.883	2413
632.364	2417
632.844	2413
633.324	2425
633.805	2429
634.285	2396
634.766	2382
635.246	2400
635.727	2425
636.207	2423
636.688	2410
637.168	2395
637.649	2372
638.13	2361
638.611	2394
639.091	2393
639.572	2379
640.053	2355
640.534	2396
641.015	2409
641.496	2378
641.977	2414
642.458	2380
642.939	2383
643.42	2404
643.901	2424
644.382	2434
644.863	2423
645.345	2418
645.826	2416
646.307	2423
646.788	2476
647.27	2421
647.751	2435
648.233	2455
648.714	2398
649.196	2482
649.677	2472
650.159	2457
650.64	2422
651.122	2459
651.603	2423
652.085	2464
652.567	2488
653.049	2456
653.53	2451
654.012	2483
654.494	2449
654.976	2477
655.458	2471
655.94	2457
656.422	2488
656.904	2468
657.386	2468
657.868	2492
658.35	2473
658.833	2478
659.315	2481
659.797	2453
660.279	2466
660.762	2488
661.244	2457
661.726	2425
662.209	2407
662.691	2412
663.174	2364
663.656	2378
664.139	2377
664.621	2342
665.104	2323
665.587	2341
666.069	2357
666.552	2356
667.035	2328
667.517	2319
668	2324
668.483	2325
668.966	2310
669.449	2317
669.932	2326
670.415	2359
670.898	2341
671.381	2351
671.864	2365
672.347	2354
672.83	2371
673.313	2377
673.797	2358
674.28	2392
674.763	2391
675.247	2417
675.73	2416
676.213	2439
676.697	2441
677.18	2438
677.664	2446
678.147	2451
678.631	2476
679.114	2486
679.598	2467
680.082	2482
680.565	2480
681.049	2490
681.533	2507
682.017	2532
682.5	2519
682.984	2532
683.468	2519
683.952	2486
684.436	2536
684.92	2512
685.404	2512
685.888	2527
686.372	2502
686.856	2503
687.341	2555
687.825	2544
688.309	2561
688.793	2563
689.278	2518
689.762	2554
690.246	2552
690.731	2565
691.215	2568
691.7	2495
692.184	2513
692.669	2518
693.153	2548
693.638	2531
694.122	2534
694.607	2548
695.092	2506
695.577	2523
696.061	2491
696.546	2514
697.031	2500
697.516	2529
698.001	2504
698.486	2466
698.971	2498
699.456	2454
699.941	2471
700.426	2468
700.911	2485
701.396	2452
701.881	2468
702.366	2452
702.852	2461
703.337	2485
703.822	2490
704.308	2480
704.793	2471
705.278	2465
705.764	2476
706.249	2480
706.735	2502
707.22	2518
707.706	2478
708.191	2508
708.677	2494
709.163	2494
709.648	2526
710.134	2563
710.62	2539
711.106	2528
711.592	2544
712.077	2547
712.563	2488
713.049	2503
713.535	2566
714.021	2541
714.507	2517
714.993	2487
715.479	2519
715.966	2488
716.452	2503
716.938	2521
717.424	2442
717.91	2483
718.397	2433
718.883	2406
719.369	2412
719.856	2406
720.342	2453
720.829	2413
721.315	2417
721.802	2406
722.288	2440
722.775	2362
723.262	2317
723.748	2438
724.235	2412
724.722	2428
725.208	2366
725.695	2366
726.182	2375
726.669	2358
727.156	2391
727.643	2349
728.13	2342
728.617	2322
729.104	2324
729.591	2305
730.078	2339
730.565	2355
731.052	2318
731.539	2318
732.027	2295
732.514	2265
733.001	2298
733.488	2303
733.976	2316
734.463	2309
734.951	2293
735.438	2311
735.926	2286
736.413	2308
736.901	2284
737.388	2337
737.876	2334
738.364	2317
738.851	2314
739.339	2301
739.827	2331
740.314	2286
740.802	2310
741.29	2339
741.778	2307
742.266	2298
742.754	2279
743.242	2283
743.73	2235
744.218	2259
744.706	2246
745.194	2281
745.682	2256
746.17	2259
746.659	2244
747.147	2195
747.635	2231
748.123	2257
748.612	2255
749.1	2242
749.589	2254
750.077	2226
750.566	2214
751.054	2234
751.543	2273
752.031	2231
752.52	2241
753.008	2183
753.497	2165
753.986	2145
754.474	2129
754.963	2151
755.452	2135
755.941	2134
756.43	2133
756.919	2114
757.408	2095
757.896	2097
758.385	2110
758.875	2098
759.364	2101
759.853	2103
760.342	2077
760.831	2114
761.32	2086
761.809	2056
762.299	2079
762.788	2099
763.277	2118
763.767	2094
764.256	2094
764.745	2048
765.235	2065
765.724	2018
766.214	2057
766.703	2063
767.193	2053
767.683	2068
768.172	2026
768.662	2041
769.152	2017
769.641	2030
770.131	1987
770.621	2025
771.111	2006
771.601	2026
772.09	2009
772.58	1968
773.07	1956
773.56	1971
774.05	1948
774.54	1956
775.031	1956
775.521	1954
776.011	1950
776.501	1949
776.991	1898
777.482	1915
777.972	1871
778.462	1890
778.953	1917
779.443	1910
779.933	1908
780.424	1869
780.914	1875
781.405	1874
781.895	1863
782.386	1876
782.877	1876
783.367	1846
783.858	1839
784.349	1832
784.839	1817
785.33	1811
785.821	1810
786.312	1809
786.803	1825
787.293	1835
787.784	1814
788.275	1785
788.766	1755
789.257	1789
789.748	1746
790.24	1742
790.731	1765
791.222	1750
791.713	1754
792.204	1753
792.696	1695
793.187	1709
793.678	1698
794.169	1666
794.661	1718
795.152	1706
795.644	1698
796.135	1704
796.627	1701
797.118	1673
797.61	1648
798.101	1646
798.593	1679
799.085	1670
799.576	1681
800.068	1673
800.56	1662
801.052	1614
801.544	1607
802.035	1609
802.527	1594
803.019	1596
803.511	1591
804.003	1597
804.495	1602
804.987	1587
805.479	1541
805.971	1553
806.464	1564
806.956	1536
807.448	1548
807.94	1554
808.433	1548
808.925	1535
809.417	1503
809.91	1490
810.402	1466
810.894	1478
811.387	1498
811.879	1488
812.372	1496
812.865	1476
813.357	1465
813.85	1445
814.342	1431
814.835	1436
815.328	1450
815.821	1443
816.313	1469
816.806	1479
817.299	1472
817.792	1485
818.285	1463
818.778	1484
819.271	1489
819.764	1466
820.257	1480
820.75	1491
821.243	1497
821.736	1487
822.229	1495
822.722	1485
823.216	1513
