Data from lamp4helium_zwak_dubbel_Subt2__197__797.txt Node

Date: Wed Apr 09 12:16:40 CEST 2025
User: fys-lab-0081
Spectrometer: S04999
Trigger mode: 0
Resolution mode: 1024 pixels
Integration Time (sec): 1.000000E-1
Scans to average: 1
Nonlinearity correction enabled: false
Boxcar width: 0
Baseline correction enabled: true
XAxis mode: Wavelengths
Number of Pixels in Spectrum: 1024
>>>>>Begin Spectral Data<<<<<
336.42	-5
336.877	1
337.334	3
337.792	5
338.249	6
338.706	4
339.164	3
339.621	1
340.079	4
340.536	4
340.994	4
341.452	6
341.909	7
342.367	0
342.825	-1
343.283	7
343.741	2
344.198	-1
344.656	4
345.114	1
345.572	7
346.03	2
346.488	2
346.947	3
347.405	6
347.863	0
348.321	-1
348.779	6
349.238	4
349.696	5
350.154	0
350.613	3
351.071	3
351.53	7
351.988	4
352.447	5
352.905	0
353.364	5
353.823	1
354.282	2
354.74	-3
355.199	6
355.658	9
356.117	4
356.576	2
357.035	4
357.494	6
357.953	0
358.412	4
358.871	3
359.33	6
359.789	1
360.249	9
360.708	4
361.167	5
361.626	9
362.086	2
362.545	4
363.005	7
363.464	4
363.924	6
364.383	7
364.843	8
365.303	9
365.762	12
366.222	3
366.682	7
367.142	10
367.601	5
368.061	5
368.521	10
368.981	9
369.441	10
369.901	7
370.361	4
370.821	5
371.282	4
371.742	9
372.202	8
372.662	9
373.123	5
373.583	9
374.043	10
374.504	7
374.964	9
375.425	11
375.885	9
376.346	11
376.806	14
377.267	13
377.728	15
378.188	12
378.649	10
379.11	13
379.571	12
380.032	16
380.493	9
380.954	19
381.414	14
381.876	14
382.337	16
382.798	17
383.259	17
383.72	19
384.181	13
384.642	14
385.104	18
385.565	24
386.026	25
386.488	18
386.949	21
387.411	19
387.872	25
388.334	24
388.795	25
389.257	21
389.719	22
390.181	29
390.642	24
391.104	22
391.566	29
392.028	26
392.49	34
392.952	30
393.414	32
393.876	36
394.338	29
394.8	28
395.262	26
395.724	36
396.186	37
396.648	34
397.111	33
397.573	40
398.035	33
398.498	39
398.96	38
399.423	36
399.885	38
400.348	41
400.81	40
401.273	38
401.736	37
402.198	50
402.661	47
403.124	41
403.587	50
404.049	49
404.512	48
404.975	50
405.438	50
405.901	53
406.364	54
406.827	50
407.29	52
407.754	50
408.217	52
408.68	55
409.143	56
409.607	55
410.07	56
410.533	54
410.997	55
411.46	56
411.924	58
412.387	61
412.851	56
413.314	60
413.778	61
414.242	62
414.705	71
415.169	67
415.633	67
416.097	64
416.561	68
417.024	73
417.488	67
417.952	68
418.416	66
418.88	60
419.344	63
419.809	69
420.273	70
420.737	70
421.201	71
421.665	71
422.13	79
422.594	79
423.059	77
423.523	83
423.987	78
424.452	84
424.916	81
425.381	87
425.846	79
426.31	96
426.775	92
427.24	93
427.704	94
428.169	95
428.634	100
429.099	95
429.564	92
430.029	91
430.494	93
430.959	92
431.424	95
431.889	99
432.354	101
432.819	92
433.284	105
433.75	98
434.215	111
434.68	109
435.146	106
435.611	115
436.077	117
436.542	117
437.008	127
437.473	124
437.939	122
438.404	129
438.87	134
439.336	130
439.801	135
440.267	134
440.733	137
441.199	135
441.665	136
442.131	143
442.596	136
443.062	141
443.529	150
443.995	149
444.461	155
444.927	157
445.393	158
445.859	159
446.325	164
446.792	177
447.258	176
447.724	186
448.191	185
448.657	189
449.124	192
449.59	192
450.057	208
450.523	211
450.99	215
451.457	215
451.923	217
452.39	216
452.857	220
453.324	216
453.791	225
454.257	228
454.724	228
455.191	220
455.658	227
456.125	231
456.592	233
457.059	234
457.527	232
457.994	248
458.461	247
458.928	248
459.396	249
459.863	254
460.33	255
460.798	268
461.265	265
461.732	265
462.2	271
462.668	268
463.135	273
463.603	263
464.07	275
464.538	268
465.006	276
465.474	275
465.941	266
466.409	271
466.877	267
467.345	273
467.813	272
468.281	281
468.749	285
469.217	276
469.685	286
470.153	287
470.621	288
471.09	286
471.558	297
472.026	304
472.494	306
472.963	309
473.431	315
473.9	328
474.368	335
474.837	336
475.305	349
475.774	342
476.242	362
476.711	365
477.18	368
477.648	366
478.117	378
478.586	378
479.055	376
479.524	376
479.993	379
480.462	376
480.93	377
481.399	378
481.869	382
482.338	378
482.807	384
483.276	379
483.745	379
484.214	387
484.684	394
485.153	392
485.622	394
486.092	398
486.561	397
487.031	412
487.5	419
487.97	415
488.439	427
488.909	439
489.378	457
489.848	453
490.318	467
490.787	495
491.257	497
491.727	501
492.197	515
492.667	520
493.137	522
493.607	531
494.077	536
494.547	523
495.017	532
495.487	536
495.957	551
496.427	544
496.897	538
497.368	549
497.838	537
498.308	548
498.779	550
499.249	550
499.719	551
500.19	562
500.66	561
501.131	568
501.602	578
502.072	573
502.543	595
503.014	606
503.484	603
503.955	614
504.426	641
504.897	646
505.368	654
505.838	664
506.309	676
506.78	711
507.251	721
507.722	731
508.194	755
508.665	767
509.136	762
509.607	784
510.078	802
510.549	811
511.021	823
511.492	819
511.964	834
512.435	849
512.906	840
513.378	856
513.849	874
514.321	867
514.793	870
515.264	887
515.736	893
516.208	901
516.679	910
517.151	926
517.623	937
518.095	944
518.567	950
519.038	977
519.51	977
519.982	984
520.454	997
520.927	1019
521.399	1015
521.871	1024
522.343	1032
522.815	1053
523.287	1041
523.76	1055
524.232	1080
524.704	1093
525.177	1066
525.649	1077
526.122	1102
526.594	1070
527.067	1101
527.539	1115
528.012	1117
528.484	1103
528.957	1104
529.43	1106
529.903	1115
530.375	1139
530.848	1106
531.321	1126
531.794	1138
532.267	1144
532.74	1120
533.213	1125
533.686	1142
534.159	1132
534.632	1154
535.105	1157
535.578	1193
536.051	1186
536.525	1186
536.998	1196
537.471	1232
537.945	1202
538.418	1218
538.891	1237
539.365	1255
539.838	1260
540.312	1253
540.786	1264
541.259	1277
541.733	1288
542.206	1281
542.68	1267
543.154	1277
543.628	1273
544.101	1293
544.575	1301
545.049	1282
545.523	1305
545.997	1303
546.471	1311
546.945	1305
547.419	1319
547.893	1257
548.367	1288
548.842	1287
549.316	1291
549.79	1294
550.264	1289
550.739	1305
551.213	1313
551.687	1286
552.162	1296
552.636	1296
553.111	1294
553.585	1312
554.06	1291
554.534	1328
555.009	1316
555.484	1329
555.958	1329
556.433	1342
556.908	1370
557.383	1350
557.858	1381
558.333	1396
558.807	1390
559.282	1415
559.757	1442
560.232	1445
560.708	1422
561.183	1434
561.658	1440
562.133	1440
562.608	1431
563.083	1486
563.559	1452
564.034	1450
564.509	1456
564.985	1474
565.46	1454
565.936	1470
566.411	1462
566.887	1450
567.362	1468
567.838	1458
568.313	1463
568.789	1459
569.265	1464
569.74	1472
570.216	1456
570.692	1482
571.168	1476
571.644	1482
572.12	1462
572.596	1478
573.071	1467
573.547	1520
574.024	1532
574.5	1530
574.976	1542
575.452	1569
575.928	1587
576.404	1588
576.881	1633
577.357	1609
577.833	1634
578.31	1670
578.786	1687
579.262	1705
579.739	1703
580.215	1765
580.692	1757
581.169	1734
581.645	1743
582.122	1810
582.598	1804
583.075	1799
583.552	1806
584.029	1814
584.506	1821
584.982	1803
585.459	1829
585.936	1810
586.413	1844
586.89	1880
587.367	1852
587.844	1863
588.321	1851
588.799	1872
589.276	1849
589.753	1877
590.23	1870
590.707	1872
591.185	1880
591.662	1878
592.139	1889
592.617	1900
593.094	1898
593.572	1920
594.049	1935
594.527	1936
595.004	1930
595.482	1980
595.96	1983
596.437	1988
596.915	2017
597.393	1990
597.871	2047
598.349	2041
598.826	2078
599.304	2077
599.782	2108
600.26	2079
600.738	2143
601.216	2123
601.694	2136
602.173	2168
602.651	2202
603.129	2203
603.607	2219
604.085	2229
604.564	2217
605.042	2236
605.52	2235
605.999	2293
606.477	2236
606.956	2226
607.434	2248.5
607.913	2271
608.391	2262
608.87	2241
609.348	2200
609.827	2218
610.306	2245
610.785	2245
611.263	2243
611.742	2238
612.221	2208
612.7	2253
613.179	2269
613.658	2235
614.137	2266
614.616	2288
615.095	2257
615.574	2277
616.053	2281
616.532	2251
617.011	2280
617.491	2311
617.97	2308
618.449	2317
618.928	2326
619.408	2313
619.887	2331
620.367	2352
620.846	2371
621.326	2355
621.805	2375
622.285	2382
622.764	2414
623.244	2414
623.724	2405
624.203	2414
624.683	2370
625.163	2437
625.643	2435
626.123	2413
626.602	2454
627.082	2391
627.562	2409
628.042	2480
628.522	2463
629.002	2456
629.482	2468
629.963	2488
630.443	2490
630.923	2510
631.403	2524
631.883	2494
632.364	2500
632.844	2487
633.324	2504
633.805	2522
634.285	2490
634.766	2476
635.246	2488
635.727	2507
636.207	2510
636.688	2486
637.168	2467
637.649	2438
638.13	2424
638.611	2448
639.091	2448
639.572	2424
640.053	2402
640.534	2433
641.015	2443
641.496	2405
641.977	2440
642.458	2410
642.939	2406
643.42	2426
643.901	2444
644.382	2459
644.863	2451
645.345	2446
645.826	2472
646.307	2491
646.788	2535
647.27	2493
647.751	2500
648.233	2526
648.714	2478
649.196	2564
649.677	2552
650.159	2544
650.64	2503
651.122	2538
651.603	2507
652.085	2550
652.567	2558
653.049	2517
653.53	2493
654.012	2517
654.494	2482
654.976	2510
655.458	2499
655.94	2485
656.422	2515
656.904	2497
657.386	2489
657.868	2505
658.35	2492
658.833	2499
659.315	2506
659.797	2479
660.279	2497
660.762	2525
661.244	2498
661.726	2465
662.209	2462
662.691	2459
663.174	2412
663.656	2430
664.139	2429
664.621	2399
665.104	2371
665.587	2398
666.069	2420
666.552	2421
667.035	2398
667.517	2395
668	2406
668.483	2397
668.966	2399
669.449	2400
669.932	2413
670.415	2433
670.898	2412
671.381	2405
671.864	2423
672.347	2401
672.83	2418
673.313	2427
673.797	2397
674.28	2433
674.763	2430
675.247	2447
675.73	2444
676.213	2470
676.697	2477
677.18	2471
677.664	2482
678.147	2488
678.631	2507
679.114	2523
679.598	2515
680.082	2527
680.565	2527
681.049	2536
681.533	2546
682.017	2572
682.5	2563
682.984	2574
683.468	2571
683.952	2546
684.436	2602
684.92	2565
685.404	2570
685.888	2586
686.372	2557
686.856	2560
687.341	2611
687.825	2602
688.309	2628
688.793	2624
689.278	2568
689.762	2597
690.246	2595
690.731	2602
691.215	2605
691.7	2523
692.184	2543
692.669	2544
693.153	2562
693.638	2543
694.122	2555
694.607	2581
695.092	2535
695.577	2560
696.061	2518
696.546	2534
697.031	2532
697.516	2554
698.001	2538
698.486	2505
698.971	2529
699.456	2493
699.941	2517
700.426	2524
700.911	2553
701.396	2520
701.881	2533
702.366	2525
702.852	2521
703.337	2566
703.822	2567
704.308	2550
704.793	2543
705.278	2528
705.764	2533
706.249	2534
706.735	2549
707.22	2577
707.706	2520
708.191	2544
708.677	2551
709.163	2540
709.648	2579
710.134	2618
710.62	2578
711.106	2566
711.592	2580
712.077	2568
712.563	2524
713.049	2536
713.535	2592
714.021	2568
714.507	2548
714.993	2511
715.479	2539
715.966	2519
716.452	2540
716.938	2556
717.424	2488
717.91	2526
718.397	2477
718.883	2447
719.369	2473
719.856	2454
720.342	2505
720.829	2471
721.315	2476
721.802	2462
722.288	2498
722.775	2422
723.262	2374
723.748	2495
724.235	2475
724.722	2497
725.208	2432
725.695	2433
726.182	2430
726.669	2421
727.156	2442
727.643	2406
728.13	2410
728.617	2374
729.104	2367
729.591	2339
730.078	2383
730.565	2393
731.052	2359
731.539	2354
732.027	2330
732.514	2305
733.001	2337
733.488	2338
733.976	2342
734.463	2329
734.951	2308
735.438	2330
735.926	2288
736.413	2320
736.901	2311
737.388	2353
737.876	2349
738.364	2335
738.851	2332
739.339	2336
739.827	2345
740.314	2304
740.802	2343
741.29	2367
741.778	2333
742.266	2335
742.754	2324
743.242	2342
743.73	2303
744.218	2320
744.706	2311
745.194	2342
745.682	2323
746.17	2326
746.659	2313
747.147	2263
747.635	2294
748.123	2307
748.612	2308
749.1	2289
749.589	2290
750.077	2275
750.566	2250
751.054	2277
751.543	2299
752.031	2253
752.52	2267
753.008	2208
753.497	2197
753.986	2182
754.474	2155
754.963	2168
755.452	2161
755.941	2154
756.43	2154
756.919	2144
757.408	2116
757.896	2123
758.385	2134
758.875	2121
759.364	2128
759.853	2141
760.342	2101
760.831	2138
761.32	2115
761.809	2087
762.299	2113
762.788	2137
763.277	2138
763.767	2129
764.256	2136
764.745	2092
765.235	2115
765.724	2064
766.214	2108
766.703	2120
767.193	2097
767.683	2114
768.172	2070
768.662	2078
769.152	2063
769.641	2077
770.131	2031
770.621	2073
771.111	2067
771.601	2083
772.09	2059
772.58	2017
773.07	2014
773.56	2019
774.05	1990
774.54	1997
775.031	1999
775.521	1991
776.011	1972
776.501	1988
776.991	1934
777.482	1944
777.972	1903
778.462	1918
778.953	1945
779.443	1941
779.933	1922
780.424	1898
780.914	1891
781.405	1885
781.895	1879
782.386	1884
782.877	1893
783.367	1870
783.858	1864
784.349	1852
784.839	1837
785.33	1834
785.821	1838
786.312	1838
786.803	1860
787.293	1866
787.784	1845
788.275	1818
788.766	1802
789.257	1828
789.748	1789
790.24	1788
790.731	1811
791.222	1804
791.713	1808
792.204	1801
792.696	1742
793.187	1749
793.678	1735
794.169	1700
794.661	1746
795.152	1741
795.644	1737
796.135	1734
796.627	1729
797.118	1704
797.61	1688
798.101	1682
798.593	1713
799.085	1697
799.576	1718
800.068	1702
800.56	1698
801.052	1635
801.544	1624
802.035	1628
802.527	1621
803.019	1623
803.511	1627
804.003	1625
804.495	1633
804.987	1625
805.479	1578
805.971	1591
806.464	1599
806.956	1567
807.448	1579
807.94	1590
808.433	1577
808.925	1561
809.417	1540
809.91	1522
810.402	1495
810.894	1511
811.387	1529
811.879	1510
812.372	1525
812.865	1507
813.357	1502
813.85	1482
814.342	1472
814.835	1478
815.328	1493
815.821	1486
816.313	1501
816.806	1516
817.299	1508
817.792	1516
818.285	1492
818.778	1514
819.271	1518
819.764	1493
820.257	1508
820.75	1512
821.243	1522
821.736	1510
822.229	1522
822.722	1507
823.216	1532
