Data from lamp4helium_zwak_dubbel_Subt2__132__732.txt Node

Date: Wed Apr 09 12:16:32 CEST 2025
User: fys-lab-0081
Spectrometer: S04999
Trigger mode: 0
Resolution mode: 1024 pixels
Integration Time (sec): 1.000000E-1
Scans to average: 1
Nonlinearity correction enabled: false
Boxcar width: 0
Baseline correction enabled: true
XAxis mode: Wavelengths
Number of Pixels in Spectrum: 1024
>>>>>Begin Spectral Data<<<<<
336.42	1
336.877	4
337.334	2
337.792	3
338.249	4
338.706	5
339.164	3
339.621	0
340.079	3
340.536	2
340.994	2
341.452	6
341.909	10
342.367	1
342.825	2
343.283	6
343.741	-1
344.198	5
344.656	-1
345.114	2
345.572	6
346.03	-1
346.488	2
346.947	2
347.405	5
347.863	1
348.321	1
348.779	7
349.238	2
349.696	1
350.154	0
350.613	4
351.071	5
351.53	10
351.988	5
352.447	5
352.905	-2
353.364	1
353.823	8
354.282	4
354.74	0
355.199	4
355.658	3
356.117	4
356.576	4
357.035	-3
357.494	0
357.953	6
358.412	6
358.871	5
359.33	2
359.789	0
360.249	3
360.708	8
361.167	3
361.626	7
362.086	3
362.545	7
363.005	3
363.464	2
363.924	3
364.383	1
364.843	7
365.303	6
365.762	12
366.222	7
366.682	11
367.142	4
367.601	7
368.061	5
368.521	11
368.981	7
369.441	13
369.901	9
370.361	7
370.821	5
371.282	8
371.742	11
372.202	10
372.662	9
373.123	5
373.583	8
374.043	13
374.504	11
374.964	9
375.425	7
375.885	9
376.346	10
376.806	18
377.267	10
377.728	14
378.188	13
378.649	7
379.11	10
379.571	9
380.032	14
380.493	13
380.954	21
381.414	18
381.876	15
382.337	14
382.798	15
383.259	15
383.72	17
384.181	14
384.642	15
385.104	22
385.565	18
386.026	24
386.488	21
386.949	21
387.411	21
387.872	25
388.334	22
388.795	25
389.257	24
389.719	26
390.181	24
390.642	28
391.104	20
391.566	27
392.028	30
392.49	29
392.952	33
393.414	32
393.876	34
394.338	29
394.8	30
395.262	24
395.724	35
396.186	32
396.648	35
397.111	34
397.573	37
398.035	36
398.498	37
398.96	43
399.423	35
399.885	39
400.348	42
400.81	44
401.273	37
401.736	37
402.198	47
402.661	50
403.124	41
403.587	50
404.049	50.5
404.512	51
404.975	50
405.438	52
405.901	53
406.364	52
406.827	51
407.29	53
407.754	51
408.217	49
408.68	53
409.143	58
409.607	60
410.07	54
410.533	52
410.997	54
411.46	60
411.924	59
412.387	64
412.851	57
413.314	58
413.778	63
414.242	62
414.705	68
415.169	71
415.633	70
416.097	63
416.561	72
417.024	70
417.488	67
417.952	74
418.416	66
418.88	63
419.344	67
419.809	71
420.273	71
420.737	74
421.201	69
421.665	76
422.13	76
422.594	80
423.059	81
423.523	79
423.987	76
424.452	88
424.916	82
425.381	88
425.846	88
426.31	97
426.775	94
427.24	94
427.704	96
428.169	92
428.634	101
429.099	98
429.564	98
430.029	97
430.494	96
430.959	96
431.424	95
431.889	98
432.354	105
432.819	99
433.284	106
433.75	104
434.215	110
434.68	108
435.146	105
435.611	115
436.077	119
436.542	118
437.008	123
437.473	122
437.939	128
438.404	128
438.87	132
439.336	131
439.801	132
440.267	136
440.733	138
441.199	135
441.665	142
442.131	146
442.596	133
443.062	141
443.529	151
443.995	150
444.461	148
444.927	158
445.393	150
445.859	165
446.325	165
446.792	182
447.258	181
447.724	190
448.191	191
448.657	192
449.124	193
449.59	201
450.057	208
450.523	210
450.99	218
451.457	218
451.923	216
452.39	214
452.857	230
453.324	221
453.791	221
454.257	228
454.724	228
455.191	227
455.658	227
456.125	236
456.592	227
457.059	237
457.527	237
457.994	250
458.461	243
458.928	248
459.396	254
459.863	256
460.33	261
460.798	265
461.265	269
461.732	266
462.2	275
462.668	272
463.135	276
463.603	264
464.07	282
464.538	269
465.006	281
465.474	274
465.941	270
466.409	275
466.877	270
467.345	275
467.813	269
468.281	276
468.749	280
469.217	278
469.685	284
470.153	289
470.621	292
471.09	290
471.558	300
472.026	299
472.494	307
472.963	307
473.431	318
473.9	328
474.368	338
474.837	339
475.305	347
475.774	348
476.242	362
476.711	366
477.18	375
477.648	367
478.117	378
478.586	380
479.055	372
479.524	381
479.993	381
480.462	380
480.93	378
481.399	375
481.869	378
482.338	377
482.807	383
483.276	382
483.745	382
484.214	388
484.684	390
485.153	392
485.622	395
486.092	402
486.561	396
487.031	414
487.5	422
487.97	419
488.439	429
488.909	438
489.378	459
489.848	464
490.318	475
490.787	498
491.257	500
491.727	505
492.197	518
492.667	513
493.137	521
493.607	529
494.077	531
494.547	519
495.017	522
495.487	539
495.957	544
496.427	544
496.897	539
497.368	547
497.838	539
498.308	552
498.779	552
499.249	553
499.719	560
500.19	566
500.66	564
501.131	570
501.602	579
502.072	577
502.543	589
503.014	602
503.484	605
503.955	613
504.426	627
504.897	635
505.368	650
505.838	665
506.309	675
506.78	702
507.251	715
507.722	725
508.194	749
508.665	764
509.136	756
509.607	784
510.078	800
510.549	805
511.021	826
511.492	823
511.964	840
512.435	854
512.906	840
513.378	854
513.849	869
514.321	861
514.793	870
515.264	886
515.736	892
516.208	905
516.679	915
517.151	935
517.623	938
518.095	945
518.567	954
519.038	976
519.51	977
519.982	986
520.454	1005
520.927	1016
521.399	1021
521.871	1025
522.343	1037
522.815	1053
523.287	1045
523.76	1053
524.232	1073
524.704	1080
525.177	1062
525.649	1069
526.122	1099
526.594	1071
527.067	1092
527.539	1111
528.012	1105
528.484	1106
528.957	1107
529.43	1104
529.903	1108
530.375	1134
530.848	1105
531.321	1121
531.794	1133
532.267	1149
532.74	1120
533.213	1127
533.686	1142
534.159	1128
534.632	1150
535.105	1160
535.578	1177
536.051	1182
536.525	1184
536.998	1190
537.471	1220
537.945	1198
538.418	1211
538.891	1227
539.365	1257
539.838	1256
540.312	1258
540.786	1266
541.259	1268
541.733	1286
542.206	1283
542.68	1267
543.154	1277
543.628	1274
544.101	1302
544.575	1299
545.049	1278
545.523	1293
545.997	1288
546.471	1297
546.945	1296
547.419	1309
547.893	1255
548.367	1283
548.842	1273
549.316	1276
549.79	1279
550.264	1275
550.739	1295
551.213	1294
551.687	1282
552.162	1294
552.636	1299
553.111	1295
553.585	1319
554.06	1295
554.534	1332
555.009	1321
555.484	1336
555.958	1335
556.433	1344
556.908	1372
557.383	1354
557.858	1376
558.333	1385
558.807	1382
559.282	1400
559.757	1431
560.232	1434
560.708	1419
561.183	1421
561.658	1429
562.133	1423
562.608	1425
563.083	1475
563.559	1435
564.034	1432
564.509	1452
564.985	1470
565.46	1458
565.936	1462
566.411	1453
566.887	1449
567.362	1474
567.838	1458
568.313	1462
568.789	1459
569.265	1470
569.74	1471
570.216	1445
570.692	1462
571.168	1464
571.644	1465
572.12	1452
572.596	1459
573.071	1449
573.547	1495
574.024	1508
574.5	1514
574.976	1519
575.452	1549
575.928	1569
576.404	1572
576.881	1622
577.357	1601
577.833	1631
578.31	1669
578.786	1689
579.262	1712
579.739	1704
580.215	1773
580.692	1766
581.169	1741
581.645	1757
582.122	1822
582.598	1810
583.075	1811
583.552	1812
584.029	1818
584.506	1819
584.982	1802
585.459	1818
585.936	1788
586.413	1832
586.89	1863
587.367	1830
587.844	1838
588.321	1821
588.799	1845
589.276	1832
589.753	1857
590.23	1861
590.707	1860
591.185	1874
591.662	1876
592.139	1890
592.617	1913
593.094	1910
593.572	1936
594.049	1951
594.527	1951
595.004	1936
595.482	1990
595.96	1996
596.437	2001
596.915	2034
597.393	2002
597.871	2070
598.349	2046
598.826	2082
599.304	2082
599.782	2118
600.26	2090
600.738	2141
601.216	2126
601.694	2125
602.173	2143
602.651	2186
603.129	2188
603.607	2204
604.085	2220
604.564	2212
605.042	2223
605.52	2233
605.999	2285
606.477	2221
606.956	2227
607.434	2252
607.913	2277
608.391	2271
608.87	2255
609.348	2221
609.827	2231
610.306	2267
610.785	2267
611.263	2260
611.742	2240
612.221	2216
612.7	2259
613.179	2261
613.658	2218
614.137	2247
614.616	2266
615.095	2231
615.574	2240
616.053	2242
616.532	2220
617.011	2245
617.491	2264
617.97	2267
618.449	2281
618.928	2299
619.408	2292
619.887	2319
620.367	2346
620.846	2362
621.326	2353
621.805	2384
622.285	2385
622.764	2425
623.244	2426
623.724	2421
624.203	2426
624.683	2388
625.163	2456
625.643	2453
626.123	2423
626.602	2467
627.082	2409
627.562	2421
628.042	2494
628.522	2469
629.002	2460
629.482	2455
629.963	2467
630.443	2452
630.923	2466
631.403	2482
631.883	2451
632.364	2469
632.844	2458
633.324	2473
633.805	2488
634.285	2449
634.766	2444
635.246	2456
635.727	2475
636.207	2475
636.688	2466
637.168	2457
637.649	2435
638.13	2423
638.611	2452
639.091	2446
639.572	2425
640.053	2417
640.534	2459
641.015	2468
641.496	2431
641.977	2464
642.458	2425
642.939	2418
643.42	2445
643.901	2457
644.382	2462
644.863	2455
645.345	2450
645.826	2458
646.307	2463
646.788	2503
647.27	2465
647.751	2472
648.233	2505
648.714	2450
649.196	2540
649.677	2525
650.159	2524
650.64	2483
651.122	2519
651.603	2488
652.085	2538
652.567	2554
653.049	2517
653.53	2506
654.012	2535
654.494	2496
654.976	2530
655.458	2526
655.94	2510
656.422	2536
656.904	2516
657.386	2502
657.868	2508
658.35	2506
658.833	2520
659.315	2507
659.797	2477
660.279	2494
660.762	2522
661.244	2496
661.726	2468
662.209	2450
662.691	2458
663.174	2411
663.656	2421
664.139	2413
664.621	2375
665.104	2352
665.587	2385
666.069	2403
666.552	2397
667.035	2372
667.517	2370
668	2378
668.483	2378
668.966	2379
669.449	2383
669.932	2397
670.415	2427
670.898	2412
671.381	2406
671.864	2426
672.347	2420
672.83	2429
673.313	2435
673.797	2405
674.28	2441
674.763	2438
675.247	2454
675.73	2456
676.213	2482
676.697	2493
677.18	2488
677.664	2495
678.147	2508
678.631	2518
679.114	2531
679.598	2515
680.082	2538
680.565	2540
681.049	2539
681.533	2554
682.017	2583
682.5	2565
682.984	2576
683.468	2569
683.952	2535
684.436	2594
684.92	2550
685.404	2556
685.888	2572
686.372	2551
686.856	2567
687.341	2615
687.825	2605
688.309	2621
688.793	2619
689.278	2574
689.762	2615
690.246	2606
690.731	2634
691.215	2632
691.7	2560
692.184	2582
692.669	2580
693.153	2593
693.638	2570
694.122	2583
694.607	2613
695.092	2563
695.577	2582
696.061	2546
696.546	2562
697.031	2546
697.516	2573
698.001	2551
698.486	2522
698.971	2563
699.456	2497
699.941	2512
700.426	2521
700.911	2540
701.396	2509
701.881	2519
702.366	2513
702.852	2512
703.337	2545
703.822	2541
704.308	2532
704.793	2527
705.278	2516
705.764	2521
706.249	2521
706.735	2538
707.22	2570
707.706	2531
708.191	2571
708.677	2567
709.163	2562
709.648	2601
710.134	2635
710.62	2608
711.106	2597
711.592	2616
712.077	2618
712.563	2560
713.049	2574
713.535	2632
714.021	2605
714.507	2580
714.993	2543
715.479	2575
715.966	2550
716.452	2571
716.938	2577
717.424	2496
717.91	2534
718.397	2494
718.883	2471
719.369	2483
719.856	2472
720.342	2504
720.829	2478
721.315	2487
721.802	2476
722.288	2502
722.775	2421
723.262	2376
723.748	2488
724.235	2467
724.722	2483
725.208	2425
725.695	2419
726.182	2428
726.669	2405
727.156	2441
727.643	2397
728.13	2396
728.617	2380
729.104	2375
729.591	2361
730.078	2392
730.565	2404
731.052	2370
731.539	2380
732.027	2356
732.514	2325
733.001	2362
733.488	2368
733.976	2373
734.463	2372
734.951	2358
735.438	2376
735.926	2343
736.413	2363
736.901	2356
737.388	2408
737.876	2398
738.364	2372
738.851	2369
739.339	2362
739.827	2376
740.314	2321
740.802	2362
741.29	2383
741.778	2344
742.266	2333
742.754	2322
743.242	2338
743.73	2293
744.218	2298
744.706	2280
745.194	2321
745.682	2302
746.17	2307
746.659	2296
747.147	2242
747.635	2281
748.123	2300
748.612	2284
749.1	2264
749.589	2269
750.077	2245
750.566	2239
751.054	2263
751.543	2298
752.031	2260
752.52	2277
753.008	2216
753.497	2210
753.986	2198
754.474	2185
754.963	2203
755.452	2183
755.941	2186
756.43	2186
756.919	2176
757.408	2146
757.896	2149
758.385	2157
758.875	2157
759.364	2157
759.853	2156
760.342	2130
760.831	2166
761.32	2145
761.809	2106
762.299	2118
762.788	2142
763.277	2137
763.767	2121
764.256	2119
764.745	2079
765.235	2110
765.724	2056
766.214	2102
766.703	2102
767.193	2079
767.683	2097
768.172	2059
768.662	2062
769.152	2053
769.641	2060
770.131	2027
770.621	2071
771.111	2058
771.601	2080
772.09	2061
772.58	2015
773.07	2010
773.56	2021
774.05	1994
774.54	2001
775.031	2000
775.521	2003
776.011	1983
776.501	2002
776.991	1947
777.482	1967
777.972	1928
778.462	1952
778.953	1984
779.443	1973
779.933	1963
780.424	1926
780.914	1930
781.405	1931
781.895	1924
782.386	1938
782.877	1939
783.367	1909
783.858	1896
784.349	1897
784.839	1876
785.33	1862
785.821	1850
786.312	1844
786.803	1852
787.293	1871
787.784	1851
788.275	1821
788.766	1801
789.257	1820
789.748	1788
790.24	1787
790.731	1817
791.222	1805
791.713	1807
792.204	1807
792.696	1755
793.187	1759
793.678	1742
794.169	1707
794.661	1765
795.152	1753
795.644	1751
796.135	1755
796.627	1744
797.118	1714
797.61	1694
798.101	1690
798.593	1718
799.085	1707
799.576	1727
800.068	1713
800.56	1716
801.052	1655
801.544	1646
802.035	1651
802.527	1636
803.019	1645
803.511	1640
804.003	1647
804.495	1658
804.987	1632
805.479	1586
805.971	1597
806.464	1609
806.956	1577
807.448	1590
807.94	1595
808.433	1596
808.925	1577
809.417	1551
809.91	1534
810.402	1495
810.894	1515
811.387	1530
811.879	1515
812.372	1523
812.865	1503
813.357	1492
813.85	1473
814.342	1459
814.835	1458
815.328	1467
815.821	1469
816.313	1491
816.806	1502
817.299	1497
817.792	1507
818.285	1480
818.778	1496
819.271	1499
819.764	1477
820.257	1491
820.75	1497
821.243	1507
821.736	1496
822.229	1502
822.722	1496
823.216	1526
