Data from lamp4helium_zwak_dubbel_Subt2__172__772.txt Node

Date: Wed Apr 09 12:16:37 CEST 2025
User: fys-lab-0081
Spectrometer: S04999
Trigger mode: 0
Resolution mode: 1024 pixels
Integration Time (sec): 1.000000E-1
Scans to average: 1
Nonlinearity correction enabled: false
Boxcar width: 0
Baseline correction enabled: true
XAxis mode: Wavelengths
Number of Pixels in Spectrum: 1024
>>>>>Begin Spectral Data<<<<<
336.42	1
336.877	5
337.334	3
337.792	1
338.249	2
338.706	2
339.164	3
339.621	4
340.079	4
340.536	4
340.994	3
341.452	2
341.909	10
342.367	3
342.825	-2
343.283	4
343.741	1
344.198	4
344.656	1
345.114	1
345.572	3
346.03	3
346.488	3
346.947	1
347.405	5
347.863	0
348.321	2
348.779	4
349.238	1
349.696	3
350.154	0
350.613	2
351.071	5
351.53	9
351.988	1
352.447	6
352.905	-3
353.364	1
353.823	5
354.282	1
354.74	-3
355.199	6
355.658	6
356.117	5
356.576	2
357.035	1
357.494	5
357.953	5
358.412	6
358.871	2
359.33	2
359.789	4
360.249	2
360.708	4
361.167	6
361.626	7
362.086	5
362.545	3
363.005	6
363.464	3
363.924	8
364.383	4
364.843	7
365.303	8
365.762	12
366.222	8
366.682	6
367.142	9
367.601	6
368.061	4
368.521	7
368.981	8
369.441	13
369.901	11
370.361	5
370.821	5
371.282	7
371.742	9
372.202	10
372.662	9
373.123	9
373.583	11
374.043	10
374.504	9
374.964	6
375.425	9
375.885	10
376.346	11
376.806	14
377.267	10
377.728	13
378.188	13
378.649	13
379.11	16
379.571	8
380.032	15
380.493	14
380.954	19
381.414	13
381.876	15
382.337	11
382.798	17
383.259	17
383.72	13
384.181	11
384.642	15
385.104	19
385.565	21
386.026	22
386.488	24
386.949	17
387.411	21
387.872	26
388.334	28
388.795	27
389.257	27
389.719	23
390.181	26
390.642	20
391.104	28
391.566	28
392.028	26
392.49	33
392.952	33
393.414	30
393.876	33
394.338	30
394.8	31
395.262	28
395.724	36
396.186	34
396.648	35
397.111	36
397.573	41
398.035	34
398.498	39
398.96	41
399.423	37
399.885	35
400.348	38
400.81	39
401.273	39
401.736	38
402.198	46
402.661	50
403.124	43
403.587	48
404.049	48.5
404.512	49
404.975	46
405.438	54
405.901	53
406.364	53
406.827	51
407.29	52
407.754	51
408.217	50
408.68	54
409.143	56
409.607	57
410.07	55
410.533	53
410.997	58
411.46	59
411.924	63
412.387	63
412.851	61
413.314	60
413.778	62
414.242	63
414.705	66
415.169	68
415.633	69
416.097	70
416.561	72
417.024	70
417.488	70
417.952	72
418.416	66
418.88	62
419.344	67
419.809	71
420.273	70
420.737	74
421.201	74
421.665	74
422.13	75
422.594	79
423.059	82
423.523	82
423.987	73
424.452	85
424.916	84
425.381	85
425.846	86
426.31	93
426.775	91
427.24	94
427.704	92
428.169	95
428.634	94
429.099	94
429.564	94
430.029	97
430.494	97
430.959	93
431.424	88
431.889	101
432.354	96
432.819	96
433.284	105
433.75	102
434.215	106
434.68	109
435.146	104
435.611	112
436.077	118
436.542	121
437.008	127
437.473	127
437.939	123
438.404	131
438.87	134
439.336	130
439.801	133
440.267	133
440.733	140
441.199	139
441.665	136
442.131	140
442.596	134
443.062	145
443.529	150
443.995	147
444.461	153
444.927	158
445.393	153
445.859	161
446.325	167
446.792	176
447.258	181
447.724	188
448.191	192
448.657	195
449.124	198
449.59	194
450.057	211
450.523	211
450.99	213
451.457	217
451.923	220
452.39	215
452.857	222
453.324	215
453.791	220
454.257	227
454.724	225
455.191	223
455.658	229
456.125	235
456.592	228
457.059	234
457.527	233
457.994	243
458.461	247
458.928	251
459.396	253
459.863	256
460.33	261
460.798	266
461.265	268
461.732	273
462.2	268
462.668	268
463.135	272
463.603	266
464.07	279
464.538	269
465.006	279
465.474	270
465.941	274
466.409	271
466.877	271
467.345	272
467.813	270
468.281	281
468.749	278
469.217	280
469.685	286
470.153	291
470.621	287
471.09	285
471.558	299
472.026	295
472.494	307
472.963	308
473.431	317
473.9	328
474.368	331
474.837	335
475.305	347
475.774	349
476.242	362
476.711	361
477.18	372
477.648	370
478.117	380
478.586	379
479.055	373
479.524	381
479.993	378
480.462	370
480.93	371
481.399	380
481.869	376
482.338	370
482.807	381
483.276	378
483.745	381
484.214	386
484.684	392
485.153	391
485.622	395
486.092	406
486.561	394
487.031	413
487.5	417
487.97	416
488.439	428
488.909	437
489.378	453
489.848	459
490.318	475
490.787	495
491.257	504
491.727	501
492.197	515
492.667	514
493.137	518
493.607	531
494.077	532
494.547	531
495.017	530
495.487	537
495.957	557
496.427	542
496.897	543
497.368	555
497.838	544
498.308	547
498.779	546
499.249	555
499.719	556
500.19	562
500.66	556
501.131	564
501.602	577
502.072	573
502.543	585
503.014	605
503.484	607
503.955	613
504.426	630
504.897	632
505.368	652
505.838	669
506.309	667
506.78	698
507.251	718
507.722	728
508.194	752
508.665	767
509.136	758
509.607	783
510.078	798
510.549	813
511.021	830
511.492	824
511.964	844
512.435	849
512.906	838
513.378	854
513.849	870
514.321	862
514.793	866
515.264	888
515.736	894
516.208	908
516.679	918
517.151	939
517.623	938
518.095	946
518.567	962
519.038	984
519.51	983
519.982	988
520.454	999
520.927	1021
521.399	1024
521.871	1028
522.343	1034
522.815	1058
523.287	1047
523.76	1054
524.232	1086
524.704	1092
525.177	1075
525.649	1075
526.122	1115
526.594	1082
527.067	1098
527.539	1111
528.012	1119
528.484	1110
528.957	1107
529.43	1117
529.903	1121
530.375	1142
530.848	1106
531.321	1131
531.794	1138
532.267	1156
532.74	1117
533.213	1131
533.686	1150
534.159	1136
534.632	1154
535.105	1169
535.578	1192
536.051	1183
536.525	1184
536.998	1195
537.471	1232
537.945	1202
538.418	1210
538.891	1229
539.365	1256
539.838	1266
540.312	1253
540.786	1267
541.259	1277
541.733	1282
542.206	1282
542.68	1272
543.154	1283
543.628	1271
544.101	1308
544.575	1309
545.049	1292
545.523	1307
545.997	1298
546.471	1315
546.945	1305
547.419	1317
547.893	1259
548.367	1297
548.842	1288
549.316	1286
549.79	1294
550.264	1287
550.739	1306
551.213	1306
551.687	1286
552.162	1304
552.636	1302
553.111	1296
553.585	1324
554.06	1295
554.534	1338
555.009	1332
555.484	1344
555.958	1342
556.433	1355
556.908	1377
557.383	1358
557.858	1386
558.333	1398
558.807	1396
559.282	1416
559.757	1451
560.232	1458
560.708	1438
561.183	1438
561.658	1441
562.133	1439
562.608	1429
563.083	1486
563.559	1456
564.034	1448
564.509	1462
564.985	1482
565.46	1464
565.936	1475
566.411	1467
566.887	1457
567.362	1473
567.838	1459
568.313	1471
568.789	1458
569.265	1460
569.74	1467
570.216	1447
570.692	1468
571.168	1467
571.644	1478
572.12	1465
572.596	1474
573.071	1473
573.547	1518
574.024	1531
574.5	1524
574.976	1536
575.452	1570
575.928	1587
576.404	1589
576.881	1629
577.357	1618
577.833	1641
578.31	1678
578.786	1688
579.262	1711
579.739	1710
580.215	1774
580.692	1774
581.169	1747
581.645	1760
582.122	1820
582.598	1813
583.075	1811
583.552	1817
584.029	1820
584.506	1823
584.982	1801
585.459	1836
585.936	1814
586.413	1843
586.89	1884
587.367	1844
587.844	1864
588.321	1852
588.799	1866
589.276	1854
589.753	1873
590.23	1874
590.707	1878
591.185	1883
591.662	1882
592.139	1896
592.617	1918
593.094	1916
593.572	1937
594.049	1947
594.527	1949
595.004	1936
595.482	1997
595.96	2008
596.437	2010
596.915	2044
597.393	2007
597.871	2068
598.349	2057
598.826	2096
599.304	2089
599.782	2128
600.26	2099
600.738	2157
601.216	2147
601.694	2160
602.173	2183
602.651	2224
603.129	2222
603.607	2240
604.085	2245
604.564	2237
605.042	2253
605.52	2257
605.999	2312
606.477	2252
606.956	2250
607.434	2271.5
607.913	2293
608.391	2282
608.87	2263
609.348	2218
609.827	2242
610.306	2272
610.785	2270
611.263	2265
611.742	2241
612.221	2222
612.7	2264
613.179	2277
613.658	2243
614.137	2265
614.616	2290
615.095	2249
615.574	2278
616.053	2274
616.532	2246
617.011	2281
617.491	2296
617.97	2307
618.449	2329
618.928	2336
619.408	2333
619.887	2361
620.367	2377
620.846	2396
621.326	2377
621.805	2407
622.285	2406
622.764	2437
623.244	2442
623.724	2431
624.203	2435
624.683	2390
625.163	2469
625.643	2463
626.123	2441
626.602	2474
627.082	2417
627.562	2436
628.042	2511
628.522	2494
629.002	2477
629.482	2496
629.963	2517
630.443	2515
630.923	2525
631.403	2544
631.883	2514
632.364	2523
632.844	2506
633.324	2524
633.805	2532
634.285	2493
634.766	2477
635.246	2501
635.727	2516
636.207	2520
636.688	2507
637.168	2494
637.649	2460
638.13	2445
638.611	2476
639.091	2465
639.572	2451
640.053	2430
640.534	2462
641.015	2480
641.496	2435
641.977	2471
642.458	2427
642.939	2426
643.42	2456
643.901	2467
644.382	2482
644.863	2468
645.345	2478
645.826	2489
646.307	2500
646.788	2544
647.27	2506
647.751	2518
648.233	2551
648.714	2495
649.196	2575
649.677	2567
650.159	2564
650.64	2523
651.122	2562
651.603	2524
652.085	2571
652.567	2587
653.049	2544
653.53	2527
654.012	2550
654.494	2518
654.976	2549
655.458	2544
655.94	2529
656.422	2562
656.904	2534
657.386	2529
657.868	2540
658.35	2525
658.833	2538
659.315	2537
659.797	2508
660.279	2520
660.762	2551
661.244	2522
661.726	2485
662.209	2476
662.691	2487
663.174	2433
663.656	2451
664.139	2455
664.621	2413
665.104	2405
665.587	2437
666.069	2455
666.552	2443
667.035	2417
667.517	2419
668	2428
668.483	2436
668.966	2432
669.449	2431
669.932	2436
670.415	2457
670.898	2436
671.381	2447
671.864	2451
672.347	2440
672.83	2445
673.313	2458
673.797	2423
674.28	2459
674.763	2454
675.247	2477
675.73	2471
676.213	2495
676.697	2510
677.18	2497
677.664	2503
678.147	2518
678.631	2529
679.114	2544
679.598	2524
680.082	2538
680.565	2543
681.049	2549
681.533	2564
682.017	2600
682.5	2590
682.984	2595
683.468	2593
683.952	2562
684.436	2619
684.92	2584
685.404	2591
685.888	2611
686.372	2595
686.856	2599
687.341	2649
687.825	2624
688.309	2648
688.793	2651
689.278	2598
689.762	2635
690.246	2619
690.731	2643
691.215	2638
691.7	2564
692.184	2577
692.669	2586
693.153	2600
693.638	2581
694.122	2598
694.607	2627
695.092	2582
695.577	2598
696.061	2552
696.546	2565
697.031	2550
697.516	2575
698.001	2553
698.486	2523
698.971	2545
699.456	2501
699.941	2519
700.426	2527
700.911	2553
701.396	2527
701.881	2542
702.366	2532
702.852	2541
703.337	2571
703.822	2561
704.308	2562
704.793	2563
705.278	2552
705.764	2560
706.249	2560
706.735	2574
707.22	2596
707.706	2559
708.191	2591
708.677	2574
709.163	2571
709.648	2613
710.134	2646
710.62	2616
711.106	2606
711.592	2633
712.077	2618
712.563	2569
713.049	2580
713.535	2638
714.021	2621
714.507	2597
714.993	2558
715.479	2592
715.966	2571
716.452	2587
716.938	2600
717.424	2521
717.91	2566
718.397	2520
718.883	2493
719.369	2511
719.856	2501
720.342	2534
720.829	2500
721.315	2513
721.802	2496
722.288	2523
722.775	2443
723.262	2395
723.748	2514
724.235	2496
724.722	2520
725.208	2455
725.695	2465
726.182	2459
726.669	2445
727.156	2464
727.643	2442
728.13	2442
728.617	2420
729.104	2410
729.591	2400
730.078	2436
730.565	2446
731.052	2399
731.539	2409
732.027	2385
732.514	2350
733.001	2389
733.488	2375
733.976	2390
734.463	2381
734.951	2362
735.438	2379
735.926	2341
736.413	2362
736.901	2353
737.388	2405
737.876	2393
738.364	2369
738.851	2388
739.339	2363
739.827	2386
740.314	2329
740.802	2361
741.29	2393
741.778	2364
742.266	2358
742.754	2351
743.242	2349
743.73	2315
744.218	2339
744.706	2328
745.194	2372
745.682	2340
746.17	2351
746.659	2335
747.147	2289
747.635	2327
748.123	2345
748.612	2340
749.1	2320
749.589	2328
750.077	2298
750.566	2282
751.054	2295
751.543	2326
752.031	2288
752.52	2301
753.008	2249
753.497	2235
753.986	2221
754.474	2198
754.963	2222
755.452	2207
755.941	2206
756.43	2193
756.919	2184
757.408	2155
757.896	2158
758.385	2163
758.875	2149
759.364	2154
759.853	2156
760.342	2104
760.831	2149
761.32	2125
761.809	2091
762.299	2113
762.788	2132
763.277	2138
763.767	2119
764.256	2119
764.745	2087
765.235	2113
765.724	2058
766.214	2105
766.703	2117
767.193	2102
767.683	2118
768.172	2071
768.662	2079
769.152	2071
769.641	2080
770.131	2037
770.621	2096
771.111	2077
771.601	2096
772.09	2074
772.58	2021
773.07	2019
773.56	2030
774.05	2010
774.54	2022
775.031	2025
775.521	2020
776.011	2012
776.501	2016
776.991	1964
777.482	1985
777.972	1947
778.462	1958
778.953	1986
779.443	1982
779.933	1967
780.424	1940
780.914	1941
781.405	1944
781.895	1928
782.386	1932
782.877	1935
783.367	1916
783.858	1896
784.349	1895
784.839	1877
785.33	1863
785.821	1855
786.312	1851
786.803	1875
787.293	1889
787.784	1869
788.275	1837
788.766	1820
789.257	1845
789.748	1810
790.24	1800
790.731	1822
791.222	1808
791.713	1812
792.204	1806
792.696	1745
793.187	1758
793.678	1743
794.169	1710
794.661	1769
795.152	1756
795.644	1746
796.135	1755
796.627	1750
797.118	1729
797.61	1708
798.101	1702
798.593	1739
799.085	1724
799.576	1735
800.068	1723
800.56	1720
801.052	1666
801.544	1649
802.035	1659
802.527	1648
803.019	1649
803.511	1659
804.003	1659
804.495	1666
804.987	1641
805.479	1595
805.971	1602
806.464	1616
806.956	1587
807.448	1599
807.94	1600
808.433	1600
808.925	1580
809.417	1562
809.91	1543
810.402	1509
810.894	1528
811.387	1543
811.879	1535
812.372	1542
812.865	1525
813.357	1518
813.85	1500
814.342	1489
814.835	1489
815.328	1507
815.821	1501
816.313	1520
816.806	1529
817.299	1516
817.792	1526
818.285	1496
818.778	1511
819.271	1520
819.764	1500
820.257	1511
820.75	1513
821.243	1527
821.736	1515
822.229	1525
822.722	1516
823.216	1543
