Data from lamp4helium_zwak_dubbel_Subt2__199__799.txt Node

Date: Wed Apr 09 12:16:40 CEST 2025
User: fys-lab-0081
Spectrometer: S04999
Trigger mode: 0
Resolution mode: 1024 pixels
Integration Time (sec): 1.000000E-1
Scans to average: 1
Nonlinearity correction enabled: false
Boxcar width: 0
Baseline correction enabled: true
XAxis mode: Wavelengths
Number of Pixels in Spectrum: 1024
>>>>>Begin Spectral Data<<<<<
336.42	-4
336.877	4
337.334	4
337.792	6
338.249	1
338.706	3
339.164	0
339.621	10
340.079	6
340.536	0
340.994	1
341.452	6
341.909	10
342.367	2
342.825	0
343.283	4
343.741	3
344.198	6
344.656	0
345.114	0
345.572	10
346.03	5
346.488	5
346.947	3
347.405	3
347.863	0
348.321	1
348.779	7
349.238	-1
349.696	3
350.154	5
350.613	5
351.071	4
351.53	10
351.988	7
352.447	1
352.905	-1
353.364	4
353.823	6
354.282	-2
354.74	3
355.199	6
355.658	7
356.117	4
356.576	5
357.035	0
357.494	5
357.953	8
358.412	2
358.871	2
359.33	4
359.789	4
360.249	5
360.708	5
361.167	5
361.626	7
362.086	6
362.545	3
363.005	6
363.464	4
363.924	7
364.383	6
364.843	8
365.303	10
365.762	12
366.222	9
366.682	4
367.142	6
367.601	7
368.061	10
368.521	7
368.981	6
369.441	11
369.901	12
370.361	8
370.821	4
371.282	7
371.742	11
372.202	11
372.662	12
373.123	4
373.583	9
374.043	15
374.504	7
374.964	8
375.425	11
375.885	12
376.346	18
376.806	13
377.267	10
377.728	15
378.188	16
378.649	16
379.11	15
379.571	9
380.032	15
380.493	17
380.954	16
381.414	14
381.876	13
382.337	13
382.798	19
383.259	17
383.72	15
384.181	17
384.642	15
385.104	19
385.565	21
386.026	26
386.488	23
386.949	23
387.411	22
387.872	23
388.334	25
388.795	30
389.257	28
389.719	23
390.181	23
390.642	24
391.104	30
391.566	31
392.028	30
392.49	37
392.952	33
393.414	33
393.876	36
394.338	31
394.8	31
395.262	29
395.724	34
396.186	36
396.648	37
397.111	35
397.573	39
398.035	33
398.498	37
398.96	39
399.423	36
399.885	38
400.348	39
400.81	38
401.273	38
401.736	38
402.198	48
402.661	45
403.124	37
403.587	52
404.049	49.5
404.512	47
404.975	46
405.438	50
405.901	54
406.364	50
406.827	50
407.29	51
407.754	52
408.217	50
408.68	53
409.143	58
409.607	59
410.07	57
410.533	56
410.997	56
411.46	56
411.924	61
412.387	64
412.851	60
413.314	64
413.778	61
414.242	62
414.705	73
415.169	61
415.633	63
416.097	65
416.561	67
417.024	72
417.488	73
417.952	69
418.416	65
418.88	65
419.344	63
419.809	69
420.273	72
420.737	70
421.201	75
421.665	78
422.13	76
422.594	85
423.059	78
423.523	81
423.987	75
424.452	84
424.916	81
425.381	89
425.846	85
426.31	91
426.775	93
427.24	94
427.704	91
428.169	93
428.634	98
429.099	99
429.564	95
430.029	94
430.494	94
430.959	92
431.424	94
431.889	103
432.354	100
432.819	94
433.284	106
433.75	102
434.215	108
434.68	101
435.146	103
435.611	114
436.077	122
436.542	115
437.008	126
437.473	128
437.939	126
438.404	133
438.87	131
439.336	130
439.801	137
440.267	136
440.733	138
441.199	136
441.665	135
442.131	143
442.596	134
443.062	141
443.529	151
443.995	149
444.461	151
444.927	156
445.393	151
445.859	165
446.325	167
446.792	180
447.258	176
447.724	182
448.191	191
448.657	191
449.124	194
449.59	195
450.057	209
450.523	213
450.99	215
451.457	213
451.923	216
452.39	218
452.857	222
453.324	220
453.791	224
454.257	226
454.724	231
455.191	224
455.658	225
456.125	231
456.592	234
457.059	236
457.527	234
457.994	245
458.461	246
458.928	254
459.396	248
459.863	260
460.33	256
460.798	266
461.265	271
461.732	265
462.2	273
462.668	271
463.135	270
463.603	266
464.07	281
464.538	266
465.006	273
465.474	274
465.941	271
466.409	275
466.877	268
467.345	272
467.813	268
468.281	281
468.749	281
469.217	278
469.685	286
470.153	293
470.621	291
471.09	289
471.558	297
472.026	301
472.494	308
472.963	310
473.431	319
473.9	326
474.368	340
474.837	335
475.305	341
475.774	343
476.242	360
476.711	364
477.18	376
477.648	369
478.117	376
478.586	376
479.055	370
479.524	379
479.993	378
480.462	372
480.93	372
481.399	379
481.869	379
482.338	371
482.807	378
483.276	379
483.745	380
484.214	387
484.684	395
485.153	393
485.622	395
486.092	406
486.561	397
487.031	417
487.5	419
487.97	416
488.439	423
488.909	435
489.378	456
489.848	457
490.318	474
490.787	495
491.257	497
491.727	504
492.197	511
492.667	516
493.137	516
493.607	528
494.077	537
494.547	526
495.017	526
495.487	539
495.957	550
496.427	538
496.897	542
497.368	552
497.838	538
498.308	543
498.779	542
499.249	548
499.719	557
500.19	558
500.66	561
501.131	565
501.602	574
502.072	579
502.543	592
503.014	605
503.484	603
503.955	611
504.426	633
504.897	643
505.368	655
505.838	660
506.309	675
506.78	707
507.251	718
507.722	727
508.194	751
508.665	769
509.136	757
509.607	783
510.078	800
510.549	806
511.021	830
511.492	829
511.964	844
512.435	848
512.906	837
513.378	857
513.849	869
514.321	866
514.793	868
515.264	885
515.736	895
516.208	908
516.679	911
517.151	927
517.623	934
518.095	941
518.567	954
519.038	982
519.51	983
519.982	985
520.454	1004
520.927	1019
521.399	1022
521.871	1027
522.343	1035
522.815	1056
523.287	1049
523.76	1056
524.232	1077
524.704	1084
525.177	1066
525.649	1079
526.122	1112
526.594	1083
527.067	1095
527.539	1113
528.012	1112
528.484	1104
528.957	1113
529.43	1115
529.903	1117
530.375	1139
530.848	1107
531.321	1127
531.794	1132
532.267	1151
532.74	1122
533.213	1129
533.686	1145
534.159	1129
534.632	1158
535.105	1169
535.578	1190
536.051	1184
536.525	1181
536.998	1196
537.471	1224
537.945	1202
538.418	1219
538.891	1233
539.365	1270
539.838	1257
540.312	1256
540.786	1264
541.259	1276
541.733	1285
542.206	1282
542.68	1264
543.154	1271
543.628	1279
544.101	1294
544.575	1296
545.049	1280
545.523	1304
545.997	1292
546.471	1305
546.945	1298
547.419	1316
547.893	1253
548.367	1286
548.842	1286
549.316	1289
549.79	1295
550.264	1290
550.739	1305
551.213	1309
551.687	1290
552.162	1304
552.636	1302
553.111	1298
553.585	1320
554.06	1296
554.534	1330
555.009	1318
555.484	1331
555.958	1329
556.433	1340
556.908	1370
557.383	1351
557.858	1390
558.333	1394
558.807	1391
559.282	1411
559.757	1442
560.232	1432
560.708	1424
561.183	1434
561.658	1435
562.133	1439
562.608	1431
563.083	1484
563.559	1444
564.034	1440
564.509	1459
564.985	1469
565.46	1451
565.936	1466
566.411	1456
566.887	1443
567.362	1469
567.838	1446
568.313	1463
568.789	1456
569.265	1465
569.74	1465
570.216	1446
570.692	1469
571.168	1476
571.644	1482
572.12	1462
572.596	1466
573.071	1468
573.547	1509
574.024	1529
574.5	1528
574.976	1536
575.452	1571
575.928	1594
576.404	1588
576.881	1631
577.357	1608
577.833	1634
578.31	1671
578.786	1687
579.262	1699
579.739	1703
580.215	1760
580.692	1757
581.169	1738
581.645	1758
582.122	1810
582.598	1800
583.075	1797
583.552	1803
584.029	1809
584.506	1817
584.982	1802
585.459	1838
585.936	1807
586.413	1836
586.89	1880
587.367	1847
587.844	1860
588.321	1848
588.799	1864
589.276	1856
589.753	1874
590.23	1868
590.707	1862
591.185	1874
591.662	1885
592.139	1885
592.617	1901
593.094	1892
593.572	1912
594.049	1932
594.527	1932
595.004	1914
595.482	1973
595.96	1978
596.437	1978
596.915	2015
597.393	1989
597.871	2042
598.349	2033
598.826	2075
599.304	2066
599.782	2111
600.26	2089
600.738	2143
601.216	2129
601.694	2135
602.173	2150
602.651	2195
603.129	2202
603.607	2222
604.085	2224
604.564	2224
605.042	2243
605.52	2243
605.999	2290
606.477	2232
606.956	2232
607.434	2253.5
607.913	2275
608.391	2265
608.87	2251
609.348	2207
609.827	2226
610.306	2249
610.785	2256
611.263	2248
611.742	2237
612.221	2210
612.7	2262
613.179	2267
613.658	2231
614.137	2255
614.616	2283
615.095	2252
615.574	2280
616.053	2279
616.532	2254
617.011	2282
617.491	2297
617.97	2305
618.449	2312
618.928	2329
619.408	2319
619.887	2337
620.367	2350
620.846	2367
621.326	2350
621.805	2376
622.285	2379
622.764	2405
623.244	2413
623.724	2404
624.203	2414
624.683	2367
625.163	2432
625.643	2432
626.123	2406
626.602	2451
627.082	2396
627.562	2417
628.042	2485
628.522	2459
629.002	2459
629.482	2465
629.963	2494
630.443	2485
630.923	2495
631.403	2505
631.883	2481
632.364	2496
632.844	2481
633.324	2505
633.805	2509
634.285	2476
634.766	2461
635.246	2479
635.727	2502
636.207	2497
636.688	2478
637.168	2461
637.649	2427
638.13	2415
638.611	2441
639.091	2439
639.572	2422
640.053	2395
640.534	2435
641.015	2445
641.496	2400
641.977	2447
642.458	2407
642.939	2406
643.42	2421
643.901	2444
644.382	2461
644.863	2447
645.345	2457
645.826	2467
646.307	2487
646.788	2532
647.27	2489
647.751	2496
648.233	2519
648.714	2478
649.196	2555
649.677	2541
650.159	2527
650.64	2500
651.122	2540
651.603	2500
652.085	2552
652.567	2549
653.049	2514
653.53	2490
654.012	2520
654.494	2483
654.976	2505
655.458	2503
655.94	2483
656.422	2512
656.904	2497
657.386	2482
657.868	2506
658.35	2484
658.833	2504
659.315	2508
659.797	2476
660.279	2492
660.762	2516
661.244	2496
661.726	2461
662.209	2455
662.691	2455
663.174	2408
663.656	2430
664.139	2417
664.621	2391
665.104	2365
665.587	2399
666.069	2419
666.552	2413
667.035	2392
667.517	2390
668	2401
668.483	2397
668.966	2392
669.449	2396
669.932	2401
670.415	2428
670.898	2400
671.381	2401
671.864	2416
672.347	2400
672.83	2410
673.313	2413
673.797	2388
674.28	2434
674.763	2425
675.247	2447
675.73	2443
676.213	2458
676.697	2476
677.18	2471
677.664	2481
678.147	2494
678.631	2504
679.114	2515
679.598	2508
680.082	2535
680.565	2528
681.049	2535
681.533	2539
682.017	2578
682.5	2568
682.984	2575
683.468	2575
683.952	2538
684.436	2595
684.92	2567
685.404	2569
685.888	2580
686.372	2562
686.856	2568
687.341	2618
687.825	2604
688.309	2624
688.793	2614
689.278	2564
689.762	2601
690.246	2591
690.731	2602
691.215	2607
691.7	2522
692.184	2544
692.669	2538
693.153	2558
693.638	2535
694.122	2554
694.607	2579
695.092	2535
695.577	2555
696.061	2515
696.546	2522
697.031	2509
697.516	2543
698.001	2533
698.486	2494
698.971	2524
699.456	2482
699.941	2510
700.426	2523
700.911	2539
701.396	2513
701.881	2523
702.366	2518
702.852	2528
703.337	2561
703.822	2559
704.308	2542
704.793	2544
705.278	2529
705.764	2527
706.249	2530
706.735	2550
707.22	2577
707.706	2526
708.191	2551
708.677	2543
709.163	2548
709.648	2590
710.134	2617
710.62	2588
711.106	2572
711.592	2592
712.077	2576
712.563	2518
713.049	2533
713.535	2596
714.021	2570
714.507	2543
714.993	2507
715.479	2527
715.966	2514
716.452	2538
716.938	2552
717.424	2477
717.91	2519
718.397	2466
718.883	2441
719.369	2449
719.856	2447
720.342	2494
720.829	2462
721.315	2463
721.802	2457
722.288	2485
722.775	2422
723.262	2369
723.748	2484
724.235	2474
724.722	2497
725.208	2423
725.695	2432
726.182	2429
726.669	2405
727.156	2445
727.643	2408
728.13	2403
728.617	2372
729.104	2372
729.591	2345
730.078	2386
730.565	2393
731.052	2356
731.539	2363
732.027	2335
732.514	2299
733.001	2330
733.488	2326
733.976	2338
734.463	2330
734.951	2305
735.438	2315
735.926	2281
736.413	2304
736.901	2295
737.388	2348
737.876	2349
738.364	2324
738.851	2332
739.339	2319
739.827	2348
740.314	2291
740.802	2338
741.29	2368
741.778	2333
742.266	2330
742.754	2323
743.242	2340
743.73	2303
744.218	2318
744.706	2305
745.194	2339
745.682	2322
746.17	2323
746.659	2305
747.147	2258
747.635	2283
748.123	2309
748.612	2301
749.1	2283
749.589	2285
750.077	2268
750.566	2247
751.054	2270
751.543	2292
752.031	2254
752.52	2259
753.008	2195
753.497	2196
753.986	2182
754.474	2160
754.963	2169
755.452	2157
755.941	2158
756.43	2170
756.919	2145
757.408	2119
757.896	2123
758.385	2126
758.875	2132
759.364	2126
759.853	2130
760.342	2094
760.831	2137
761.32	2110
761.809	2082
762.299	2102
762.788	2118
763.277	2128
763.767	2115
764.256	2118
764.745	2080
765.235	2108
765.724	2057
766.214	2103
766.703	2107
767.193	2097
767.683	2111
768.172	2067
768.662	2069
769.152	2060
769.641	2074
770.131	2036
770.621	2073
771.111	2058
771.601	2081
772.09	2063
772.58	2013
773.07	2007
773.56	2014
774.05	1988
774.54	1993
775.031	1980
775.521	1979
776.011	1971
776.501	1978
776.991	1927
777.482	1932
777.972	1900
778.462	1913
778.953	1940
779.443	1937
779.933	1922
780.424	1892
780.914	1896
781.405	1882
781.895	1879
782.386	1887
782.877	1885
783.367	1872
783.858	1859
784.349	1850
784.839	1833
785.33	1836
785.821	1818
786.312	1821
786.803	1851
787.293	1861
787.784	1842
788.275	1818
788.766	1789
789.257	1825
789.748	1782
790.24	1778
790.731	1803
791.222	1791
791.713	1803
792.204	1798
792.696	1738
793.187	1747
793.678	1727
794.169	1694
794.661	1740
795.152	1732
795.644	1730
796.135	1738
796.627	1728
797.118	1707
797.61	1684
798.101	1675
798.593	1710
799.085	1699
799.576	1719
800.068	1700
800.56	1692
801.052	1634
801.544	1626
802.035	1634
802.527	1623
803.019	1623
803.511	1625
804.003	1628
804.495	1639
804.987	1617
805.479	1573
805.971	1586
806.464	1593
806.956	1562
807.448	1573
807.94	1585
808.433	1578
808.925	1563
809.417	1544
809.91	1522
810.402	1486
810.894	1506
811.387	1519
811.879	1508
812.372	1524
812.865	1506
813.357	1492
813.85	1483
814.342	1468
814.835	1473
815.328	1479
815.821	1478
816.313	1497
816.806	1512
817.299	1502
817.792	1516
818.285	1492
818.778	1507
819.271	1510
819.764	1490
820.257	1504
820.75	1505
821.243	1515
821.736	1499
822.229	1513
822.722	1506
823.216	1532
