Data from lamp4helium_zwak_dubbel_Subt2__111__711.txt Node

Date: Wed Apr 09 12:16:29 CEST 2025
User: fys-lab-0081
Spectrometer: S04999
Trigger mode: 0
Resolution mode: 1024 pixels
Integration Time (sec): 1.000000E-1
Scans to average: 1
Nonlinearity correction enabled: false
Boxcar width: 0
Baseline correction enabled: true
XAxis mode: Wavelengths
Number of Pixels in Spectrum: 1024
>>>>>Begin Spectral Data<<<<<
336.42	0
336.877	4
337.334	-2
337.792	2
338.249	3
338.706	4
339.164	2
339.621	7
340.079	4
340.536	3
340.994	5
341.452	6
341.909	10
342.367	0
342.825	-2
343.283	7
343.741	3
344.198	1
344.656	-1
345.114	-1
345.572	3
346.03	5
346.488	4
346.947	-2
347.405	4
347.863	2
348.321	-1
348.779	4
349.238	2
349.696	4
350.154	0
350.613	4
351.071	2
351.53	5
351.988	5
352.447	-3
352.905	-2
353.364	4
353.823	5
354.282	3
354.74	1
355.199	5
355.658	6
356.117	2
356.576	4
357.035	-1
357.494	1
357.953	2
358.412	5
358.871	1
359.33	3
359.789	3
360.249	3
360.708	4
361.167	4
361.626	3
362.086	6
362.545	6
363.005	4
363.464	1
363.924	6
364.383	2
364.843	7
365.303	8
365.762	11
366.222	8
366.682	8
367.142	6
367.601	5
368.061	9
368.521	6
368.981	8
369.441	8
369.901	14
370.361	7
370.821	7
371.282	6
371.742	12
372.202	11
372.662	12
373.123	4
373.583	12
374.043	13
374.504	7
374.964	6
375.425	10
375.885	10
376.346	14
376.806	15
377.267	4
377.728	17
378.188	15
378.649	11
379.11	14
379.571	8
380.032	10
380.493	12
380.954	18
381.414	15
381.876	13
382.337	12
382.798	18
383.259	14
383.72	17
384.181	13
384.642	16
385.104	20
385.565	19
386.026	26
386.488	25
386.949	21
387.411	23
387.872	23
388.334	24
388.795	26
389.257	26
389.719	19
390.181	27
390.642	28
391.104	27
391.566	29
392.028	29
392.49	34
392.952	35
393.414	32
393.876	34
394.338	28
394.8	34
395.262	30
395.724	39
396.186	35
396.648	34
397.111	39
397.573	37
398.035	36
398.498	39
398.96	40
399.423	38
399.885	39
400.348	38
400.81	38
401.273	43
401.736	40
402.198	47
402.661	47
403.124	42
403.587	49
404.049	46.5
404.512	44
404.975	49
405.438	52
405.901	57
406.364	58
406.827	49
407.29	55
407.754	52
408.217	56
408.68	55
409.143	56
409.607	58
410.07	63
410.533	55
410.997	56
411.46	57
411.924	65
412.387	66
412.851	60
413.314	56
413.778	62
414.242	66
414.705	69
415.169	70
415.633	66
416.097	66
416.561	69
417.024	73
417.488	72
417.952	75
418.416	68
418.88	65
419.344	66
419.809	69
420.273	74
420.737	68
421.201	75
421.665	75
422.13	80
422.594	81
423.059	76
423.523	84
423.987	79
424.452	85
424.916	83
425.381	91
425.846	87
426.31	96
426.775	98
427.24	96
427.704	95
428.169	97
428.634	101
429.099	98
429.564	101
430.029	94
430.494	100
430.959	98
431.424	98
431.889	105
432.354	106
432.819	99
433.284	110
433.75	95
434.215	112
434.68	109
435.146	108
435.611	115
436.077	119
436.542	115
437.008	130
437.473	131
437.939	130
438.404	131
438.87	133
439.336	135
439.801	136
440.267	136
440.733	143
441.199	142
441.665	140
442.131	146
442.596	140
443.062	146
443.529	157
443.995	150
444.461	153
444.927	159
445.393	152
445.859	162
446.325	174
446.792	184
447.258	180
447.724	188
448.191	194
448.657	197
449.124	201
449.59	201
450.057	214
450.523	214
450.99	222
451.457	218
451.923	224
452.39	219
452.857	228
453.324	220
453.791	227
454.257	233
454.724	235
455.191	229
455.658	233
456.125	242
456.592	236
457.059	242
457.527	239
457.994	253
458.461	251
458.928	256
459.396	262
459.863	264
460.33	264
460.798	268
461.265	271
461.732	272
462.2	280
462.668	277
463.135	281
463.603	271
464.07	290
464.538	276
465.006	289
465.474	279
465.941	280
466.409	280
466.877	274
467.345	279
467.813	277
468.281	286
468.749	285
469.217	284
469.685	288
470.153	293
470.621	291
471.09	295
471.558	301
472.026	305
472.494	317
472.963	320
473.431	322
473.9	326
474.368	343
474.837	346
475.305	355
475.774	355
476.242	362
476.711	369
477.18	385
477.648	376
478.117	391
478.586	385
479.055	381
479.524	392
479.993	384
480.462	379
480.93	384
481.399	394
481.869	389
482.338	382
482.807	393
483.276	396
483.745	388
484.214	401
484.684	399
485.153	401
485.622	410
486.092	418
486.561	405
487.031	421
487.5	426
487.97	422
488.439	435
488.909	444
489.378	461
489.848	468
490.318	484
490.787	509
491.257	507
491.727	514
492.197	531
492.667	531
493.137	536
493.607	547
494.077	549
494.547	544
495.017	539
495.487	555
495.957	561
496.427	550
496.897	550
497.368	562
497.838	549
498.308	554
498.779	558
499.249	563
499.719	563
500.19	574
500.66	573
501.131	577
501.602	590
502.072	588
502.543	604
503.014	619
503.484	620
503.955	628
504.426	650
504.897	653
505.368	666
505.838	674
506.309	682
506.78	713
507.251	726
507.722	738
508.194	762
508.665	776
509.136	769
509.607	799
510.078	818
510.549	830
511.021	843
511.492	843
511.964	859
512.435	873
512.906	862
513.378	876
513.849	900
514.321	883
514.793	886
515.264	907
515.736	906
516.208	920
516.679	929
517.151	942
517.623	949
518.095	958
518.567	968
519.038	993
519.51	991
519.982	1000
520.454	1018
520.927	1040
521.399	1042
521.871	1045
522.343	1058
522.815	1081
523.287	1071
523.76	1078
524.232	1104
524.704	1111
525.177	1089
525.649	1095
526.122	1120
526.594	1096
527.067	1110
527.539	1120
528.012	1128
528.484	1124
528.957	1124
529.43	1126
529.903	1130
530.375	1164
530.848	1132
531.321	1149
531.794	1156
532.267	1174
532.74	1151
533.213	1151
533.686	1173
534.159	1151
534.632	1176
535.105	1193
535.578	1210
536.051	1202
536.525	1201
536.998	1214
537.471	1241
537.945	1215
538.418	1228
538.891	1244
539.365	1277
539.838	1271
540.312	1275
540.786	1282
541.259	1295
541.733	1306
542.206	1304
542.68	1293
543.154	1303
543.628	1305
544.101	1339
544.575	1333
545.049	1306
545.523	1337
545.997	1320
546.471	1331
546.945	1328
547.419	1342
547.893	1272
548.367	1303
548.842	1302
549.316	1299
549.79	1309
550.264	1298
550.739	1321
551.213	1319
551.687	1296
552.162	1314
552.636	1326
553.111	1318
553.585	1341
554.06	1318
554.534	1364
555.009	1355
555.484	1363
555.958	1364
556.433	1382
556.908	1407
557.383	1387
557.858	1413
558.333	1427
558.807	1414
559.282	1436
559.757	1470
560.232	1458
560.708	1443
561.183	1444
561.658	1456
562.133	1453
562.608	1445
563.083	1498
563.559	1462
564.034	1454
564.509	1471
564.985	1490
565.46	1483
565.936	1498
566.411	1487
566.887	1478
567.362	1502
567.838	1485
568.313	1499
568.789	1483
569.265	1495
569.74	1499
570.216	1478
570.692	1494
571.168	1498
571.644	1506
572.12	1479
572.596	1489
573.071	1484
573.547	1526
574.024	1542
574.5	1538
574.976	1536
575.452	1565
575.928	1587
576.404	1588
576.881	1636
577.357	1611
577.833	1645
578.31	1686
578.786	1701
579.262	1733
579.739	1725
580.215	1800
580.692	1793
581.169	1776
581.645	1779
582.122	1837
582.598	1834
583.075	1836
583.552	1845
584.029	1843
584.506	1843
584.982	1824
585.459	1852
585.936	1815
586.413	1852
586.89	1881
587.367	1851
587.844	1859
588.321	1844
588.799	1863
589.276	1856
589.753	1867
590.23	1874
590.707	1871
591.185	1886
591.662	1899
592.139	1912
592.617	1942
593.094	1946
593.572	1967
594.049	1986
594.527	1980
595.004	1971
595.482	2037
595.96	2045
596.437	2047
596.915	2078
597.393	2046
597.871	2094
598.349	2086
598.826	2123
599.304	2110
599.782	2143
600.26	2117
600.738	2162
601.216	2146
601.694	2152
602.173	2167
602.651	2197
603.129	2198
603.607	2208
604.085	2217
604.564	2223
605.042	2234
605.52	2241
605.999	2306
606.477	2253
606.956	2253
607.434	2281
607.913	2309
608.391	2312
608.87	2283
609.348	2247
609.827	2270
610.306	2296
610.785	2302
611.263	2287
611.742	2268
612.221	2245
612.7	2286
613.179	2291
613.658	2257
614.137	2274
614.616	2295
615.095	2256
615.574	2271
616.053	2268
616.532	2248
617.011	2273
617.491	2287
617.97	2287
618.449	2311
618.928	2324
619.408	2318
619.887	2340
620.367	2360
620.846	2392
621.326	2382
621.805	2412
622.285	2418
622.764	2458
623.244	2462
623.724	2460
624.203	2464
624.683	2423
625.163	2496
625.643	2497
626.123	2468
626.602	2500
627.082	2429
627.562	2455
628.042	2522
628.522	2499
629.002	2480
629.482	2486
629.963	2491
630.443	2494
630.923	2502
631.403	2521
631.883	2490
632.364	2486
632.844	2476
633.324	2491
633.805	2480
634.285	2457
634.766	2443
635.246	2463
635.727	2496
636.207	2497
636.688	2489
637.168	2481
637.649	2458
638.13	2461
638.611	2496
639.091	2485
639.572	2467
640.053	2442
640.534	2480
641.015	2494
641.496	2453
641.977	2487
642.458	2446
642.939	2446
643.42	2473
643.901	2492
644.382	2495
644.863	2493
645.345	2477
645.826	2483
646.307	2491
646.788	2535
647.27	2484
647.751	2494
648.233	2513
648.714	2453
649.196	2543
649.677	2532
650.159	2528
650.64	2491
651.122	2527
651.603	2497
652.085	2544
652.567	2561
653.049	2526
653.53	2517
654.012	2556
654.494	2522
654.976	2552
655.458	2554
655.94	2542
656.422	2578
656.904	2563
657.386	2554
657.868	2573
658.35	2558
658.833	2558
659.315	2556
659.797	2524
660.279	2533
660.762	2555
661.244	2534
661.726	2497
662.209	2488
662.691	2487
663.174	2428
663.656	2441
664.139	2434
664.621	2404
665.104	2381
665.587	2401
666.069	2425
666.552	2413
667.035	2395
667.517	2389
668	2398
668.483	2397
668.966	2398
669.449	2392
669.932	2406
670.415	2441
670.898	2427
671.381	2439
671.864	2446
672.347	2441
672.83	2452
673.313	2460
673.797	2438
674.28	2473
674.763	2476
675.247	2491
675.73	2497
676.213	2519
676.697	2531
677.18	2521
677.664	2533
678.147	2534
678.631	2547
679.114	2557
679.598	2543
680.082	2546
680.565	2548
681.049	2559
681.533	2553
682.017	2578
682.5	2564
682.984	2570
683.468	2564
683.952	2526
684.436	2590
684.92	2558
685.404	2563
685.888	2581
686.372	2567
686.856	2581
687.341	2635
687.825	2629
688.309	2645
688.793	2632
689.278	2594
689.762	2636
690.246	2645
690.731	2662
691.215	2671
691.7	2591
692.184	2620
692.669	2627
693.153	2653
693.638	2622
694.122	2633
694.607	2655
695.092	2609
695.577	2622
696.061	2584
696.546	2592
697.031	2575
697.516	2590
698.001	2587
698.486	2556
698.971	2579
699.456	2521
699.941	2537
700.426	2546
700.911	2562
701.396	2540
701.881	2546
702.366	2531
702.852	2532
703.337	2558
703.822	2555
704.308	2552
704.793	2544
705.278	2534
705.764	2547
706.249	2537
706.735	2577
707.22	2595
707.706	2559
708.191	2589
708.677	2594
709.163	2585
709.648	2614
710.134	2647
710.62	2624
711.106	2625
711.592	2653
712.077	2647
712.563	2591
713.049	2610
713.535	2677
714.021	2653
714.507	2631
714.993	2590
715.479	2615
715.966	2590
716.452	2608
716.938	2615
717.424	2537
717.91	2579
718.397	2521
718.883	2501
719.369	2501
719.856	2483
720.342	2524
720.829	2491
721.315	2489
721.802	2476
722.288	2500
722.775	2426
723.262	2376
723.748	2491
724.235	2471
724.722	2496
725.208	2425
725.695	2427
726.182	2433
726.669	2420
727.156	2458
727.643	2416
728.13	2423
728.617	2405
729.104	2401
729.591	2377
730.078	2413
730.565	2427
731.052	2397
731.539	2400
732.027	2385
732.514	2354
733.001	2385
733.488	2391
733.976	2400
734.463	2401
734.951	2385
735.438	2407
735.926	2382
736.413	2395
736.901	2380
737.388	2417
737.876	2411
738.364	2387
738.851	2391
739.339	2375
739.827	2395
740.314	2345
740.802	2380
741.29	2396
741.778	2360
742.266	2338
742.754	2336
743.242	2341
743.73	2309
744.218	2328
744.706	2313
745.194	2357
745.682	2332
746.17	2333
746.659	2311
747.147	2264
747.635	2302
748.123	2320
748.612	2332
749.1	2314
749.589	2318
750.077	2298
750.566	2280
751.054	2308
751.543	2341
752.031	2301
752.52	2314
753.008	2258
753.497	2241
753.986	2225
754.474	2205
754.963	2221
755.452	2211
755.941	2209
756.43	2213
756.919	2198
757.408	2176
757.896	2184
758.385	2185
758.875	2181
759.364	2183
759.853	2187
760.342	2159
760.831	2190
761.32	2168
761.809	2134
762.299	2153
762.788	2173
763.277	2178
763.767	2140
764.256	2142
764.745	2103
765.235	2120
765.724	2071
766.214	2106
766.703	2117
767.193	2096
767.683	2110
768.172	2067
768.662	2084
769.152	2064
769.641	2069
770.131	2037
770.621	2081
771.111	2074
771.601	2085
772.09	2068
772.58	2026
773.07	2023
773.56	2045
774.05	2013
774.54	2031
775.031	2039
775.521	2031
776.011	2024
776.501	2032
776.991	1977
777.482	1995
777.972	1958
778.462	1971
778.953	2016
779.443	2005
779.933	1999
780.424	1963
780.914	1964
781.405	1970
781.895	1945
782.386	1963
782.877	1962
783.367	1937
783.858	1922
784.349	1914
784.839	1897
785.33	1886
785.821	1871
786.312	1875
786.803	1886
787.293	1894
787.784	1873
788.275	1847
788.766	1823
789.257	1855
789.748	1814
790.24	1813
790.731	1835
791.222	1812
791.713	1815
792.204	1812
792.696	1755
793.187	1764
793.678	1747
794.169	1710
794.661	1770
795.152	1762
795.644	1757
796.135	1767
796.627	1760
797.118	1728
797.61	1718
798.101	1707
798.593	1738
799.085	1725
799.576	1741
800.068	1724
800.56	1720
801.052	1662
801.544	1653
802.035	1657
802.527	1656
803.019	1648
803.511	1648
804.003	1664
804.495	1678
804.987	1657
805.479	1613
805.971	1625
806.464	1633
806.956	1605
807.448	1619
807.94	1624
808.433	1631
808.925	1613
809.417	1586
809.91	1570
810.402	1528
810.894	1552
811.387	1567
811.879	1552
812.372	1550
812.865	1542
813.357	1521
813.85	1508
814.342	1485
814.835	1497
815.328	1499
815.821	1506
816.313	1518
816.806	1529
817.299	1524
817.792	1533
818.285	1507
818.778	1523
819.271	1527
819.764	1501
820.257	1519
820.75	1523
821.243	1529
821.736	1513
822.229	1522
822.722	1524
823.216	1545
