Data from lamp4helium_zwak_Subt4__28__28.txt Node

Date: Wed Apr 09 09:32:57 CEST 2025
User: fys-lab-0081
Spectrometer: S04999
Trigger mode: 0
Resolution mode: 1024 pixels
Integration Time (sec): 1.000000E-1
Scans to average: 1
Nonlinearity correction enabled: false
Boxcar width: 0
Baseline correction enabled: true
XAxis mode: Wavelengths
Number of Pixels in Spectrum: 1024
>>>>>Begin Spectral Data<<<<<
336.42	0
336.877	-4
337.334	1
337.792	-1
338.249	4
338.706	3
339.164	-1
339.621	-3
340.079	0
340.536	5
340.994	6
341.452	-3
341.909	4
342.367	-3
342.825	-1
343.283	4
343.741	4
344.198	-1
344.656	0
345.114	-3
345.572	4
346.03	1
346.488	4
346.947	2
347.405	1
347.863	4
348.321	8
348.779	-1
349.238	7
349.696	7
350.154	4
350.613	4
351.071	5
351.53	4
351.988	7
352.447	0
352.905	1
353.364	1
353.823	2
354.282	6
354.74	3
355.199	3
355.658	6
356.117	6
356.576	11
357.035	3
357.494	3
357.953	10
358.412	8
358.871	1
359.33	4
359.789	8
360.249	7
360.708	11
361.167	3
361.626	6
362.086	7
362.545	10
363.005	10
363.464	2
363.924	4
364.383	13
364.843	9
365.303	8
365.762	7
366.222	4
366.682	16
367.142	11
367.601	8
368.061	12
368.521	12
368.981	8
369.441	15
369.901	13
370.361	11
370.821	13
371.282	14
371.742	13
372.202	15
372.662	17
373.123	14
373.583	11
374.043	14
374.504	8
374.964	11
375.425	15
375.885	13
376.346	20
376.806	11
377.267	16
377.728	21
378.188	20
378.649	17
379.11	19
379.571	14
380.032	16
380.493	18
380.954	24
381.414	21
381.876	23
382.337	24
382.798	23
383.259	29
383.72	25
384.181	26
384.642	25
385.104	30
385.565	36
386.026	26
386.488	29
386.949	32
387.411	31
387.872	34
388.334	34
388.795	33
389.257	40
389.719	40
390.181	34
390.642	39
391.104	35
391.566	37
392.028	46
392.49	40
392.952	45
393.414	45
393.876	41
394.338	42
394.8	42
395.262	47
395.724	47
396.186	49
396.648	48
397.111	52
397.573	52
398.035	56
398.498	56
398.96	52
399.423	52
399.885	61
400.348	59
400.81	67
401.273	58
401.736	62
402.198	65
402.661	64
403.124	63
403.587	68
404.049	69.5
404.512	71
404.975	75
405.438	68
405.901	75
406.364	76
406.827	75
407.29	77
407.754	77
408.217	82
408.68	69
409.143	74
409.607	82
410.07	78
410.533	80
410.997	82
411.46	76
411.924	79
412.387	87
412.851	83
413.314	86
413.778	94
414.242	96
414.705	95
415.169	95
415.633	95
416.097	96
416.561	99
417.024	101
417.488	101
417.952	97
418.416	111
418.88	103
419.344	103
419.809	101
420.273	102
420.737	102
421.201	101
421.665	109
422.13	112
422.594	110
423.059	114
423.523	113
423.987	116
424.452	120
424.916	122
425.381	129
425.846	127
426.31	126
426.775	123
427.24	132
427.704	129
428.169	137
428.634	133
429.099	128
429.564	131
430.029	136
430.494	135
430.959	138
431.424	131
431.889	138
432.354	142
432.819	138
433.284	143
433.75	147
434.215	151
434.68	153
435.146	154
435.611	164
436.077	168
436.542	167
437.008	178
437.473	178
437.939	183
438.404	187
438.87	188
439.336	184
439.801	187
440.267	189
440.733	195
441.199	198
441.665	191
442.131	204
442.596	199
443.062	198
443.529	206
443.995	211
444.461	214
444.927	233
445.393	228
445.859	239
446.325	245
446.792	261
447.258	258
447.724	264
448.191	268
448.657	272
449.124	288
449.59	281
450.057	297
450.523	299
450.99	302
451.457	302
451.923	310
452.39	308
452.857	315
453.324	309
453.791	321
454.257	317
454.724	329
455.191	326
455.658	325
456.125	339
456.592	334
457.059	336
457.527	344
457.994	355
458.461	354
458.928	359
459.396	363
459.863	375
460.33	371
460.798	375
461.265	379
461.732	372
462.2	383
462.668	387
463.135	395
463.603	380
464.07	389
464.538	384
465.006	392
465.474	386
465.941	386
466.409	392
466.877	381
467.345	399
467.813	397
468.281	399
468.749	399
469.217	404
469.685	404
470.153	412
470.621	414
471.09	416
471.558	425
472.026	433
472.494	449
472.963	457
473.431	467
473.9	476
474.368	486
474.837	495
475.305	502
475.774	513
476.242	527
476.711	526
477.18	545
477.648	538
478.117	547
478.586	543
479.055	541
479.524	546
479.993	548
480.462	553
480.93	555
481.399	553
481.869	557
482.338	550
482.807	565
483.276	559
483.745	561
484.214	580
484.684	587
485.153	588
485.622	589
486.092	614
486.561	601
487.031	615
487.5	633
487.97	639
488.439	656
488.909	674
489.378	692
489.848	694
490.318	710
490.787	733
491.257	751
491.727	756
492.197	771
492.667	757
493.137	766
493.607	780
494.077	791
494.547	774
495.017	788
495.487	792
495.957	819
496.427	792
496.897	797
497.368	811
497.838	808
498.308	825
498.779	832
499.249	837
499.719	842
500.19	855
500.66	856
501.131	858
501.602	882
502.072	883
502.543	904
503.014	934
503.484	933
503.955	960
504.426	991
504.897	1007
505.368	1022
505.838	1044
506.309	1066
506.78	1103
507.251	1124
507.722	1135
508.194	1163
508.665	1189
509.136	1181
509.607	1219
510.078	1231
510.549	1230
511.021	1265
511.492	1279
511.964	1302
512.435	1326
512.906	1320
513.378	1330
513.849	1351
514.321	1359
514.793	1374
515.264	1376
515.736	1397
516.208	1422
516.679	1446
517.151	1455
517.623	1464
518.095	1492
518.567	1511
519.038	1544
519.51	1546
519.982	1569
520.454	1586
520.927	1591
521.399	1619
521.871	1647
522.343	1658
522.815	1668
523.287	1665
523.76	1691
524.232	1715
524.704	1723
525.177	1686
525.649	1701
526.122	1736
526.594	1714
527.067	1750
527.539	1764
528.012	1748
528.484	1746
528.957	1760
529.43	1751
529.903	1746
530.375	1819
530.848	1777
531.321	1811
531.794	1800
532.267	1850
532.74	1828
533.213	1814
533.686	1853
534.159	1849
534.632	1906
535.105	1907
535.578	1930
536.051	1925
536.525	1939
536.998	1964
537.471	2007
537.945	1951
538.418	1986
538.891	2010
539.365	2039
539.838	2050
540.312	2042
540.786	2073
541.259	2062
541.733	2082
542.206	2093
542.68	2080
543.154	2075
543.628	2079
544.101	2135
544.575	2123
545.049	2078
545.523	2120
545.997	2111
546.471	2123
546.945	2106
547.419	2150
547.893	2076
548.367	2106
548.842	2085
549.316	2106
549.79	2139
550.264	2115
550.739	2173
551.213	2144
551.687	2133
552.162	2167
552.636	2153
553.111	2143
553.585	2221
554.06	2192
554.534	2255
555.009	2239
555.484	2265
555.958	2308
556.433	2304
556.908	2319
557.383	2282
557.858	2324
558.333	2346
558.807	2349
559.282	2355
559.757	2418
560.232	2422
560.708	2380
561.183	2393
561.658	2424
562.133	2421
562.608	2422
563.083	2460
563.559	2403
564.034	2430
564.509	2448
564.985	2476
565.46	2437
565.936	2481
566.411	2474
566.887	2457
567.362	2460
567.838	2445
568.313	2481
568.789	2450
569.265	2470
569.74	2481
570.216	2450
570.692	2489
571.168	2499
571.644	2525
572.12	2522
572.596	2555
573.071	2560
573.547	2650
574.024	2642
574.5	2659
574.976	2681
575.452	2750
575.928	2764
576.404	2755
576.881	2838
577.357	2804
577.833	2842
578.31	2917
578.786	2930
579.262	2971
579.739	2927
580.215	3014
580.692	3023
581.169	3013
581.645	3020
582.122	3113
582.598	3080
583.075	3048
583.552	3065
584.029	3106
584.506	3117
584.982	3086
585.459	3150
585.936	3128
586.413	3182
586.89	3230
587.367	3192
587.844	3230
588.321	3209
588.799	3210
589.276	3167
589.753	3194
590.23	3237
590.707	3237
591.185	3240
591.662	3235
592.139	3274
592.617	3337
593.094	3344
593.572	3369
594.049	3380
594.527	3397
595.004	3422
595.482	3529
595.96	3487
596.437	3480
596.915	3580
597.393	3557
597.871	3659
598.349	3599
598.826	3659
599.304	3667
599.782	3758
600.26	3739
600.738	3800
601.216	3752
601.694	3765
602.173	3782
602.651	3801
603.129	3753
603.607	3792
604.085	3798
604.564	3788
605.042	3811
605.52	3771
605.999	3892
606.477	3829
606.956	3872
607.434	3892
607.913	3912
608.391	3879
608.87	3862
609.348	3828
609.827	3855
610.306	3877
610.785	3855
611.263	3862
611.742	3861
612.221	3821
612.7	3873
613.179	3912
613.658	3848
614.137	3948
614.616	3987
615.095	3906
615.574	3937
616.053	3969
616.532	3925
617.011	3952
617.491	3961
617.97	3945
618.449	4039
618.928	4098
619.408	4080
619.887	4095
620.367	4090
620.846	4161
621.326	4156
621.805	4241
622.285	4227
622.764	4222
623.244	4213
623.724	4240
624.203	4249
624.683	4170
625.163	4256
625.643	4277
626.123	4241
626.602	4337
627.082	4231
627.562	4198
628.042	4313
628.522	4305
629.002	4269
629.482	4260
629.963	4214
630.443	4169
630.923	4183
631.403	4224
631.883	4225
632.364	4255
632.844	4214
633.324	4243
633.805	4240
634.285	4212
634.766	4209
635.246	4210
635.727	4186
636.207	4181
636.688	4187
637.168	4152
637.649	4097
638.13	4053
638.611	4082
639.091	4114
639.572	4120
640.053	4083
640.534	4106
641.015	4124
641.496	4125
641.977	4239
642.458	4170
642.939	4160
643.42	4148
643.901	4149
644.382	4213
644.863	4219
645.345	4217
645.826	4229
646.307	4193
646.788	4203
647.27	4115
647.751	4123
648.233	4152
648.714	4094
649.196	4213
649.677	4199
650.159	4202
650.64	4157
651.122	4211
651.603	4124
652.085	4158
652.567	4183
653.049	4148
653.53	4137
654.012	4208
654.494	4095
654.976	4109
655.458	4082
655.94	4062
656.422	4114
656.904	4037
657.386	3989
657.868	4000
658.35	4007
658.833	4057
659.315	4087
659.797	4033
660.279	4022
660.762	4042
661.244	4022
661.726	3964
662.209	3943
662.691	3890
663.174	3823
663.656	3832
664.139	3843
664.621	3832
665.104	3806
665.587	3857
666.069	3874
666.552	3861
667.035	3839
667.517	3853
668	3868
668.483	3830
668.966	3780
669.449	3797
669.932	3842
670.415	3881
670.898	3833
671.381	3823
671.864	3849
672.347	3831
672.83	3820
673.313	3796
673.797	3776
674.28	3805
674.763	3788
675.247	3788
675.73	3739
676.213	3788
676.697	3819
677.18	3785
677.664	3764
678.147	3784
678.631	3829
679.114	3851
679.598	3846
680.082	3852
680.565	3804
681.049	3779
681.533	3793
682.017	3831
682.5	3819
682.984	3837
683.468	3824
683.952	3718
684.436	3776
684.92	3729
685.404	3746
685.888	3757
686.372	3709
686.856	3724
687.341	3778
687.825	3734
688.309	3755
688.793	3747
689.278	3670
689.762	3666
690.246	3641
690.731	3665
691.215	3681
691.7	3562
692.184	3585
692.669	3550
693.153	3569
693.638	3534
694.122	3508
694.607	3539
695.092	3498
695.577	3558
696.061	3484
696.546	3497
697.031	3483
697.516	3485
698.001	3477
698.486	3443
698.971	3509
699.456	3460
699.941	3465
700.426	3438
700.911	3441
701.396	3373
701.881	3387
702.366	3373
702.852	3381
703.337	3390
703.822	3351
704.308	3323
704.793	3330
705.278	3344
705.764	3381
706.249	3365
706.735	3363
707.22	3403
707.706	3355
708.191	3397
708.677	3394
709.163	3361
709.648	3349
710.134	3378
710.62	3300
711.106	3290
711.592	3318
712.077	3304
712.563	3218
713.049	3201
713.535	3232
714.021	3189
714.507	3150
714.993	3137
715.479	3195
715.966	3169
716.452	3200
716.938	3210
717.424	3110
717.91	3153
718.397	3114
718.883	3085
719.369	3066
719.856	3003
720.342	3025
720.829	2951
721.315	2955
721.802	2942
722.288	2958
722.775	2852
723.262	2794
723.748	2885
724.235	2857
724.722	2874
725.208	2837
725.695	2845
726.182	2828
726.669	2785
727.156	2802
727.643	2777
728.13	2768
728.617	2751
729.104	2776
729.591	2741
730.078	2741
730.565	2721
731.052	2683
731.539	2691
732.027	2687
732.514	2669
733.001	2704
733.488	2666
733.976	2627
734.463	2585
734.951	2563
735.438	2593
735.926	2564
736.413	2582
736.901	2573
737.388	2591
737.876	2581
738.364	2567
738.851	2571
739.339	2562
739.827	2598
740.314	2498
740.802	2502
741.29	2492
741.778	2449
742.266	2439
742.754	2437
743.242	2456
743.73	2399
744.218	2405
744.706	2368
745.194	2391
745.682	2377
746.17	2371
746.659	2372
747.147	2303
747.635	2314
748.123	2304
748.612	2253
749.1	2240
749.589	2285
750.077	2275
750.566	2263
751.054	2257
751.543	2255
752.031	2206
752.52	2193
753.008	2145
753.497	2153
753.986	2131
754.474	2104
754.963	2143
755.452	2110
755.941	2093
756.43	2080
756.919	2081
757.408	2081
757.896	2056
758.385	2048
758.875	2033
759.364	2026
759.853	1995
760.342	1964
760.831	2001
761.32	1961
761.809	1916
762.299	1926
762.788	1936
763.277	1915
763.767	1888
764.256	1876
764.745	1863
765.235	1878
765.724	1815
766.214	1837
766.703	1831
767.193	1791
767.683	1774
768.172	1735
768.662	1751
769.152	1750
769.641	1768
770.131	1719
770.621	1749
771.111	1730
771.601	1718
772.09	1712
772.58	1684
773.07	1673
773.56	1679
774.05	1650
774.54	1654
775.031	1646
775.521	1637
776.011	1626
776.501	1640
776.991	1597
777.482	1610
777.972	1567
778.462	1565
778.953	1576
779.443	1558
779.933	1532
780.424	1506
780.914	1520
781.405	1532
781.895	1511
782.386	1516
782.877	1493
783.367	1446
783.858	1426
784.349	1422
784.839	1416
785.33	1421
785.821	1409
786.312	1389
786.803	1384
787.293	1370
787.784	1348
788.275	1341
788.766	1315
789.257	1326
789.748	1299
790.24	1294
790.731	1303
791.222	1290
791.713	1289
792.204	1285
792.696	1253
793.187	1265
793.678	1262
794.169	1234
794.661	1259
795.152	1229
795.644	1213
796.135	1206
796.627	1207
797.118	1195
797.61	1190
798.101	1176
798.593	1191
799.085	1187
799.576	1187
800.068	1170
800.56	1172
801.052	1136
801.544	1125
802.035	1127
802.527	1105
803.019	1086
803.511	1078
804.003	1076
804.495	1068
804.987	1045
805.479	1021
805.971	1045
806.464	1042
806.956	1016
807.448	1014
807.94	1011
808.433	1006
808.925	1012
809.417	992
809.91	991
810.402	972
810.894	978
811.387	976
811.879	952
812.372	950
812.865	929
813.357	924
813.85	920
814.342	924
814.835	925
815.328	927
815.821	913
816.313	912
816.806	913
817.299	899
817.792	903
818.285	901
818.778	908
819.271	910
819.764	894
820.257	899
820.75	887
821.243	886
821.736	877
822.229	886
822.722	876
823.216	893
