Data from lamp4helium_zwak_Subt2__9__409.txt Node

Date: Wed Apr 09 11:14:32 CEST 2025
User: fys-lab-0081
Spectrometer: S04999
Trigger mode: 0
Resolution mode: 1024 pixels
Integration Time (sec): 1.000000E-1
Scans to average: 1
Nonlinearity correction enabled: false
Boxcar width: 0
Baseline correction enabled: true
XAxis mode: Wavelengths
Number of Pixels in Spectrum: 1024
>>>>>Begin Spectral Data<<<<<
336.42	3
336.877	3
337.334	1
337.792	-1
338.249	4
338.706	3
339.164	2
339.621	0
340.079	5
340.536	5
340.994	2
341.452	6
341.909	3
342.367	0
342.825	-4
343.283	7
343.741	1
344.198	7
344.656	3
345.114	0
345.572	8
346.03	-1
346.488	3
346.947	2
347.405	2
347.863	3
348.321	3
348.779	11
349.238	-1
349.696	3
350.154	4
350.613	0
351.071	4
351.53	6
351.988	6
352.447	6
352.905	0
353.364	2
353.823	4
354.282	4
354.74	-1
355.199	1
355.658	5
356.117	5
356.576	4
357.035	1
357.494	6
357.953	3
358.412	7
358.871	3
359.33	8
359.789	6
360.249	8
360.708	6
361.167	5
361.626	9
362.086	6
362.545	9
363.005	5
363.464	8
363.924	5
364.383	9
364.843	10
365.303	15
365.762	13
366.222	12
366.682	12
367.142	15
367.601	11
368.061	8
368.521	11
368.981	11
369.441	16
369.901	17
370.361	6
370.821	11
371.282	12
371.742	12
372.202	14
372.662	16
373.123	14
373.583	17
374.043	17
374.504	15
374.964	13
375.425	15
375.885	14
376.346	19
376.806	20
377.267	18
377.728	17
378.188	21
378.649	20
379.11	24
379.571	17
380.032	23
380.493	20
380.954	25
381.414	23
381.876	24
382.337	23
382.798	23
383.259	26
383.72	28
384.181	25
384.642	27
385.104	26
385.565	32
386.026	37
386.488	36
386.949	33
387.411	33
387.872	39
388.334	39
388.795	43
389.257	36
389.719	39
390.181	45
390.642	40
391.104	45
391.566	46
392.028	44
392.49	54
392.952	49
393.414	48
393.876	50
394.338	50
394.8	52
395.262	48
395.724	56
396.186	54
396.648	56
397.111	57
397.573	60
398.035	49
398.498	62
398.96	63
399.423	63
399.885	68
400.348	64
400.81	64
401.273	64
401.736	63
402.198	73
402.661	75
403.124	69
403.587	79
404.049	79
404.512	79
404.975	79
405.438	81
405.901	86
406.364	86
406.827	87
407.29	82
407.754	83
408.217	87
408.68	87
409.143	94
409.607	98
410.07	94
410.533	91
410.997	93
411.46	96
411.924	104
412.387	103
412.851	97
413.314	101
413.778	103
414.242	102
414.705	109
415.169	105
415.633	109
416.097	108
416.561	110
417.024	113
417.488	107
417.952	113
418.416	112
418.88	110
419.344	109
419.809	117
420.273	117
420.737	117
421.201	118
421.665	121
422.13	122
422.594	132
423.059	128
423.523	129
423.987	133
424.452	142
424.916	139
425.381	145
425.846	142
426.31	149
426.775	147
427.24	154
427.704	155
428.169	155
428.634	157
429.099	158
429.564	155
430.029	157
430.494	159
430.959	156
431.424	156
431.889	163
432.354	168
432.819	161
433.284	175
433.75	171
434.215	179
434.68	181
435.146	179
435.611	183
436.077	193
436.542	196
437.008	205
437.473	207
437.939	208
438.404	212
438.87	212
439.336	215
439.801	214
440.267	215
440.733	220
441.199	224
441.665	227
442.131	231
442.596	227
443.062	238
443.529	245
443.995	248
444.461	248
444.927	260
445.393	268
445.859	273
446.325	281
446.792	295
447.258	297
447.724	305
448.191	315
448.657	317
449.124	322
449.59	321
450.057	344
450.523	345
450.99	354
451.457	348
451.923	360
452.39	356
452.857	370
453.324	359
453.791	367
454.257	373
454.724	370
455.191	373
455.658	376
456.125	390
456.592	382
457.059	388
457.527	391
457.994	406
458.461	410
458.928	416
459.396	416
459.863	427
460.33	421
460.798	426
461.265	436
461.732	431
462.2	443
462.668	443
463.135	447
463.603	428
464.07	452
464.538	440
465.006	457
465.474	448
465.941	448
466.409	447
466.877	446
467.345	451
467.813	447
468.281	454
468.749	462
469.217	458
469.685	465
470.153	482
470.621	478
471.09	481
471.558	507
472.026	506
472.494	515
472.963	519
473.431	532
473.9	546
474.368	559
474.837	565
475.305	576
475.774	589
476.242	600
476.711	604
477.18	622
477.648	614
478.117	619
478.586	625
479.055	623
479.524	631
479.993	630
480.462	631
480.93	630
481.399	635
481.869	639
482.338	625
482.807	649
483.276	640
483.745	643
484.214	655
484.684	671
485.153	673
485.622	681
486.092	693
486.561	681
487.031	718
487.5	723
487.97	725
488.439	749
488.909	768
489.378	797
489.848	796
490.318	813
490.787	850
491.257	853
491.727	859
492.197	872
492.667	883
493.137	884
493.607	888
494.077	901
494.547	898
495.017	892
495.487	905
495.957	925
496.427	911
496.897	908
497.368	929
497.838	912
498.308	926
498.779	940
499.249	946
499.719	948
500.19	968
500.66	976
501.131	979
501.602	996
502.072	995
502.543	1020
503.014	1058
503.484	1058
503.955	1079
504.426	1120
504.897	1124
505.368	1151
505.838	1180
506.309	1199
506.78	1238
507.251	1256
507.722	1280
508.194	1316
508.665	1338
509.136	1333
509.607	1373
510.078	1375
510.549	1387
511.021	1422
511.492	1430
511.964	1443
512.435	1466
512.906	1461
513.378	1471
513.849	1505
514.321	1497
514.793	1512
515.264	1535
515.736	1553
516.208	1586
516.679	1605
517.151	1620
517.623	1623
518.095	1651
518.567	1668
519.038	1698
519.51	1704
519.982	1715
520.454	1729
520.927	1748
521.399	1778
521.871	1806
522.343	1806
522.815	1832
523.287	1824
523.76	1839
524.232	1879
524.704	1880
525.177	1854
525.649	1858
526.122	1887
526.594	1845
527.067	1895
527.539	1930
528.012	1910
528.484	1900
528.957	1919
529.43	1908
529.903	1896
530.375	1958
530.848	1923
531.321	1944
531.794	1952
532.267	1990
532.74	1960
533.213	1953
533.686	1991
534.159	1989
534.632	2035
535.105	2046
535.578	2098
536.051	2109
536.525	2106
536.998	2099
537.471	2142
537.945	2120
538.418	2151
538.891	2147
539.365	2188
539.838	2209
540.312	2197
540.786	2199
541.259	2197
541.733	2244
542.206	2244
542.68	2212
543.154	2215
543.628	2212
544.101	2262
544.575	2238
545.049	2177
545.523	2221
545.997	2230
546.471	2250
546.945	2222
547.419	2262
547.893	2188
548.367	2238
548.842	2205
549.316	2234
549.79	2248
550.264	2222
550.739	2255
551.213	2250
551.687	2238
552.162	2264
552.636	2245
553.111	2249
553.585	2322
554.06	2295
554.534	2336
555.009	2310
555.484	2353
555.958	2408
556.433	2394
556.908	2435
557.383	2414
557.858	2478
558.333	2479
558.807	2460
559.282	2486
559.757	2553
560.232	2550
560.708	2497
561.183	2491
561.658	2539
562.133	2526
562.608	2508
563.083	2576
563.559	2517
564.034	2521
564.509	2521
564.985	2521
565.46	2506
565.936	2564
566.411	2552
566.887	2531
567.362	2549
567.838	2560
568.313	2586
568.789	2542
569.265	2536
569.74	2555
570.216	2539
570.692	2575
571.168	2582
571.644	2592
572.12	2584
572.596	2621
573.071	2633
573.547	2716
574.024	2741
574.5	2753
574.976	2744
575.452	2785
575.928	2815
576.404	2838
576.881	2944
577.357	2892
577.833	2901
578.31	2978
578.786	3018
579.262	3051
579.739	3008
580.215	3088
580.692	3089
581.169	3067
581.645	3066
582.122	3174
582.598	3175
583.075	3186
583.552	3196
584.029	3186
584.506	3143
584.982	3124
585.459	3210
585.936	3165
586.413	3190
586.89	3259
587.367	3221
587.844	3273
588.321	3241
588.799	3264
589.276	3247
589.753	3303
590.23	3332
590.707	3310
591.185	3303
591.662	3312
592.139	3341
592.617	3384
593.094	3363
593.572	3401
594.049	3440
594.527	3478
595.004	3482
595.482	3578
595.96	3564
596.437	3574
596.915	3669
597.393	3588
597.871	3668
598.349	3645
598.826	3720
599.304	3719
599.782	3782
600.26	3739
600.738	3828
601.216	3805
601.694	3817
602.173	3834
602.651	3854
603.129	3803
603.607	3847
604.085	3876
604.564	3879
605.042	3904
605.52	3863
605.999	3967
606.477	3853
606.956	3852
607.434	3900
607.913	3948
608.391	3944
608.87	3928
609.348	3856
609.827	3856
610.306	3887
610.785	3884
611.263	3894
611.742	3870
612.221	3817
612.7	3874
613.179	3914
613.658	3864
614.137	3929
614.616	3955
615.095	3876
615.574	3935
616.053	3969
616.532	3925
617.011	3940
617.491	3972
617.97	3973
618.449	4018
618.928	4039
619.408	4013
619.887	4046
620.367	4081
620.846	4119
621.326	4078
621.805	4167
622.285	4153
622.764	4189
623.244	4194
623.724	4203
624.203	4227
624.683	4161
625.163	4260
625.643	4259
626.123	4226
626.602	4320
627.082	4221
627.562	4219
628.042	4289
628.522	4237
629.002	4195
629.482	4246
629.963	4247
630.443	4239
630.923	4249
631.403	4266
631.883	4251
632.364	4252
632.844	4232
633.324	4251
633.805	4265
634.285	4219
634.766	4178
635.246	4174
635.727	4163
636.207	4169
636.688	4168
637.168	4170
637.649	4161
638.13	4114
638.611	4155
639.091	4156
639.572	4142
640.053	4121
640.534	4151
641.015	4133
641.496	4060
641.977	4146
642.458	4112
642.939	4120
643.42	4129
643.901	4129
644.382	4170
644.863	4133
645.345	4116
645.826	4118
646.307	4129
646.788	4200
647.27	4130
647.751	4141
648.233	4166
648.714	4075
649.196	4194
649.677	4184
650.159	4187
650.64	4142
651.122	4217
651.603	4140
652.085	4151
652.567	4166
653.049	4144
653.53	4133
654.012	4202
654.494	4109
654.976	4176
655.458	4171
655.94	4147
656.422	4207
656.904	4118
657.386	4067
657.868	4071
658.35	4046
658.833	4102
659.315	4117
659.797	4061
660.279	4056
660.762	4071
661.244	4041
661.726	3991
662.209	4005
662.691	4008
663.174	3937
663.656	3959
664.139	3950
664.621	3902
665.104	3879
665.587	3933
666.069	3941
666.552	3942
667.035	3880
667.517	3878
668	3911
668.483	3912
668.966	3871
669.449	3859
669.932	3866
670.415	3910
670.898	3883
671.381	3879
671.864	3891
672.347	3845
672.83	3859
673.313	3879
673.797	3871
674.28	3954
674.763	3940
675.247	3953
675.73	3916
676.213	3969
676.697	3985
677.18	3982
677.664	3987
678.147	3983
678.631	4014
679.114	4030
679.598	4012
680.082	4023
680.565	4004
681.049	3976
681.533	3991
682.017	4042
682.5	4013
682.984	4004
683.468	4006
683.952	3946
684.436	4022
684.92	3982
685.404	4010
685.888	4041
686.372	4011
686.856	4014
687.341	4059
687.825	4002
688.309	4035
688.793	4053
689.278	3988
689.762	4027
690.246	4007
690.731	4014
691.215	4037
691.7	3936
692.184	3965
692.669	3944
693.153	3946
693.638	3874
694.122	3866
694.607	3895
695.092	3829
695.577	3867
696.061	3798
696.546	3797
697.031	3754
697.516	3777
698.001	3782
698.486	3748
698.971	3809
699.456	3725
699.941	3721
700.426	3733
700.911	3787
701.396	3770
701.881	3795
702.366	3754
702.852	3725
703.337	3752
703.822	3752
704.308	3766
704.793	3802
705.278	3808
705.764	3813
706.249	3782
706.735	3782
707.22	3818
707.706	3774
708.191	3815
708.677	3794
709.163	3749
709.648	3752
710.134	3790
710.62	3743
711.106	3735
711.592	3796
712.077	3786
712.563	3701
713.049	3707
713.535	3769
714.021	3741
714.507	3720
714.993	3684
715.479	3724
715.966	3683
716.452	3690
716.938	3692
717.424	3570
717.91	3640
718.397	3629
718.883	3610
719.369	3616
719.856	3592
720.342	3662
720.829	3604
721.315	3625
721.802	3613
722.288	3633
722.775	3494
723.262	3396
723.748	3532
724.235	3488
724.722	3524
725.208	3429
725.695	3414
726.182	3394
726.669	3360
727.156	3384
727.643	3340
728.13	3343
728.617	3307
729.104	3320
729.591	3298
730.078	3339
730.565	3347
731.052	3319
731.539	3329
732.027	3290
732.514	3238
733.001	3265
733.488	3244
733.976	3250
734.463	3228
734.951	3239
735.438	3274
735.926	3241
736.413	3258
736.901	3223
737.388	3241
737.876	3235
738.364	3208
738.851	3218
739.339	3228
739.827	3256
740.314	3143
740.802	3166
741.29	3173
741.778	3140
742.266	3154
742.754	3156
743.242	3173
743.73	3104
744.218	3086
744.706	3046
745.194	3065
745.682	3032
746.17	3051
746.659	3056
747.147	2992
747.635	3007
748.123	2993
748.612	2963
749.1	2936
749.589	2972
750.077	2972
750.566	2972
751.054	2980
751.543	2986
752.031	2908
752.52	2903
753.008	2836
753.497	2855
753.986	2840
754.474	2820
754.963	2844
755.452	2793
755.941	2777
756.43	2775
756.919	2760
757.408	2733
757.896	2752
758.385	2744
758.875	2702
759.364	2703
759.853	2683
760.342	2644
760.831	2692
761.32	2662
761.809	2623
762.299	2627
762.788	2641
763.277	2625
763.767	2569
764.256	2565
764.745	2540
765.235	2591
765.724	2525
766.214	2568
766.703	2509
767.193	2461
767.683	2472
768.172	2417
768.662	2430
769.152	2411
769.641	2405
770.131	2355
770.621	2409
771.111	2377
771.601	2372
772.09	2357
772.58	2344
773.07	2343
773.56	2351
774.05	2288
774.54	2268
775.031	2247
775.521	2241
776.011	2247
776.501	2270
776.991	2220
777.482	2234
777.972	2170
778.462	2170
778.953	2178
779.443	2172
779.933	2166
780.424	2155
780.914	2165
781.405	2177
781.895	2166
782.386	2172
782.877	2145
783.367	2086
783.858	2076
784.349	2089
784.839	2064
785.33	2070
785.821	2054
786.312	2045
786.803	2055
787.293	2041
787.784	2008
788.275	1981
788.766	1956
789.257	1988
789.748	1942
790.24	1929
790.731	1914
791.222	1878
791.713	1866
792.204	1877
792.696	1824
793.187	1842
793.678	1830
794.169	1767
794.661	1801
795.152	1791
795.644	1770
796.135	1770
796.627	1782
797.118	1752
797.61	1730
798.101	1712
798.593	1729
799.085	1706
799.576	1709
800.068	1692
800.56	1700
801.052	1649
801.544	1653
802.035	1639
802.527	1613
803.019	1599
803.511	1582
804.003	1562
804.495	1571
804.987	1550
805.479	1515
805.971	1526
806.464	1531
806.956	1495
807.448	1493
807.94	1484
808.433	1479
808.925	1467
809.417	1452
809.91	1437
810.402	1399
810.894	1406
811.387	1417
811.879	1392
812.372	1398
812.865	1382
813.357	1383
813.85	1377
814.342	1368
814.835	1377
815.328	1363
815.821	1347
816.313	1345
816.806	1352
817.299	1344
817.792	1364
818.285	1337
818.778	1348
819.271	1346
819.764	1324
820.257	1333
820.75	1329
821.243	1334
821.736	1326
822.229	1334
822.722	1320
823.216	1352
