Data from lamp4helium_zwak_Subt2__40__440.txt Node

Date: Wed Apr 09 11:14:36 CEST 2025
User: fys-lab-0081
Spectrometer: S04999
Trigger mode: 0
Resolution mode: 1024 pixels
Integration Time (sec): 1.000000E-1
Scans to average: 1
Nonlinearity correction enabled: false
Boxcar width: 0
Baseline correction enabled: true
XAxis mode: Wavelengths
Number of Pixels in Spectrum: 1024
>>>>>Begin Spectral Data<<<<<
336.42	-2
336.877	2
337.334	1
337.792	0
338.249	0
338.706	3
339.164	4
339.621	4
340.079	1
340.536	6
340.994	4
341.452	4
341.909	9
342.367	-2
342.825	2
343.283	6
343.741	2
344.198	3
344.656	-2
345.114	2
345.572	7
346.03	3
346.488	2
346.947	-1
347.405	7
347.863	4
348.321	1
348.779	7
349.238	1
349.696	7
350.154	4
350.613	5
351.071	6
351.53	8
351.988	7
352.447	5
352.905	0
353.364	4
353.823	5
354.282	3
354.74	-1
355.199	7
355.658	11
356.117	8
356.576	6
357.035	4
357.494	6
357.953	5
358.412	10
358.871	5
359.33	2
359.789	5
360.249	5
360.708	6
361.167	7
361.626	7
362.086	10
362.545	5
363.005	6
363.464	9
363.924	5
364.383	8
364.843	14
365.303	11
365.762	11
366.222	8
366.682	11
367.142	13
367.601	9
368.061	11
368.521	9
368.981	13
369.441	17
369.901	11
370.361	12
370.821	5
371.282	10
371.742	14
372.202	11
372.662	17
373.123	14
373.583	17
374.043	16
374.504	13
374.964	14
375.425	17
375.885	18
376.346	19
376.806	19
377.267	18
377.728	19
378.188	24
378.649	18
379.11	20
379.571	18
380.032	22
380.493	21
380.954	26
381.414	17
381.876	23
382.337	23
382.798	25
383.259	27
383.72	27
384.181	26
384.642	31
385.104	34
385.565	31
386.026	36
386.488	37
386.949	36
387.411	34
387.872	36
388.334	40
388.795	40
389.257	45
389.719	39
390.181	40
390.642	39
391.104	40
391.566	48
392.028	44
392.49	49
392.952	48
393.414	49
393.876	52
394.338	51
394.8	54
395.262	49
395.724	56
396.186	56
396.648	59
397.111	57
397.573	62
398.035	56
398.498	59
398.96	59
399.423	60
399.885	64
400.348	63
400.81	65
401.273	65
401.736	64
402.198	75
402.661	72
403.124	70
403.587	79
404.049	78.5
404.512	78
404.975	79
405.438	82
405.901	83
406.364	82
406.827	81
407.29	83
407.754	84
408.217	87
408.68	83
409.143	88
409.607	93
410.07	95
410.533	89
410.997	93
411.46	94
411.924	100
412.387	98
412.851	99
413.314	101
413.778	103
414.242	104
414.705	110
415.169	105
415.633	108
416.097	108
416.561	111
417.024	113
417.488	110
417.952	112
418.416	110
418.88	108
419.344	110
419.809	112
420.273	116
420.737	118
421.201	122
421.665	121
422.13	119
422.594	129
423.059	131
423.523	130
423.987	130
424.452	135
424.916	139
425.381	148
425.846	144
426.31	151
426.775	152
427.24	157
427.704	156
428.169	156
428.634	157
429.099	157
429.564	155
430.029	157
430.494	155
430.959	157
431.424	161
431.889	165
432.354	168
432.819	160
433.284	172
433.75	172
434.215	180
434.68	176
435.146	177
435.611	189
436.077	197
436.542	191
437.008	204
437.473	207
437.939	208
438.404	212
438.87	214
439.336	211
439.801	212
440.267	217
440.733	226
441.199	219
441.665	220
442.131	234
442.596	221
443.062	232
443.529	243
443.995	248
444.461	250
444.927	264
445.393	264
445.859	274
446.325	277
446.792	297
447.258	297
447.724	306
448.191	310
448.657	315
449.124	320
449.59	321
450.057	337
450.523	341
450.99	351
451.457	345
451.923	354
452.39	356
452.857	365
453.324	362
453.791	365
454.257	368
454.724	378
455.191	371
455.658	377
456.125	385
456.592	378
457.059	383
457.527	394
457.994	404
458.461	405
458.928	418
459.396	413
459.863	428
460.33	421
460.798	428
461.265	437
461.732	438
462.2	443
462.668	437
463.135	444
463.603	435
464.07	454
464.538	441
465.006	449
465.474	443
465.941	444
466.409	449
466.877	440
467.345	455
467.813	448
468.281	457
468.749	459
469.217	457
469.685	470
470.153	478
470.621	479
471.09	478
471.558	504
472.026	503
472.494	514
472.963	522
473.431	533
473.9	541
474.368	560
474.837	572
475.305	575
475.774	580
476.242	601
476.711	600
477.18	622
477.648	617
478.117	622
478.586	621
479.055	623
479.524	630
479.993	627
480.462	624
480.93	629
481.399	631
481.869	638
482.338	628
482.807	642
483.276	640
483.745	642
484.214	660
484.684	666
485.153	675
485.622	680
486.092	697
486.561	683
487.031	711
487.5	716
487.97	730
488.439	749
488.909	764
489.378	796
489.848	805
490.318	811
490.787	855
491.257	853
491.727	857
492.197	872
492.667	880
493.137	882
493.607	890
494.077	900
494.547	893
495.017	890
495.487	907
495.957	928
496.427	906
496.897	909
497.368	922
497.838	915
498.308	927
498.779	941
499.249	942
499.719	948
500.19	964
500.66	967
501.131	979
501.602	995
502.072	993
502.543	1021
503.014	1058
503.484	1054
503.955	1084
504.426	1114
504.897	1122
505.368	1152
505.838	1170
506.309	1194
506.78	1228
507.251	1252
507.722	1281
508.194	1316
508.665	1329
509.136	1331
509.607	1366
510.078	1373
510.549	1381
511.021	1420
511.492	1427
511.964	1449
512.435	1464
512.906	1456
513.378	1472
513.849	1502
514.321	1499
514.793	1512
515.264	1536
515.736	1554
516.208	1586
516.679	1601
517.151	1615
517.623	1627
518.095	1649
518.567	1659
519.038	1695
519.51	1703
519.982	1708
520.454	1726
520.927	1748
521.399	1774
521.871	1790
522.343	1798
522.815	1829
523.287	1830
523.76	1837
524.232	1872
524.704	1871
525.177	1853
525.649	1859
526.122	1878
526.594	1840
527.067	1893
527.539	1921
528.012	1903
528.484	1898
528.957	1908
529.43	1903
529.903	1893
530.375	1958
530.848	1923
531.321	1947
531.794	1945
532.267	1983
532.74	1959
533.213	1950
533.686	1987
534.159	1986
534.632	2025
535.105	2041
535.578	2095
536.051	2101
536.525	2102
536.998	2097
537.471	2133
537.945	2118
538.418	2142
538.891	2148
539.365	2188
539.838	2197
540.312	2189
540.786	2193
541.259	2196
541.733	2232
542.206	2241
542.68	2209
543.154	2212
543.628	2217
544.101	2262
544.575	2236
545.049	2173
545.523	2218
545.997	2229
546.471	2240
546.945	2219
547.419	2263
547.893	2193
548.367	2228
548.842	2202
549.316	2223
549.79	2243
550.264	2213
550.739	2253
551.213	2242
551.687	2234
552.162	2259
552.636	2244
553.111	2244
553.585	2324
554.06	2293
554.534	2333
555.009	2307
555.484	2359
555.958	2392
556.433	2392
556.908	2431
557.383	2412
557.858	2474
558.333	2478
558.807	2467
559.282	2483
559.757	2555
560.232	2547
560.708	2495
561.183	2487
561.658	2530
562.133	2527
562.608	2505
563.083	2562
563.559	2514
564.034	2520
564.509	2520
564.985	2521
565.46	2498
565.936	2552
566.411	2559
566.887	2526
567.362	2550
567.838	2562
568.313	2584
568.789	2538
569.265	2535
569.74	2551
570.216	2540
570.692	2579
571.168	2576
571.644	2576
572.12	2581
572.596	2614
573.071	2637
573.547	2716
574.024	2733
574.5	2744
574.976	2741
575.452	2785
575.928	2813
576.404	2843
576.881	2951
577.357	2881
577.833	2905
578.31	2991
578.786	3010
579.262	3051
579.739	3003
580.215	3088
580.692	3084
581.169	3067
581.645	3069
582.122	3165
582.598	3175
583.075	3192
583.552	3196
584.029	3180
584.506	3143
584.982	3123
585.459	3201
585.936	3161
586.413	3204
586.89	3254
587.367	3216
587.844	3256
588.321	3233
588.799	3263
589.276	3243
589.753	3302
590.23	3320
590.707	3310
591.185	3300
591.662	3310
592.139	3337
592.617	3384
593.094	3366
593.572	3394
594.049	3442
594.527	3474
595.004	3484
595.482	3582
595.96	3562
596.437	3577
596.915	3669
597.393	3586
597.871	3661
598.349	3650
598.826	3721
599.304	3712
599.782	3782
600.26	3739
600.738	3820
601.216	3800
601.694	3818
602.173	3835
602.651	3856
603.129	3801
603.607	3846
604.085	3875
604.564	3876
605.042	3902
605.52	3872
605.999	3964
606.477	3850
606.956	3859
607.434	3902.5
607.913	3946
608.391	3948
608.87	3919
609.348	3848
609.827	3849
610.306	3881
610.785	3881
611.263	3883
611.742	3865
612.221	3816
612.7	3879
613.179	3902
613.658	3870
614.137	3931
614.616	3956
615.095	3883
615.574	3943
616.053	3973
616.532	3934
617.011	3939
617.491	3980
617.97	3962
618.449	4023
618.928	4049
619.408	3999
619.887	4049
620.367	4077
620.846	4121
621.326	4078
621.805	4172
622.285	4146
622.764	4188
623.244	4191
623.724	4205
624.203	4221
624.683	4160
625.163	4262
625.643	4263
626.123	4227
626.602	4316
627.082	4222
627.562	4206
628.042	4283
628.522	4232
629.002	4192
629.482	4243
629.963	4237
630.443	4237
630.923	4247
631.403	4268
631.883	4257
632.364	4251
632.844	4232
633.324	4254
633.805	4266
634.285	4224
634.766	4182
635.246	4177
635.727	4163
636.207	4170
636.688	4170
637.168	4176
637.649	4161
638.13	4120
638.611	4147
639.091	4155
639.572	4140
640.053	4127
640.534	4144
641.015	4132
641.496	4063
641.977	4147
642.458	4107
642.939	4116
643.42	4127
643.901	4124
644.382	4171
644.863	4142
645.345	4118
645.826	4114
646.307	4132
646.788	4203
647.27	4124
647.751	4126
648.233	4170
648.714	4071
649.196	4195
649.677	4192
650.159	4181
650.64	4140
651.122	4211
651.603	4133
652.085	4150
652.567	4162
653.049	4143
653.53	4140
654.012	4194
654.494	4108
654.976	4176
655.458	4172
655.94	4144
656.422	4199
656.904	4121
657.386	4071
657.868	4072
658.35	4051
658.833	4097
659.315	4128
659.797	4066
660.279	4059
660.762	4075
661.244	4042
661.726	3977
662.209	4012
662.691	4018
663.174	3939
663.656	3956
664.139	3945
664.621	3895
665.104	3884
665.587	3934
666.069	3950
666.552	3946
667.035	3883
667.517	3877
668	3910
668.483	3906
668.966	3866
669.449	3858
669.932	3874
670.415	3908
670.898	3874
671.381	3881
671.864	3893
672.347	3841
672.83	3858
673.313	3876
673.797	3878
674.28	3950
674.763	3941
675.247	3950
675.73	3923
676.213	3965
676.697	3985
677.18	3987
677.664	3991
678.147	3989
678.631	4025
679.114	4028
679.598	4019
680.082	4022
680.565	4004
681.049	3977
681.533	3984
682.017	4038
682.5	4020
682.984	4003
683.468	4014
683.952	3955
684.436	4026
684.92	3986
685.404	4004
685.888	4044
686.372	4007
686.856	4016
687.341	4062
687.825	4013
688.309	4035
688.793	4047
689.278	3990
689.762	4027
690.246	4017
690.731	4014
691.215	4031
691.7	3936
692.184	3969
692.669	3946
693.153	3946
693.638	3860
694.122	3861
694.607	3907
695.092	3832
695.577	3863
696.061	3795
696.546	3802
697.031	3764
697.516	3789
698.001	3780
698.486	3751
698.971	3807
699.456	3723
699.941	3726
700.426	3731
700.911	3788
701.396	3769
701.881	3796
702.366	3754
702.852	3724
703.337	3744
703.822	3748
704.308	3766
704.793	3806
705.278	3816
705.764	3817
706.249	3777
706.735	3787
707.22	3818
707.706	3781
708.191	3818
708.677	3808
709.163	3753
709.648	3756
710.134	3795
710.62	3745
711.106	3745
711.592	3795
712.077	3775
712.563	3693
713.049	3701
713.535	3774
714.021	3746
714.507	3720
714.993	3691
715.479	3726
715.966	3689
716.452	3685
716.938	3701
717.424	3578
717.91	3651
718.397	3628
718.883	3616
719.369	3627
719.856	3596
720.342	3663
720.829	3622
721.315	3632
721.802	3607
722.288	3643
722.775	3501
723.262	3399
723.748	3530
724.235	3496
724.722	3529
725.208	3431
725.695	3416
726.182	3402
726.669	3368
727.156	3381
727.643	3340
728.13	3341
728.617	3309
729.104	3330
729.591	3296
730.078	3343
730.565	3354
731.052	3329
731.539	3332
732.027	3302
732.514	3244
733.001	3266
733.488	3252
733.976	3250
734.463	3233
734.951	3240
735.438	3281
735.926	3248
736.413	3267
736.901	3224
737.388	3234
737.876	3243
738.364	3217
738.851	3236
739.339	3233
739.827	3263
740.314	3157
740.802	3183
741.29	3182
741.778	3144
742.266	3151
742.754	3163
743.242	3174
743.73	3104
744.218	3094
744.706	3044
745.194	3070
745.682	3052
746.17	3050
746.659	3059
747.147	2995
747.635	3012
748.123	3003
748.612	2964
749.1	2938
749.589	2967
750.077	2970
750.566	2980
751.054	2992
751.543	2984
752.031	2923
752.52	2902
753.008	2843
753.497	2850
753.986	2841
754.474	2824
754.963	2845
755.452	2790
755.941	2777
756.43	2780
756.919	2761
757.408	2739
757.896	2756
758.385	2747
758.875	2709
759.364	2709
759.853	2691
760.342	2644
760.831	2692
761.32	2664
761.809	2629
762.299	2640
762.788	2640
763.277	2631
763.767	2575
764.256	2569
764.745	2544
765.235	2591
765.724	2531
766.214	2564
766.703	2513
767.193	2466
767.683	2467
768.172	2419
768.662	2439
769.152	2407
769.641	2411
770.131	2363
770.621	2407
771.111	2377
771.601	2377
772.09	2369
772.58	2345
773.07	2350
773.56	2350
774.05	2296
774.54	2271
775.031	2256
775.521	2249
776.011	2252
776.501	2272
776.991	2221
777.482	2244
777.972	2179
778.462	2170
778.953	2185
779.443	2168
779.933	2172
780.424	2162
780.914	2175
781.405	2183
781.895	2165
782.386	2171
782.877	2149
783.367	2100
783.858	2083
784.349	2093
784.839	2072
785.33	2076
785.821	2060
786.312	2049
786.803	2056
787.293	2049
787.784	2014
788.275	1988
788.766	1961
789.257	1992
789.748	1955
790.24	1937
790.731	1924
791.222	1883
791.713	1872
792.204	1874
792.696	1828
793.187	1850
793.678	1828
794.169	1773
794.661	1814
795.152	1792
795.644	1773
796.135	1770
796.627	1787
797.118	1763
797.61	1737
798.101	1715
798.593	1743
799.085	1710
799.576	1721
800.068	1692
800.56	1696
801.052	1655
801.544	1649
802.035	1643
802.527	1616
803.019	1598
803.511	1589
804.003	1566
804.495	1574
804.987	1552
805.479	1515
805.971	1534
806.464	1533
806.956	1492
807.448	1494
807.94	1488
808.433	1479
808.925	1470
809.417	1446
809.91	1444
810.402	1397
810.894	1416
811.387	1416
811.879	1388
812.372	1402
812.865	1389
813.357	1386
813.85	1378
814.342	1375
814.835	1378
815.328	1363
815.821	1351
816.313	1353
816.806	1356
817.299	1345
817.792	1360
818.285	1339
818.778	1350
819.271	1349
819.764	1331
820.257	1336
820.75	1334
821.243	1346
821.736	1324
822.229	1332
822.722	1328
823.216	1359
