Data from lamp4helium_zwak_Subt2__6__406.txt Node

Date: Wed Apr 09 11:14:32 CEST 2025
User: fys-lab-0081
Spectrometer: S04999
Trigger mode: 0
Resolution mode: 1024 pixels
Integration Time (sec): 1.000000E-1
Scans to average: 1
Nonlinearity correction enabled: false
Boxcar width: 0
Baseline correction enabled: true
XAxis mode: Wavelengths
Number of Pixels in Spectrum: 1024
>>>>>Begin Spectral Data<<<<<
336.42	-1
336.877	5
337.334	4
337.792	5
338.249	5
338.706	3
339.164	2
339.621	3
340.079	4
340.536	0
340.994	3
341.452	5
341.909	6
342.367	1
342.825	-3
343.283	5
343.741	3
344.198	3
344.656	-1
345.114	1
345.572	3
346.03	4
346.488	4
346.947	0
347.405	3
347.863	1
348.321	0
348.779	9
349.238	2
349.696	3
350.154	0
350.613	5
351.071	5
351.53	9
351.988	5
352.447	2
352.905	2
353.364	8
353.823	9
354.282	6
354.74	-3
355.199	8
355.658	8
356.117	5
356.576	6
357.035	2
357.494	7
357.953	1
358.412	10
358.871	7
359.33	4
359.789	4
360.249	8
360.708	8
361.167	13
361.626	7
362.086	4
362.545	3
363.005	6
363.464	10
363.924	9
364.383	9
364.843	6
365.303	10
365.762	14
366.222	11
366.682	7
367.142	13
367.601	11
368.061	11
368.521	9
368.981	11
369.441	17
369.901	15
370.361	9
370.821	10
371.282	13
371.742	15
372.202	15
372.662	14
373.123	13
373.583	14
374.043	18
374.504	12
374.964	16
375.425	19
375.885	16
376.346	19
376.806	20
377.267	13
377.728	23
378.188	20
378.649	16
379.11	21
379.571	21
380.032	25
380.493	22
380.954	25
381.414	19
381.876	19
382.337	19
382.798	27
383.259	27
383.72	30
384.181	25
384.642	27
385.104	28
385.565	35
386.026	34
386.488	33
386.949	36
387.411	37
387.872	39
388.334	40
388.795	37
389.257	44
389.719	39
390.181	37
390.642	39
391.104	43
391.566	47
392.028	47
392.49	51
392.952	53
393.414	47
393.876	51
394.338	47
394.8	51
395.262	49
395.724	58
396.186	59
396.648	56
397.111	55
397.573	58
398.035	60
398.498	60
398.96	63
399.423	61
399.885	61
400.348	64
400.81	65
401.273	69
401.736	65
402.198	75
402.661	71
403.124	69
403.587	81
404.049	80.5
404.512	80
404.975	79
405.438	82
405.901	83
406.364	86
406.827	83
407.29	82
407.754	82
408.217	88
408.68	83
409.143	89
409.607	92
410.07	91
410.533	90
410.997	89
411.46	92
411.924	101
412.387	102
412.851	96
413.314	100
413.778	102
414.242	106
414.705	101
415.169	108
415.633	104
416.097	105
416.561	110
417.024	109
417.488	113
417.952	113
418.416	108
418.88	111
419.344	112
419.809	114
420.273	117
420.737	116
421.201	122
421.665	124
422.13	124
422.594	133
423.059	131
423.523	135
423.987	134
424.452	136
424.916	141
425.381	142
425.846	148
426.31	153
426.775	150
427.24	155
427.704	152
428.169	152
428.634	156
429.099	155
429.564	156
430.029	155
430.494	156
430.959	155
431.424	159
431.889	169
432.354	169
432.819	162
433.284	175
433.75	173
434.215	179
434.68	177
435.146	179
435.611	190
436.077	193
436.542	191
437.008	205
437.473	205
437.939	205
438.404	212
438.87	217
439.336	214
439.801	213
440.267	218
440.733	225
441.199	223
441.665	222
442.131	231
442.596	223
443.062	232
443.529	246
443.995	254
444.461	251
444.927	262
445.393	262
445.859	274
446.325	276
446.792	300
447.258	294
447.724	308
448.191	316
448.657	321
449.124	320
449.59	321
450.057	344
450.523	346
450.99	352
451.457	345
451.923	357
452.39	359
452.857	370
453.324	363
453.791	365
454.257	370
454.724	373
455.191	376
455.658	374
456.125	385
456.592	383
457.059	391
457.527	392
457.994	401
458.461	409
458.928	418
459.396	416
459.863	429
460.33	429
460.798	428
461.265	435
461.732	430
462.2	448
462.668	442
463.135	444
463.603	435
464.07	454
464.538	444
465.006	453
465.474	445
465.941	445
466.409	451
466.877	434
467.345	455
467.813	446
468.281	453
468.749	460
469.217	463
469.685	469
470.153	481
470.621	478
471.09	482
471.558	505
472.026	504
472.494	512
472.963	522
473.431	536
473.9	547
474.368	564
474.837	566
475.305	575
475.774	587
476.242	602
476.711	603
477.18	626
477.648	619
478.117	625
478.586	623
479.055	628
479.524	628
479.993	631
480.462	635
480.93	633
481.399	631
481.869	637
482.338	632
482.807	643
483.276	641
483.745	641
484.214	660
484.684	668
485.153	673
485.622	679
486.092	699
486.561	688
487.031	708
487.5	719
487.97	733
488.439	751
488.909	770
489.378	794
489.848	797
490.318	816
490.787	849
491.257	859
491.727	857
492.197	876
492.667	880
493.137	884
493.607	894
494.077	904
494.547	893
495.017	898
495.487	910
495.957	931
496.427	912
496.897	907
497.368	929
497.838	919
498.308	929
498.779	941
499.249	943
499.719	955
500.19	971
500.66	967
501.131	984
501.602	997
502.072	997
502.543	1019
503.014	1062
503.484	1054
503.955	1084
504.426	1117
504.897	1125
505.368	1147
505.838	1177
506.309	1199
506.78	1236
507.251	1252
507.722	1280
508.194	1318
508.665	1344
509.136	1331
509.607	1371
510.078	1381
510.549	1381
511.021	1426
511.492	1423
511.964	1451
512.435	1470
512.906	1468
513.378	1468
513.849	1501
514.321	1502
514.793	1518
515.264	1538
515.736	1559
516.208	1589
516.679	1604
517.151	1622
517.623	1630
518.095	1651
518.567	1666
519.038	1702
519.51	1707
519.982	1713
520.454	1722
520.927	1752
521.399	1789
521.871	1802
522.343	1808
522.815	1827
523.287	1831
523.76	1844
524.232	1868
524.704	1885
525.177	1856
525.649	1861
526.122	1886
526.594	1852
527.067	1894
527.539	1919
528.012	1900
528.484	1903
528.957	1916
529.43	1908
529.903	1890
530.375	1966
530.848	1921
531.321	1951
531.794	1952
532.267	1992
532.74	1965
533.213	1954
533.686	1990
534.159	1981
534.632	2033
535.105	2042
535.578	2103
536.051	2103
536.525	2107
536.998	2090
537.471	2149
537.945	2124
538.418	2152
538.891	2156
539.365	2186
539.838	2205
540.312	2189
540.786	2201
541.259	2201
541.733	2247
542.206	2250
542.68	2211
543.154	2213
543.628	2217
544.101	2273
544.575	2239
545.049	2185
545.523	2227
545.997	2229
546.471	2244
546.945	2227
547.419	2265
547.893	2192
548.367	2239
548.842	2213
549.316	2233
549.79	2242
550.264	2221
550.739	2257
551.213	2246
551.687	2241
552.162	2260
552.636	2252
553.111	2243
553.585	2328
554.06	2292
554.534	2326
555.009	2319
555.484	2359
555.958	2403
556.433	2402
556.908	2434
557.383	2417
557.858	2475
558.333	2478
558.807	2463
559.282	2488
559.757	2554
560.232	2545
560.708	2503
561.183	2482
561.658	2534
562.133	2529
562.608	2504
563.083	2566
563.559	2513
564.034	2527
564.509	2524
564.985	2518
565.46	2508
565.936	2564
566.411	2557
566.887	2525
567.362	2550
567.838	2557
568.313	2583
568.789	2543
569.265	2544
569.74	2551
570.216	2544
570.692	2577
571.168	2583
571.644	2593
572.12	2587
572.596	2614
573.071	2632
573.547	2712
574.024	2737
574.5	2739
574.976	2746
575.452	2783
575.928	2815
576.404	2837
576.881	2949
577.357	2894
577.833	2907
578.31	2993
578.786	3017
579.262	3051
579.739	3003
580.215	3090
580.692	3087
581.169	3063
581.645	3069
582.122	3170
582.598	3178
583.075	3191
583.552	3196
584.029	3190
584.506	3151
584.982	3120
585.459	3202
585.936	3154
586.413	3204
586.89	3258
587.367	3214
587.844	3261
588.321	3243
588.799	3262
589.276	3239
589.753	3293
590.23	3316
590.707	3306
591.185	3299
591.662	3310
592.139	3337
592.617	3370
593.094	3358
593.572	3396
594.049	3438
594.527	3479
595.004	3484
595.482	3577
595.96	3566
596.437	3579
596.915	3666
597.393	3585
597.871	3666
598.349	3649
598.826	3709
599.304	3706
599.782	3785
600.26	3742
600.738	3832
601.216	3803
601.694	3830
602.173	3835
602.651	3861
603.129	3804
603.607	3842
604.085	3878
604.564	3881
605.042	3906
605.52	3873
605.999	3965
606.477	3852
606.956	3850
607.434	3895.5
607.913	3941
608.391	3945
608.87	3917
609.348	3846
609.827	3852
610.306	3878
610.785	3884
611.263	3886
611.742	3864
612.221	3810
612.7	3871
613.179	3907
613.658	3864
614.137	3937
614.616	3954
615.095	3888
615.574	3936
616.053	3969
616.532	3918
617.011	3937
617.491	3970
617.97	3959
618.449	4026
618.928	4040
619.408	4008
619.887	4045
620.367	4074
620.846	4128
621.326	4071
621.805	4163
622.285	4153
622.764	4185
623.244	4190
623.724	4210
624.203	4223
624.683	4161
625.163	4267
625.643	4249
626.123	4227
626.602	4326
627.082	4225
627.562	4216
628.042	4285
628.522	4237
629.002	4194
629.482	4235
629.963	4245
630.443	4232
630.923	4245
631.403	4269
631.883	4250
632.364	4252
632.844	4227
633.324	4249
633.805	4271
634.285	4216
634.766	4177
635.246	4173
635.727	4167
636.207	4170
636.688	4171
637.168	4164
637.649	4169
638.13	4119
638.611	4152
639.091	4157
639.572	4130
640.053	4120
640.534	4143
641.015	4138
641.496	4065
641.977	4139
642.458	4098
642.939	4116
643.42	4129
643.901	4124
644.382	4154
644.863	4145
645.345	4117
645.826	4113
646.307	4126
646.788	4195
647.27	4123
647.751	4138
648.233	4167
648.714	4071
649.196	4196
649.677	4189
650.159	4191
650.64	4134
651.122	4210
651.603	4135
652.085	4147
652.567	4165
653.049	4140
653.53	4141
654.012	4198
654.494	4110
654.976	4170
655.458	4166
655.94	4144
656.422	4201
656.904	4122
657.386	4057
657.868	4067
658.35	4054
658.833	4103
659.315	4118
659.797	4062
660.279	4060
660.762	4070
661.244	4047
661.726	3988
662.209	3999
662.691	4012
663.174	3935
663.656	3954
664.139	3933
664.621	3900
665.104	3872
665.587	3935
666.069	3940
666.552	3931
667.035	3872
667.517	3877
668	3912
668.483	3914
668.966	3859
669.449	3854
669.932	3869
670.415	3905
670.898	3880
671.381	3876
671.864	3879
672.347	3840
672.83	3861
673.313	3884
673.797	3875
674.28	3938
674.763	3929
675.247	3942
675.73	3907
676.213	3960
676.697	3980
677.18	3980
677.664	3979
678.147	3977
678.631	4014
679.114	4030
679.598	4003
680.082	4022
680.565	3995
681.049	3970
681.533	3986
682.017	4036
682.5	4001
682.984	3999
683.468	4012
683.952	3951
684.436	4028
684.92	3973
685.404	3998
685.888	4041
686.372	4010
686.856	4005
687.341	4047
687.825	3999
688.309	4029
688.793	4039
689.278	3983
689.762	4020
690.246	4005
690.731	4011
691.215	4027
691.7	3930
692.184	3954
692.669	3936
693.153	3948
693.638	3852
694.122	3853
694.607	3892
695.092	3830
695.577	3869
696.061	3790
696.546	3792
697.031	3757
697.516	3790
698.001	3787
698.486	3746
698.971	3794
699.456	3721
699.941	3717
700.426	3728
700.911	3784
701.396	3764
701.881	3784
702.366	3748
702.852	3721
703.337	3735
703.822	3741
704.308	3762
704.793	3808
705.278	3810
705.764	3811
706.249	3775
706.735	3769
707.22	3809
707.706	3761
708.191	3804
708.677	3790
709.163	3748
709.648	3749
710.134	3782
710.62	3741
711.106	3736
711.592	3790
712.077	3773
712.563	3705
713.049	3697
713.535	3770
714.021	3743
714.507	3710
714.993	3680
715.479	3723
715.966	3672
716.452	3680
716.938	3690
717.424	3565
717.91	3642
718.397	3623
718.883	3595
719.369	3610
719.856	3590
720.342	3652
720.829	3604
721.315	3624
721.802	3599
722.288	3627
722.775	3486
723.262	3392
723.748	3522
724.235	3479
724.722	3513
725.208	3427
725.695	3406
726.182	3390
726.669	3357
727.156	3378
727.643	3333
728.13	3334
728.617	3303
729.104	3323
729.591	3298
730.078	3329
730.565	3341
731.052	3304
731.539	3316
732.027	3294
732.514	3234
733.001	3258
733.488	3249
733.976	3246
734.463	3214
734.951	3228
735.438	3262
735.926	3241
736.413	3250
736.901	3218
737.388	3240
737.876	3226
738.364	3204
738.851	3224
739.339	3214
739.827	3259
740.314	3145
740.802	3171
741.29	3185
741.778	3134
742.266	3146
742.754	3154
743.242	3164
743.73	3095
744.218	3072
744.706	3039
745.194	3058
745.682	3030
746.17	3042
746.659	3043
747.147	2984
747.635	3009
748.123	2991
748.612	2950
749.1	2932
749.589	2967
750.077	2969
750.566	2968
751.054	2972
751.543	2979
752.031	2910
752.52	2887
753.008	2836
753.497	2837
753.986	2836
754.474	2812
754.963	2838
755.452	2781
755.941	2777
756.43	2767
756.919	2756
757.408	2732
757.896	2739
758.385	2742
758.875	2697
759.364	2704
759.853	2681
760.342	2632
760.831	2686
761.32	2654
761.809	2618
762.299	2626
762.788	2637
763.277	2620
763.767	2569
764.256	2562
764.745	2540
765.235	2581
765.724	2522
766.214	2562
766.703	2508
767.193	2455
767.683	2459
768.172	2407
768.662	2422
769.152	2410
769.641	2412
770.131	2354
770.621	2400
771.111	2377
771.601	2367
772.09	2356
772.58	2334
773.07	2344
773.56	2347
774.05	2285
774.54	2268
775.031	2251
775.521	2246
776.011	2246
776.501	2257
776.991	2217
777.482	2228
777.972	2168
778.462	2166
778.953	2180
779.443	2161
779.933	2159
780.424	2146
780.914	2165
781.405	2166
781.895	2159
782.386	2161
782.877	2137
783.367	2098
783.858	2075
784.349	2076
784.839	2061
785.33	2068
785.821	2053
786.312	2040
786.803	2052
787.293	2045
787.784	2013
788.275	1981
788.766	1955
789.257	1982
789.748	1949
790.24	1924
790.731	1909
791.222	1874
791.713	1869
792.204	1865
792.696	1818
793.187	1841
793.678	1824
794.169	1767
794.661	1796
795.152	1783
795.644	1762
796.135	1767
796.627	1777
797.118	1751
797.61	1726
798.101	1702
798.593	1727
799.085	1707
799.576	1703
800.068	1682
800.56	1689
801.052	1650
801.544	1644
802.035	1641
802.527	1614
803.019	1591
803.511	1576
804.003	1561
804.495	1562
804.987	1541
805.479	1517
805.971	1525
806.464	1523
806.956	1493
807.448	1494
807.94	1481
808.433	1474
808.925	1462
809.417	1449
809.91	1432
810.402	1399
810.894	1409
811.387	1405
811.879	1382
812.372	1392
812.865	1385
813.357	1375
813.85	1373
814.342	1361
814.835	1371
815.328	1364
815.821	1351
816.313	1347
816.806	1346
817.299	1335
817.792	1354
818.285	1328
818.778	1346
819.271	1340
819.764	1325
820.257	1327
820.75	1332
821.243	1333
821.736	1324
822.229	1329
822.722	1324
823.216	1347
