Data from lamp4helium_zwak_Subt2__30__430.txt Node

Date: Wed Apr 09 11:14:35 CEST 2025
User: fys-lab-0081
Spectrometer: S04999
Trigger mode: 0
Resolution mode: 1024 pixels
Integration Time (sec): 1.000000E-1
Scans to average: 1
Nonlinearity correction enabled: false
Boxcar width: 0
Baseline correction enabled: true
XAxis mode: Wavelengths
Number of Pixels in Spectrum: 1024
>>>>>Begin Spectral Data<<<<<
336.42	1
336.877	5
337.334	0
337.792	2
338.249	3
338.706	3
339.164	3
339.621	2
340.079	3
340.536	3
340.994	5
341.452	4
341.909	8
342.367	1
342.825	1
343.283	6
343.741	2
344.198	2
344.656	2
345.114	2
345.572	4
346.03	1
346.488	0
346.947	3
347.405	8
347.863	3
348.321	3
348.779	7
349.238	2
349.696	4
350.154	0
350.613	0
351.071	6
351.53	9
351.988	8
352.447	3
352.905	-1
353.364	3
353.823	5
354.282	2
354.74	-1
355.199	4
355.658	10
356.117	4
356.576	6
357.035	4
357.494	7
357.953	6
358.412	7
358.871	6
359.33	5
359.789	2
360.249	8
360.708	8
361.167	9
361.626	8
362.086	6
362.545	9
363.005	7
363.464	10
363.924	9
364.383	8
364.843	10
365.303	15
365.762	13
366.222	13
366.682	10
367.142	11
367.601	9
368.061	9
368.521	13
368.981	11
369.441	18
369.901	10
370.361	14
370.821	10
371.282	14
371.742	12
372.202	11
372.662	16
373.123	12
373.583	18
374.043	16
374.504	11
374.964	11
375.425	18
375.885	18
376.346	17
376.806	22
377.267	17
377.728	22
378.188	26
378.649	19
379.11	22
379.571	17
380.032	26
380.493	20
380.954	24
381.414	22
381.876	26
382.337	25
382.798	22
383.259	27
383.72	29
384.181	23
384.642	29
385.104	31
385.565	32
386.026	36
386.488	36
386.949	34
387.411	33
387.872	35
388.334	40
388.795	43
389.257	44
389.719	40
390.181	38
390.642	36
391.104	40
391.566	46
392.028	50
392.49	53
392.952	49
393.414	50
393.876	55
394.338	48
394.8	49
395.262	51
395.724	55
396.186	55
396.648	55
397.111	54
397.573	61
398.035	55
398.498	58
398.96	62
399.423	61
399.885	64
400.348	62
400.81	65
401.273	69
401.736	66
402.198	72
402.661	71
403.124	72
403.587	80
404.049	78
404.512	76
404.975	79
405.438	85
405.901	84
406.364	84
406.827	84
407.29	83
407.754	85
408.217	84
408.68	86
409.143	92
409.607	94
410.07	95
410.533	91
410.997	94
411.46	96
411.924	101
412.387	102
412.851	100
413.314	100
413.778	101
414.242	105
414.705	112
415.169	108
415.633	107
416.097	108
416.561	108
417.024	111
417.488	111
417.952	113
418.416	106
418.88	111
419.344	106
419.809	118
420.273	114
420.737	113
421.201	122
421.665	121
422.13	125
422.594	131
423.059	126
423.523	133
423.987	130
424.452	141
424.916	139
425.381	144
425.846	138
426.31	154
426.775	151
427.24	155
427.704	149
428.169	157
428.634	159
429.099	156
429.564	156
430.029	155
430.494	157
430.959	155
431.424	156
431.889	160
432.354	169
432.819	164
433.284	175
433.75	174
434.215	183
434.68	178
435.146	179
435.611	188
436.077	198
436.542	196
437.008	206
437.473	204
437.939	204
438.404	214
438.87	218
439.336	214
439.801	210
440.267	212
440.733	222
441.199	222
441.665	227
442.131	234
442.596	225
443.062	234
443.529	245
443.995	245
444.461	249
444.927	268
445.393	260
445.859	274
446.325	278
446.792	297
447.258	292
447.724	307
448.191	311
448.657	318
449.124	324
449.59	319
450.057	345
450.523	345
450.99	347
451.457	350
451.923	359
452.39	351
452.857	368
453.324	360
453.791	367
454.257	369
454.724	380
455.191	374
455.658	373
456.125	386
456.592	379
457.059	386
457.527	392
457.994	404
458.461	407
458.928	418
459.396	414
459.863	427
460.33	426
460.798	427
461.265	435
461.732	433
462.2	448
462.668	440
463.135	449
463.603	431
464.07	454
464.538	442
465.006	451
465.474	448
465.941	446
466.409	448
466.877	435
467.345	450
467.813	448
468.281	458
468.749	461
469.217	456
469.685	464
470.153	480
470.621	480
471.09	481
471.558	507
472.026	505
472.494	516
472.963	522
473.431	533
473.9	547
474.368	560
474.837	566
475.305	576
475.774	582
476.242	604
476.711	603
477.18	626
477.648	615
478.117	619
478.586	627
479.055	628
479.524	630
479.993	629
480.462	630
480.93	630
481.399	633
481.869	636
482.338	630
482.807	643
483.276	643
483.745	640
484.214	655
484.684	667
485.153	678
485.622	677
486.092	699
486.561	684
487.031	711
487.5	716
487.97	731
488.439	749
488.909	770
489.378	791
489.848	798
490.318	810
490.787	849
491.257	852
491.727	858
492.197	876
492.667	879
493.137	887
493.607	889
494.077	893
494.547	894
495.017	891
495.487	909
495.957	930
496.427	911
496.897	904
497.368	926
497.838	916
498.308	925
498.779	937
499.249	945
499.719	957
500.19	968
500.66	975
501.131	977
501.602	996
502.072	1000
502.543	1022
503.014	1058
503.484	1056
503.955	1083
504.426	1116
504.897	1127
505.368	1151
505.838	1178
506.309	1197
506.78	1231
507.251	1252
507.722	1285
508.194	1317
508.665	1337
509.136	1331
509.607	1372
510.078	1378
510.549	1389
511.021	1420
511.492	1430
511.964	1441
512.435	1464
512.906	1459
513.378	1475
513.849	1504
514.321	1497
514.793	1516
515.264	1536
515.736	1557
516.208	1589
516.679	1600
517.151	1615
517.623	1634
518.095	1651
518.567	1673
519.038	1704
519.51	1698
519.982	1718
520.454	1722
520.927	1752
521.399	1775
521.871	1804
522.343	1802
522.815	1828
523.287	1815
523.76	1835
524.232	1875
524.704	1884
525.177	1857
525.649	1858
526.122	1882
526.594	1850
527.067	1891
527.539	1919
528.012	1905
528.484	1903
528.957	1915
529.43	1902
529.903	1890
530.375	1955
530.848	1923
531.321	1948
531.794	1944
532.267	1985
532.74	1962
533.213	1955
533.686	1991
534.159	1988
534.632	2032
535.105	2048
535.578	2102
536.051	2107
536.525	2104
536.998	2102
537.471	2148
537.945	2129
538.418	2149
538.891	2159
539.365	2190
539.838	2198
540.312	2188
540.786	2195
541.259	2211
541.733	2242
542.206	2243
542.68	2213
543.154	2217
543.628	2218
544.101	2275
544.575	2235
545.049	2171
545.523	2220
545.997	2225
546.471	2249
546.945	2217
547.419	2263
547.893	2185
548.367	2235
548.842	2210
549.316	2240
549.79	2248
550.264	2222
550.739	2244
551.213	2240
551.687	2240
552.162	2267
552.636	2244
553.111	2246
553.585	2328
554.06	2294
554.534	2331
555.009	2316
555.484	2356
555.958	2401
556.433	2401
556.908	2438
557.383	2414
557.858	2473
558.333	2479
558.807	2469
559.282	2484
559.757	2555
560.232	2549
560.708	2497
561.183	2495
561.658	2531
562.133	2538
562.608	2507
563.083	2571
563.559	2514
564.034	2520
564.509	2522
564.985	2527
565.46	2508
565.936	2559
566.411	2557
566.887	2527
567.362	2555
567.838	2559
568.313	2593
568.789	2540
569.265	2529
569.74	2548
570.216	2539
570.692	2582
571.168	2571
571.644	2587
572.12	2584
572.596	2612
573.071	2635
573.547	2715
574.024	2745
574.5	2740
574.976	2745
575.452	2789
575.928	2816
576.404	2847
576.881	2945
577.357	2891
577.833	2905
578.31	2986
578.786	3026
579.262	3055
579.739	3012
580.215	3095
580.692	3086
581.169	3069
581.645	3074
582.122	3169
582.598	3178
583.075	3190
583.552	3201
584.029	3188
584.506	3142
584.982	3121
585.459	3207
585.936	3164
586.413	3192
586.89	3259
587.367	3220
587.844	3264
588.321	3240
588.799	3268
589.276	3242
589.753	3295
590.23	3321
590.707	3307
591.185	3308
591.662	3304
592.139	3342
592.617	3394
593.094	3362
593.572	3393
594.049	3447
594.527	3482
595.004	3484
595.482	3577
595.96	3566
596.437	3575
596.915	3663
597.393	3590
597.871	3660
598.349	3644
598.826	3715
599.304	3710
599.782	3785
600.26	3737
600.738	3816
601.216	3808
601.694	3834
602.173	3841
602.651	3860
603.129	3811
603.607	3851
604.085	3869
604.564	3876
605.042	3906
605.52	3868
605.999	3962
606.477	3860
606.956	3856
607.434	3908
607.913	3960
608.391	3956
608.87	3919
609.348	3850
609.827	3850
610.306	3880
610.785	3883
611.263	3884
611.742	3868
612.221	3819
612.7	3887
613.179	3913
613.658	3874
614.137	3928
614.616	3950
615.095	3879
615.574	3933
616.053	3983
616.532	3936
617.011	3941
617.491	3979
617.97	3972
618.449	4020
618.928	4047
619.408	4017
619.887	4061
620.367	4078
620.846	4130
621.326	4090
621.805	4164
622.285	4153
622.764	4188
623.244	4191
623.724	4210
624.203	4227
624.683	4163
625.163	4267
625.643	4262
626.123	4229
626.602	4330
627.082	4227
627.562	4217
628.042	4287
628.522	4244
629.002	4195
629.482	4239
629.963	4243
630.443	4237
630.923	4252
631.403	4274
631.883	4254
632.364	4244
632.844	4234
633.324	4251
633.805	4277
634.285	4219
634.766	4176
635.246	4177
635.727	4167
636.207	4176
636.688	4176
637.168	4178
637.649	4162
638.13	4125
638.611	4157
639.091	4157
639.572	4138
640.053	4134
640.534	4154
641.015	4138
641.496	4063
641.977	4152
642.458	4120
642.939	4122
643.42	4121
643.901	4129
644.382	4171
644.863	4154
645.345	4129
645.826	4121
646.307	4136
646.788	4206
647.27	4127
647.751	4146
648.233	4168
648.714	4083
649.196	4199
649.677	4193
650.159	4192
650.64	4147
651.122	4220
651.603	4142
652.085	4160
652.567	4172
653.049	4145
653.53	4143
654.012	4205
654.494	4109
654.976	4177
655.458	4170
655.94	4147
656.422	4208
656.904	4119
657.386	4068
657.868	4083
658.35	4059
658.833	4107
659.315	4122
659.797	4060
660.279	4064
660.762	4088
661.244	4047
661.726	3998
662.209	4015
662.691	4020
663.174	3943
663.656	3961
664.139	3942
664.621	3905
665.104	3893
665.587	3938
666.069	3950
666.552	3946
667.035	3886
667.517	3877
668	3917
668.483	3915
668.966	3867
669.449	3857
669.932	3870
670.415	3921
670.898	3881
671.381	3886
671.864	3894
672.347	3849
672.83	3860
673.313	3886
673.797	3880
674.28	3957
674.763	3939
675.247	3955
675.73	3921
676.213	3963
676.697	3986
677.18	3993
677.664	3997
678.147	3991
678.631	4021
679.114	4045
679.598	4011
680.082	4027
680.565	3997
681.049	3975
681.533	3997
682.017	4040
682.5	4013
682.984	3998
683.468	4013
683.952	3952
684.436	4027
684.92	3989
685.404	4002
685.888	4043
686.372	4018
686.856	4015
687.341	4053
687.825	4007
688.309	4043
688.793	4051
689.278	3996
689.762	4037
690.246	4017
690.731	4024
691.215	4042
691.7	3943
692.184	3967
692.669	3949
693.153	3955
693.638	3867
694.122	3850
694.607	3900
695.092	3836
695.577	3876
696.061	3802
696.546	3800
697.031	3756
697.516	3794
698.001	3788
698.486	3756
698.971	3812
699.456	3739
699.941	3726
700.426	3731
700.911	3787
701.396	3774
701.881	3802
702.366	3768
702.852	3732
703.337	3753
703.822	3755
704.308	3776
704.793	3820
705.278	3818
705.764	3822
706.249	3786
706.735	3782
707.22	3824
707.706	3771
708.191	3827
708.677	3811
709.163	3760
709.648	3752
710.134	3798
710.62	3750
711.106	3748
711.592	3802
712.077	3789
712.563	3703
713.049	3700
713.535	3780
714.021	3738
714.507	3729
714.993	3687
715.479	3734
715.966	3692
716.452	3685
716.938	3687
717.424	3580
717.91	3652
718.397	3639
718.883	3617
719.369	3630
719.856	3603
720.342	3666
720.829	3617
721.315	3636
721.802	3614
722.288	3641
722.775	3502
723.262	3411
723.748	3537
724.235	3496
724.722	3526
725.208	3450
725.695	3419
726.182	3395
726.669	3368
727.156	3386
727.643	3348
728.13	3349
728.617	3314
729.104	3333
729.591	3307
730.078	3353
730.565	3365
731.052	3320
731.539	3335
732.027	3294
732.514	3241
733.001	3260
733.488	3258
733.976	3255
734.463	3236
734.951	3252
735.438	3282
735.926	3247
736.413	3268
736.901	3228
737.388	3244
737.876	3239
738.364	3213
738.851	3231
739.339	3231
739.827	3261
740.314	3158
740.802	3176
741.29	3183
741.778	3147
742.266	3158
742.754	3161
743.242	3173
743.73	3104
744.218	3092
744.706	3053
745.194	3077
745.682	3045
746.17	3058
746.659	3058
747.147	2999
747.635	3022
748.123	3002
748.612	2965
749.1	2949
749.589	2973
750.077	2978
750.566	2973
751.054	2988
751.543	2993
752.031	2913
752.52	2905
753.008	2846
753.497	2851
753.986	2854
754.474	2829
754.963	2849
755.452	2791
755.941	2779
756.43	2774
756.919	2761
757.408	2740
757.896	2753
758.385	2750
758.875	2714
759.364	2716
759.853	2691
760.342	2643
760.831	2693
761.32	2663
761.809	2633
762.299	2640
762.788	2654
763.277	2627
763.767	2584
764.256	2570
764.745	2546
765.235	2602
765.724	2529
766.214	2570
766.703	2516
767.193	2462
767.683	2468
768.172	2416
768.662	2430
769.152	2411
769.641	2410
770.131	2368
770.621	2405
771.111	2375
771.601	2383
772.09	2368
772.58	2348
773.07	2350
773.56	2353
774.05	2296
774.54	2279
775.031	2266
775.521	2254
776.011	2258
776.501	2269
776.991	2221
777.482	2245
777.972	2177
778.462	2175
778.953	2186
779.443	2177
779.933	2168
780.424	2155
780.914	2170
781.405	2176
781.895	2176
782.386	2173
782.877	2148
783.367	2107
783.858	2084
784.349	2091
784.839	2072
785.33	2074
785.821	2073
786.312	2058
786.803	2064
787.293	2051
787.784	2019
788.275	1991
788.766	1970
789.257	1996
789.748	1950
790.24	1927
790.731	1923
791.222	1885
791.713	1866
792.204	1879
792.696	1826
793.187	1845
793.678	1833
794.169	1769
794.661	1805
795.152	1792
795.644	1777
796.135	1772
796.627	1786
797.118	1755
797.61	1733
798.101	1716
798.593	1736
799.085	1706
799.576	1717
800.068	1693
800.56	1694
801.052	1659
801.544	1652
802.035	1649
802.527	1623
803.019	1605
803.511	1589
804.003	1570
804.495	1575
804.987	1558
805.479	1523
805.971	1529
806.464	1534
806.956	1500
807.448	1494
807.94	1482
808.433	1480
808.925	1467
809.417	1454
809.91	1443
810.402	1402
810.894	1415
811.387	1419
811.879	1391
812.372	1408
812.865	1390
813.357	1386
813.85	1384
814.342	1374
814.835	1378
815.328	1369
815.821	1350
816.313	1352
816.806	1356
817.299	1342
817.792	1360
818.285	1341
818.778	1348
819.271	1351
819.764	1326
820.257	1336
820.75	1336
821.243	1345
821.736	1330
822.229	1338
822.722	1326
823.216	1358
