Data from lamp4helium_zwak_Subt4__9__9.txt Node

Date: Wed Apr 09 09:32:55 CEST 2025
User: fys-lab-0081
Spectrometer: S04999
Trigger mode: 0
Resolution mode: 1024 pixels
Integration Time (sec): 1.000000E-1
Scans to average: 1
Nonlinearity correction enabled: false
Boxcar width: 0
Baseline correction enabled: true
XAxis mode: Wavelengths
Number of Pixels in Spectrum: 1024
>>>>>Begin Spectral Data<<<<<
336.42	2
336.877	-1
337.334	0
337.792	1
338.249	5
338.706	1
339.164	2
339.621	1
340.079	0
340.536	5
340.994	4
341.452	-3
341.909	-2
342.367	-1
342.825	1
343.283	3
343.741	-1
344.198	2
344.656	1
345.114	1
345.572	3
346.03	4
346.488	1
346.947	1
347.405	6
347.863	0
348.321	10
348.779	4
349.238	2
349.696	2
350.154	4
350.613	2
351.071	1
351.53	4
351.988	5
352.447	7
352.905	2
353.364	0
353.823	1
354.282	1
354.74	2
355.199	3
355.658	7
356.117	4
356.576	7
357.035	3
357.494	6
357.953	7
358.412	10
358.871	5
359.33	5
359.789	4
360.249	4
360.708	7
361.167	3
361.626	11
362.086	8
362.545	10
363.005	10
363.464	5
363.924	7
364.383	9
364.843	3
365.303	10
365.762	9
366.222	7
366.682	12
367.142	7
367.601	8
368.061	7
368.521	19
368.981	8
369.441	14
369.901	15
370.361	11
370.821	9
371.282	16
371.742	15
372.202	12
372.662	17
373.123	16
373.583	14
374.043	14
374.504	10
374.964	12
375.425	12
375.885	15
376.346	18
376.806	14
377.267	18
377.728	18
378.188	19
378.649	19
379.11	18
379.571	17
380.032	16
380.493	19
380.954	23
381.414	17
381.876	20
382.337	27
382.798	28
383.259	33
383.72	23
384.181	26
384.642	21
385.104	34
385.565	37
386.026	28
386.488	28
386.949	34
387.411	33
387.872	29
388.334	35
388.795	37
389.257	43
389.719	37
390.181	36
390.642	42
391.104	42
391.566	38
392.028	47
392.49	34
392.952	42
393.414	47
393.876	45
394.338	44
394.8	44
395.262	50
395.724	50
396.186	48
396.648	51
397.111	50
397.573	53
398.035	55
398.498	58
398.96	52
399.423	58
399.885	62
400.348	60
400.81	66
401.273	57
401.736	66
402.198	64
402.661	61
403.124	64
403.587	67
404.049	71
404.512	75
404.975	74
405.438	71
405.901	74
406.364	77
406.827	76
407.29	76
407.754	79
408.217	79
408.68	75
409.143	79
409.607	86
410.07	81
410.533	81
410.997	83
411.46	82
411.924	85
412.387	86
412.851	85
413.314	89
413.778	89
414.242	96
414.705	96
415.169	97
415.633	98
416.097	98
416.561	99
417.024	101
417.488	104
417.952	104
418.416	104
418.88	100
419.344	101
419.809	101
420.273	110
420.737	106
421.201	95
421.665	110
422.13	109
422.594	116
423.059	116
423.523	114
423.987	121
424.452	122
424.916	126
425.381	130
425.846	129
426.31	128
426.775	128
427.24	137
427.704	127
428.169	139
428.634	138
429.099	133
429.564	133
430.029	141
430.494	142
430.959	141
431.424	132
431.889	139
432.354	144
432.819	142
433.284	146
433.75	144
434.215	156
434.68	157
435.146	158
435.611	166
436.077	169
436.542	173
437.008	182
437.473	184
437.939	186
438.404	186
438.87	194
439.336	188
439.801	184
440.267	191
440.733	198
441.199	202
441.665	196
442.131	205
442.596	202
443.062	201
443.529	214
443.995	216
444.461	217
444.927	232
445.393	230
445.859	245
446.325	245
446.792	261
447.258	261
447.724	271
448.191	280
448.657	278
449.124	291
449.59	286
450.057	309
450.523	303
450.99	310
451.457	307
451.923	318
452.39	317
452.857	324
453.324	316
453.791	328
454.257	327
454.724	329
455.191	333
455.658	326
456.125	345
456.592	338
457.059	346
457.527	346
457.994	358
458.461	362
458.928	371
459.396	369
459.863	383
460.33	380
460.798	385
461.265	380
461.732	381
462.2	392
462.668	387
463.135	403
463.603	387
464.07	391
464.538	382
465.006	399
465.474	391
465.941	392
466.409	397
466.877	388
467.345	403
467.813	400
468.281	405
468.749	403
469.217	409
469.685	406
470.153	419
470.621	416
471.09	428
471.558	435
472.026	443
472.494	455
472.963	458
473.431	471
473.9	484
474.368	494
474.837	501
475.305	505
475.774	523
476.242	538
476.711	535
477.18	548
477.648	549
478.117	556
478.586	549
479.055	552
479.524	554
479.993	556
480.462	555
480.93	563
481.399	556
481.869	569
482.338	566
482.807	570
483.276	563
483.745	573
484.214	585
484.684	599
485.153	596
485.622	595
486.092	621
486.561	612
487.031	628
487.5	636
487.97	653
488.439	663
488.909	681
489.378	700
489.848	698
490.318	720
490.787	749
491.257	756
491.727	764
492.197	780
492.667	771
493.137	782
493.607	790
494.077	801
494.547	786
495.017	795
495.487	807
495.957	831
496.427	809
496.897	812
497.368	825
497.838	825
498.308	835
498.779	842
499.249	850
499.719	860
500.19	868
500.66	874
501.131	873
501.602	898
502.072	894
502.543	911
503.014	948
503.484	951
503.955	977
504.426	1007
504.897	1027
505.368	1043
505.838	1057
506.309	1081
506.78	1112
507.251	1140
507.722	1152
508.194	1191
508.665	1208
509.136	1199
509.607	1244
510.078	1248
510.549	1247
511.021	1283
511.492	1303
511.964	1317
512.435	1342
512.906	1335
513.378	1348
513.849	1378
514.321	1380
514.793	1387
515.264	1399
515.736	1403
516.208	1445
516.679	1466
517.151	1478
517.623	1485
518.095	1515
518.567	1532
519.038	1565
519.51	1567
519.982	1595
520.454	1612
520.927	1617
521.399	1639
521.871	1670
522.343	1677
522.815	1699
523.287	1693
523.76	1708
524.232	1741
524.704	1746
525.177	1714
525.649	1722
526.122	1766
526.594	1734
527.067	1773
527.539	1781
528.012	1767
528.484	1775
528.957	1785
529.43	1775
529.903	1776
530.375	1845
530.848	1800
531.321	1838
531.794	1828
532.267	1869
532.74	1851
533.213	1843
533.686	1882
534.159	1871
534.632	1925
535.105	1931
535.578	1942
536.051	1950
536.525	1961
536.998	1989
537.471	2034
537.945	1972
538.418	2009
538.891	2038
539.365	2061
539.838	2084
540.312	2082
540.786	2106
541.259	2079
541.733	2108
542.206	2114
542.68	2093
543.154	2100
543.628	2109
544.101	2162
544.575	2141
545.049	2098
545.523	2144
545.997	2139
546.471	2150
546.945	2126
547.419	2174
547.893	2106
548.367	2133
548.842	2120
549.316	2142
549.79	2158
550.264	2139
550.739	2194
551.213	2173
551.687	2173
552.162	2197
552.636	2174
553.111	2166
553.585	2249
554.06	2221
554.534	2280
555.009	2267
555.484	2291
555.958	2334
556.433	2334
556.908	2353
557.383	2311
557.858	2353
558.333	2375
558.807	2377
559.282	2385
559.757	2458
560.232	2465
560.708	2426
561.183	2419
561.658	2450
562.133	2453
562.608	2449
563.083	2489
563.559	2437
564.034	2458
564.509	2473
564.985	2506
565.46	2465
565.936	2516
566.411	2505
566.887	2489
567.362	2496
567.838	2470
568.313	2504
568.789	2479
569.265	2498
569.74	2517
570.216	2481
570.692	2521
571.168	2535
571.644	2558
572.12	2556
572.596	2576
573.071	2593
573.547	2675
574.024	2670
574.5	2688
574.976	2714
575.452	2786
575.928	2793
576.404	2790
576.881	2881
577.357	2839
577.833	2877
578.31	2949
578.786	2953
579.262	2999
579.739	2967
580.215	3055
580.692	3063
581.169	3039
581.645	3045
582.122	3133
582.598	3106
583.075	3090
583.552	3120
584.029	3151
584.506	3154
584.982	3114
585.459	3185
585.936	3180
586.413	3240
586.89	3270
587.367	3222
587.844	3253
588.321	3240
588.799	3261
589.276	3219
589.753	3233
590.23	3273
590.707	3282
591.185	3297
591.662	3296
592.139	3313
592.617	3379
593.094	3394
593.572	3393
594.049	3404
594.527	3437
595.004	3467
595.482	3571
595.96	3530
596.437	3528
596.915	3617
597.393	3597
597.871	3691
598.349	3639
598.826	3693
599.304	3705
599.782	3798
600.26	3787
600.738	3850
601.216	3803
601.694	3802
602.173	3826
602.651	3853
603.129	3807
603.607	3826
604.085	3849
604.564	3847
605.042	3857
605.52	3823
605.999	3907
606.477	3847
606.956	3919
607.434	3928.5
607.913	3938
608.391	3900
608.87	3909
609.348	3873
609.827	3898
610.306	3909
610.785	3890
611.263	3913
611.742	3894
612.221	3865
612.7	3905
613.179	3935
613.658	3885
614.137	3988
614.616	4037
615.095	3950
615.574	3970
616.053	4001
616.532	3962
617.011	3991
617.491	3999
617.97	3983
618.449	4068
618.928	4135
619.408	4119
619.887	4129
620.367	4116
620.846	4193
621.326	4192
621.805	4295
622.285	4260
622.764	4268
623.244	4265
623.724	4293
624.203	4302
624.683	4214
625.163	4304
625.643	4303
626.123	4271
626.602	4368
627.082	4269
627.562	4251
628.042	4375
628.522	4353
629.002	4328
629.482	4313
629.963	4278
630.443	4221
630.923	4243
631.403	4282
631.883	4281
632.364	4298
632.844	4245
633.324	4280
633.805	4294
634.285	4262
634.766	4257
635.246	4267
635.727	4232
636.207	4216
636.688	4229
637.168	4185
637.649	4132
638.13	4090
638.611	4143
639.091	4178
639.572	4169
640.053	4153
640.534	4176
641.015	4172
641.496	4160
641.977	4270
642.458	4233
642.939	4200
643.42	4176
643.901	4197
644.382	4252
644.863	4256
645.345	4235
645.826	4247
646.307	4220
646.788	4258
647.27	4158
647.751	4153
648.233	4179
648.714	4138
649.196	4250
649.677	4246
650.159	4242
650.64	4178
651.122	4254
651.603	4187
652.085	4208
652.567	4233
653.049	4186
653.53	4188
654.012	4262
654.494	4146
654.976	4144
655.458	4091
655.94	4064
656.422	4127
656.904	4068
657.386	4022
657.868	4044
658.35	4042
658.833	4107
659.315	4130
659.797	4080
660.279	4074
660.762	4095
661.244	4060
661.726	3984
662.209	3980
662.691	3962
663.174	3877
663.656	3888
664.139	3888
664.621	3874
665.104	3851
665.587	3908
666.069	3929
666.552	3926
667.035	3880
667.517	3907
668	3911
668.483	3880
668.966	3820
669.449	3856
669.932	3875
670.415	3925
670.898	3883
671.381	3887
671.864	3915
672.347	3876
672.83	3880
673.313	3841
673.797	3820
674.28	3874
674.763	3851
675.247	3834
675.73	3783
676.213	3829
676.697	3865
677.18	3853
677.664	3824
678.147	3826
678.631	3869
679.114	3888
679.598	3871
680.082	3872
680.565	3839
681.049	3821
681.533	3837
682.017	3878
682.5	3869
682.984	3874
683.468	3860
683.952	3753
684.436	3814
684.92	3756
685.404	3786
685.888	3797
686.372	3743
686.856	3755
687.341	3824
687.825	3786
688.309	3813
688.793	3784
689.278	3695
689.762	3713
690.246	3702
690.731	3690
691.215	3713
691.7	3576
692.184	3606
692.669	3569
693.153	3603
693.638	3574
694.122	3557
694.607	3585
695.092	3528
695.577	3575
696.061	3511
696.546	3530
697.031	3526
697.516	3541
698.001	3552
698.486	3503
698.971	3547
699.456	3503
699.941	3502
700.426	3481
700.911	3478
701.396	3397
701.881	3415
702.366	3406
702.852	3414
703.337	3427
703.822	3394
704.308	3376
704.793	3373
705.278	3377
705.764	3415
706.249	3407
706.735	3394
707.22	3439
707.706	3380
708.191	3433
708.677	3444
709.163	3392
709.648	3384
710.134	3405
710.62	3331
711.106	3325
711.592	3344
712.077	3334
712.563	3251
713.049	3231
713.535	3269
714.021	3214
714.507	3190
714.993	3171
715.479	3222
715.966	3206
716.452	3232
716.938	3237
717.424	3123
717.91	3173
718.397	3135
718.883	3104
719.369	3103
719.856	3042
720.342	3070
720.829	2992
721.315	2995
721.802	2974
722.288	3013
722.775	2904
723.262	2827
723.748	2913
724.235	2879
724.722	2899
725.208	2852
725.695	2867
726.182	2855
726.669	2808
727.156	2809
727.643	2791
728.13	2797
728.617	2767
729.104	2799
729.591	2761
730.078	2765
730.565	2747
731.052	2700
731.539	2718
732.027	2723
732.514	2705
733.001	2728
733.488	2687
733.976	2651
734.463	2612
734.951	2598
735.438	2627
735.926	2593
736.413	2616
736.901	2592
737.388	2621
737.876	2600
738.364	2576
738.851	2586
739.339	2574
739.827	2621
740.314	2536
740.802	2546
741.29	2531
741.778	2474
742.266	2467
742.754	2462
743.242	2478
743.73	2421
744.218	2427
744.706	2401
745.194	2417
745.682	2397
746.17	2402
746.659	2404
747.147	2332
747.635	2339
748.123	2319
748.612	2276
749.1	2266
749.589	2301
750.077	2280
750.566	2259
751.054	2259
751.543	2275
752.031	2224
752.52	2214
753.008	2174
753.497	2171
753.986	2144
754.474	2124
754.963	2166
755.452	2133
755.941	2119
756.43	2097
756.919	2094
757.408	2084
757.896	2086
758.385	2079
758.875	2057
759.364	2040
759.853	2021
760.342	1981
760.831	2013
761.32	1987
761.809	1939
762.299	1954
762.788	1956
763.277	1936
763.767	1912
764.256	1910
764.745	1873
765.235	1895
765.724	1829
766.214	1865
766.703	1841
767.193	1812
767.683	1800
768.172	1759
768.662	1781
769.152	1770
769.641	1793
770.131	1750
770.621	1770
771.111	1746
771.601	1739
772.09	1722
772.58	1685
773.07	1687
773.56	1701
774.05	1666
774.54	1670
775.031	1666
775.521	1657
776.011	1646
776.501	1657
776.991	1604
777.482	1610
777.972	1579
778.462	1577
778.953	1590
779.443	1566
779.933	1543
780.424	1524
780.914	1532
781.405	1545
781.895	1538
782.386	1520
782.877	1513
783.367	1471
783.858	1454
784.349	1447
784.839	1443
785.33	1437
785.821	1427
786.312	1402
786.803	1399
787.293	1376
787.784	1351
788.275	1350
788.766	1331
789.257	1350
789.748	1313
790.24	1297
790.731	1322
791.222	1305
791.713	1299
792.204	1295
792.696	1259
793.187	1278
793.678	1267
794.169	1243
794.661	1265
795.152	1244
795.644	1235
796.135	1221
796.627	1227
797.118	1212
797.61	1202
798.101	1197
798.593	1212
799.085	1202
799.576	1202
800.068	1182
800.56	1177
801.052	1144
801.544	1133
802.035	1132
802.527	1104
803.019	1093
803.511	1079
804.003	1069
804.495	1074
804.987	1059
805.479	1036
805.971	1050
806.464	1048
806.956	1023
807.448	1029
807.94	1028
808.433	1011
808.925	1018
809.417	1004
809.91	1001
810.402	979
810.894	983
811.387	983
811.879	959
812.372	964
812.865	946
813.357	937
813.85	928
814.342	934
814.835	931
815.328	933
815.821	917
816.313	913
816.806	922
817.299	911
817.792	919
818.285	914
818.778	920
819.271	910
819.764	902
820.257	902
820.75	901
821.243	892
821.736	877
822.229	898
822.722	893
823.216	911
