Data from lamp4helium_zwak_Subt2__37__437.txt Node

Date: Wed Apr 09 11:14:35 CEST 2025
User: fys-lab-0081
Spectrometer: S04999
Trigger mode: 0
Resolution mode: 1024 pixels
Integration Time (sec): 1.000000E-1
Scans to average: 1
Nonlinearity correction enabled: false
Boxcar width: 0
Baseline correction enabled: true
XAxis mode: Wavelengths
Number of Pixels in Spectrum: 1024
>>>>>Begin Spectral Data<<<<<
336.42	-3
336.877	3
337.334	0
337.792	1
338.249	2
338.706	2
339.164	1
339.621	1
340.079	6
340.536	3
340.994	0
341.452	7
341.909	8
342.367	4
342.825	1
343.283	8
343.741	3
344.198	2
344.656	1
345.114	0
345.572	4
346.03	-4
346.488	3
346.947	0
347.405	5
347.863	7
348.321	3
348.779	5
349.238	0
349.696	5
350.154	3
350.613	2
351.071	4
351.53	8
351.988	8
352.447	3
352.905	-1
353.364	2
353.823	4
354.282	5
354.74	-2
355.199	5
355.658	10
356.117	8
356.576	2
357.035	4
357.494	5
357.953	5
358.412	5
358.871	7
359.33	4
359.789	5
360.249	4
360.708	7
361.167	8
361.626	3
362.086	5
362.545	8
363.005	9
363.464	5
363.924	8
364.383	7
364.843	11
365.303	11
365.762	12
366.222	13
366.682	9
367.142	11
367.601	7
368.061	8
368.521	11
368.981	9
369.441	11
369.901	18
370.361	14
370.821	11
371.282	15
371.742	11
372.202	16
372.662	19
373.123	12
373.583	13
374.043	16
374.504	12
374.964	14
375.425	15
375.885	18
376.346	19
376.806	21
377.267	14
377.728	24
378.188	20
378.649	19
379.11	18
379.571	18
380.032	26
380.493	21
380.954	25
381.414	21
381.876	22
382.337	22
382.798	26
383.259	26
383.72	26
384.181	29
384.642	28
385.104	29
385.565	33
386.026	38
386.488	35
386.949	38
387.411	38
387.872	36
388.334	39
388.795	38
389.257	42
389.719	36
390.181	35
390.642	42
391.104	40
391.566	45
392.028	42
392.49	50
392.952	51
393.414	52
393.876	53
394.338	47
394.8	50
395.262	43
395.724	56
396.186	57
396.648	59
397.111	55
397.573	58
398.035	60
398.498	64
398.96	65
399.423	57
399.885	62
400.348	65
400.81	65
401.273	65
401.736	66
402.198	72
402.661	76
403.124	71
403.587	78
404.049	78.5
404.512	79
404.975	78
405.438	82
405.901	85
406.364	88
406.827	87
407.29	84
407.754	84
408.217	85
408.68	86
409.143	95
409.607	95
410.07	90
410.533	91
410.997	90
411.46	96
411.924	99
412.387	100
412.851	98
413.314	100
413.778	104
414.242	104
414.705	111
415.169	109
415.633	109
416.097	111
416.561	111
417.024	110
417.488	107
417.952	112
418.416	113
418.88	109
419.344	107
419.809	112
420.273	117
420.737	114
421.201	121
421.665	120
422.13	129
422.594	130
423.059	129
423.523	131
423.987	133
424.452	141
424.916	139
425.381	148
425.846	141
426.31	158
426.775	152
427.24	154
427.704	151
428.169	158
428.634	157
429.099	153
429.564	154
430.029	156
430.494	154
430.959	156
431.424	157
431.889	166
432.354	168
432.819	161
433.284	174
433.75	169
434.215	180
434.68	177
435.146	180
435.611	189
436.077	194
436.542	197
437.008	202
437.473	208
437.939	204
438.404	213
438.87	215
439.336	214
439.801	211
440.267	218
440.733	220
441.199	221
441.665	225
442.131	235
442.596	225
443.062	234
443.529	240
443.995	248
444.461	247
444.927	261
445.393	257
445.859	271
446.325	279
446.792	296
447.258	296
447.724	305
448.191	316
448.657	317
449.124	321
449.59	319
450.057	342
450.523	344
450.99	352
451.457	344
451.923	359
452.39	350
452.857	367
453.324	363
453.791	368
454.257	365
454.724	375
455.191	372
455.658	376
456.125	386
456.592	380
457.059	387
457.527	394
457.994	406
458.461	408
458.928	415
459.396	413
459.863	427
460.33	426
460.798	431
461.265	435
461.732	436
462.2	446
462.668	443
463.135	443
463.603	439
464.07	458
464.538	436
465.006	451
465.474	446
465.941	447
466.409	447
466.877	439
467.345	449
467.813	441
468.281	455
468.749	461
469.217	455
469.685	466
470.153	477
470.621	477
471.09	480
471.558	502
472.026	497
472.494	516
472.963	519
473.431	533
473.9	550
474.368	561
474.837	569
475.305	573
475.774	582
476.242	605
476.711	601
477.18	619
477.648	612
478.117	620
478.586	622
479.055	627
479.524	628
479.993	629
480.462	627
480.93	629
481.399	637
481.869	644
482.338	629
482.807	646
483.276	642
483.745	642
484.214	656
484.684	665
485.153	675
485.622	685
486.092	692
486.561	678
487.031	711
487.5	722
487.97	727
488.439	742
488.909	767
489.378	800
489.848	801
490.318	815
490.787	848
491.257	845
491.727	860
492.197	875
492.667	877
493.137	889
493.607	894
494.077	904
494.547	895
495.017	888
495.487	905
495.957	925
496.427	911
496.897	908
497.368	929
497.838	915
498.308	926
498.779	940
499.249	942
499.719	953
500.19	970
500.66	971
501.131	981
501.602	999
502.072	992
502.543	1018
503.014	1055
503.484	1052
503.955	1084
504.426	1120
504.897	1128
505.368	1155
505.838	1169
506.309	1192
506.78	1236
507.251	1263
507.722	1282
508.194	1315
508.665	1335
509.136	1335
509.607	1371
510.078	1377
510.549	1379
511.021	1420
511.492	1432
511.964	1445
512.435	1465
512.906	1466
513.378	1474
513.849	1501
514.321	1499
514.793	1517
515.264	1539
515.736	1554
516.208	1587
516.679	1595
517.151	1614
517.623	1628
518.095	1654
518.567	1668
519.038	1706
519.51	1702
519.982	1716
520.454	1721
520.927	1750
521.399	1791
521.871	1804
522.343	1801
522.815	1823
523.287	1830
523.76	1844
524.232	1870
524.704	1879
525.177	1849
525.649	1852
526.122	1880
526.594	1845
527.067	1889
527.539	1914
528.012	1906
528.484	1899
528.957	1910
529.43	1904
529.903	1892
530.375	1961
530.848	1920
531.321	1945
531.794	1951
532.267	1991
532.74	1963
533.213	1950
533.686	1992
534.159	1985
534.632	2029
535.105	2047
535.578	2097
536.051	2099
536.525	2103
536.998	2099
537.471	2145
537.945	2118
538.418	2148
538.891	2145
539.365	2183
539.838	2203
540.312	2192
540.786	2202
541.259	2200
541.733	2239
542.206	2238
542.68	2208
543.154	2213
543.628	2219
544.101	2270
544.575	2236
545.049	2174
545.523	2223
545.997	2227
546.471	2244
546.945	2220
547.419	2259
547.893	2190
548.367	2234
548.842	2202
549.316	2236
549.79	2247
550.264	2225
550.739	2251
551.213	2250
551.687	2233
552.162	2264
552.636	2242
553.111	2245
553.585	2322
554.06	2295
554.534	2329
555.009	2313
555.484	2359
555.958	2399
556.433	2397
556.908	2436
557.383	2407
557.858	2471
558.333	2477
558.807	2459
559.282	2484
559.757	2554
560.232	2544
560.708	2504
561.183	2497
561.658	2534
562.133	2530
562.608	2501
563.083	2569
563.559	2516
564.034	2526
564.509	2518
564.985	2525
565.46	2500
565.936	2568
566.411	2554
566.887	2528
567.362	2548
567.838	2566
568.313	2592
568.789	2541
569.265	2532
569.74	2555
570.216	2546
570.692	2573
571.168	2585
571.644	2583
572.12	2587
572.596	2614
573.071	2634
573.547	2713
574.024	2739
574.5	2738
574.976	2739
575.452	2784
575.928	2818
576.404	2841
576.881	2945
577.357	2885
577.833	2899
578.31	2992
578.786	3020
579.262	3054
579.739	3006
580.215	3085
580.692	3088
581.169	3068
581.645	3068
582.122	3172
582.598	3173
583.075	3191
583.552	3199
584.029	3186
584.506	3143
584.982	3124
585.459	3200
585.936	3159
586.413	3191
586.89	3253
587.367	3222
587.844	3266
588.321	3243
588.799	3263
589.276	3245
589.753	3300
590.23	3323
590.707	3310
591.185	3303
591.662	3305
592.139	3338
592.617	3391
593.094	3368
593.572	3400
594.049	3449
594.527	3482
595.004	3482
595.482	3583
595.96	3570
596.437	3570
596.915	3667
597.393	3587
597.871	3662
598.349	3647
598.826	3715
599.304	3713
599.782	3784
600.26	3745
600.738	3830
601.216	3807
601.694	3827
602.173	3840
602.651	3856
603.129	3813
603.607	3854
604.085	3880
604.564	3874
605.042	3900
605.52	3863
605.999	3957
606.477	3858
606.956	3864
607.434	3905.5
607.913	3947
608.391	3937
608.87	3915
609.348	3860
609.827	3850
610.306	3888
610.785	3882
611.263	3888
611.742	3875
612.221	3812
612.7	3881
613.179	3903
613.658	3871
614.137	3928
614.616	3952
615.095	3889
615.574	3939
616.053	3967
616.532	3926
617.011	3940
617.491	3970
617.97	3971
618.449	4026
618.928	4046
619.408	4009
619.887	4053
620.367	4077
620.846	4128
621.326	4084
621.805	4171
622.285	4152
622.764	4186
623.244	4191
623.724	4209
624.203	4224
624.683	4159
625.163	4266
625.643	4264
626.123	4226
626.602	4327
627.082	4224
627.562	4215
628.042	4290
628.522	4240
629.002	4200
629.482	4239
629.963	4254
630.443	4234
630.923	4240
631.403	4276
631.883	4264
632.364	4256
632.844	4230
633.324	4259
633.805	4273
634.285	4220
634.766	4177
635.246	4178
635.727	4166
636.207	4165
636.688	4172
637.168	4176
637.649	4156
638.13	4122
638.611	4155
639.091	4153
639.572	4143
640.053	4124
640.534	4165
641.015	4143
641.496	4068
641.977	4147
642.458	4103
642.939	4120
643.42	4120
643.901	4123
644.382	4169
644.863	4142
645.345	4123
645.826	4120
646.307	4135
646.788	4205
647.27	4120
647.751	4138
648.233	4165
648.714	4078
649.196	4199
649.677	4194
650.159	4179
650.64	4145
651.122	4216
651.603	4139
652.085	4147
652.567	4169
653.049	4145
653.53	4142
654.012	4205
654.494	4106
654.976	4173
655.458	4174
655.94	4146
656.422	4207
656.904	4123
657.386	4075
657.868	4080
658.35	4053
658.833	4108
659.315	4116
659.797	4069
660.279	4063
660.762	4078
661.244	4049
661.726	3991
662.209	4008
662.691	4015
663.174	3933
663.656	3956
664.139	3948
664.621	3901
665.104	3881
665.587	3942
666.069	3954
666.552	3946
667.035	3884
667.517	3882
668	3913
668.483	3915
668.966	3863
669.449	3863
669.932	3866
670.415	3914
670.898	3879
671.381	3885
671.864	3892
672.347	3850
672.83	3864
673.313	3889
673.797	3881
674.28	3955
674.763	3945
675.247	3956
675.73	3922
676.213	3978
676.697	3987
677.18	3992
677.664	3996
678.147	3988
678.631	4026
679.114	4040
679.598	4019
680.082	4030
680.565	3999
681.049	3979
681.533	3990
682.017	4040
682.5	4015
682.984	4005
683.468	4012
683.952	3956
684.436	4035
684.92	3977
685.404	4012
685.888	4046
686.372	4022
686.856	4015
687.341	4059
687.825	4020
688.309	4045
688.793	4062
689.278	3991
689.762	4032
690.246	4012
690.731	4028
691.215	4039
691.7	3940
692.184	3979
692.669	3948
693.153	3953
693.638	3866
694.122	3857
694.607	3906
695.092	3835
695.577	3866
696.061	3804
696.546	3796
697.031	3761
697.516	3793
698.001	3786
698.486	3755
698.971	3803
699.456	3739
699.941	3730
700.426	3736
700.911	3790
701.396	3764
701.881	3801
702.366	3766
702.852	3730
703.337	3752
703.822	3749
704.308	3774
704.793	3816
705.278	3817
705.764	3820
706.249	3785
706.735	3777
707.22	3829
707.706	3780
708.191	3820
708.677	3806
709.163	3744
709.648	3755
710.134	3799
710.62	3745
711.106	3743
711.592	3792
712.077	3783
712.563	3698
713.049	3707
713.535	3774
714.021	3749
714.507	3724
714.993	3688
715.479	3730
715.966	3688
716.452	3693
716.938	3691
717.424	3580
717.91	3646
718.397	3638
718.883	3614
719.369	3619
719.856	3598
720.342	3670
720.829	3617
721.315	3636
721.802	3620
722.288	3638
722.775	3503
723.262	3406
723.748	3535
724.235	3495
724.722	3525
725.208	3434
725.695	3416
726.182	3402
726.669	3367
727.156	3390
727.643	3352
728.13	3345
728.617	3305
729.104	3326
729.591	3304
730.078	3352
730.565	3360
731.052	3332
731.539	3332
732.027	3299
732.514	3251
733.001	3272
733.488	3247
733.976	3250
734.463	3235
734.951	3243
735.438	3286
735.926	3245
736.413	3261
736.901	3232
737.388	3246
737.876	3234
738.364	3213
738.851	3237
739.339	3233
739.827	3270
740.314	3153
740.802	3177
741.29	3187
741.778	3145
742.266	3158
742.754	3156
743.242	3175
743.73	3115
744.218	3084
744.706	3048
745.194	3075
745.682	3046
746.17	3056
746.659	3057
747.147	2999
747.635	3021
748.123	3004
748.612	2969
749.1	2948
749.589	2974
750.077	2984
750.566	2974
751.054	2992
751.543	2984
752.031	2909
752.52	2907
753.008	2845
753.497	2854
753.986	2843
754.474	2828
754.963	2842
755.452	2795
755.941	2782
756.43	2776
756.919	2771
757.408	2744
757.896	2760
758.385	2750
758.875	2714
759.364	2713
759.853	2692
760.342	2638
760.831	2689
761.32	2667
761.809	2628
762.299	2637
762.788	2646
763.277	2637
763.767	2582
764.256	2567
764.745	2550
765.235	2590
765.724	2532
766.214	2567
766.703	2515
767.193	2464
767.683	2471
768.172	2419
768.662	2436
769.152	2415
769.641	2411
770.131	2366
770.621	2411
771.111	2378
771.601	2379
772.09	2362
772.58	2345
773.07	2361
773.56	2361
774.05	2294
774.54	2275
775.031	2263
775.521	2254
776.011	2257
776.501	2263
776.991	2223
777.482	2249
777.972	2181
778.462	2175
778.953	2185
779.443	2176
779.933	2170
780.424	2154
780.914	2174
781.405	2180
781.895	2172
782.386	2172
782.877	2153
783.367	2099
783.858	2079
784.349	2091
784.839	2076
785.33	2076
785.821	2069
786.312	2050
786.803	2067
787.293	2054
787.784	2023
788.275	1988
788.766	1970
789.257	1990
789.748	1954
790.24	1926
790.731	1923
791.222	1884
791.713	1871
792.204	1880
792.696	1827
793.187	1844
793.678	1832
794.169	1773
794.661	1807
795.152	1789
795.644	1776
796.135	1778
796.627	1786
797.118	1759
797.61	1741
798.101	1716
798.593	1735
799.085	1712
799.576	1710
800.068	1691
800.56	1699
801.052	1662
801.544	1649
802.035	1645
802.527	1625
803.019	1598
803.511	1589
804.003	1573
804.495	1571
804.987	1556
805.479	1518
805.971	1532
806.464	1531
806.956	1496
807.448	1496
807.94	1490
808.433	1477
808.925	1468
809.417	1454
809.91	1437
810.402	1403
810.894	1417
811.387	1417
811.879	1390
812.372	1403
812.865	1385
813.357	1392
813.85	1379
814.342	1381
814.835	1380
815.328	1365
815.821	1348
816.313	1353
816.806	1355
817.299	1348
817.792	1363
818.285	1338
818.778	1357
819.271	1344
819.764	1327
820.257	1327
820.75	1337
821.243	1341
821.736	1331
822.229	1339
822.722	1336
823.216	1359
