Data from lamp4helium_zwak_Subt4__17__17.txt Node

Date: Wed Apr 09 09:32:56 CEST 2025
User: fys-lab-0081
Spectrometer: S04999
Trigger mode: 0
Resolution mode: 1024 pixels
Integration Time (sec): 1.000000E-1
Scans to average: 1
Nonlinearity correction enabled: false
Boxcar width: 0
Baseline correction enabled: true
XAxis mode: Wavelengths
Number of Pixels in Spectrum: 1024
>>>>>Begin Spectral Data<<<<<
336.42	1
336.877	-5
337.334	1
337.792	-3
338.249	6
338.706	3
339.164	-2
339.621	-2
340.079	4
340.536	7
340.994	3
341.452	-2
341.909	3
342.367	-1
342.825	1
343.283	4
343.741	0
344.198	5
344.656	3
345.114	1
345.572	1
346.03	6
346.488	5
346.947	-1
347.405	-1
347.863	-1
348.321	7
348.779	2
349.238	5
349.696	3
350.154	0
350.613	0
351.071	5
351.53	4
351.988	6
352.447	1
352.905	2
353.364	-3
353.823	-2
354.282	6
354.74	2
355.199	4
355.658	6
356.117	10
356.576	7
357.035	5
357.494	5
357.953	8
358.412	10
358.871	1
359.33	2
359.789	10
360.249	4
360.708	10
361.167	8
361.626	10
362.086	3
362.545	8
363.005	13
363.464	0
363.924	3
364.383	13
364.843	9
365.303	11
365.762	8
366.222	0
366.682	9
367.142	14
367.601	13
368.061	5
368.521	15
368.981	10
369.441	13
369.901	17
370.361	13
370.821	11
371.282	15
371.742	17
372.202	14
372.662	15
373.123	16
373.583	12
374.043	15
374.504	8
374.964	15
375.425	15
375.885	19
376.346	18
376.806	14
377.267	17
377.728	19
378.188	13
378.649	20
379.11	16
379.571	20
380.032	16
380.493	18
380.954	24
381.414	17
381.876	22
382.337	23
382.798	25
383.259	30
383.72	22
384.181	27
384.642	30
385.104	34
385.565	37
386.026	25
386.488	31
386.949	37
387.411	33
387.872	29
388.334	34
388.795	33
389.257	36
389.719	43
390.181	34
390.642	43
391.104	41
391.566	38
392.028	46
392.49	43
392.952	42
393.414	43
393.876	42
394.338	46
394.8	45
395.262	47
395.724	50
396.186	52
396.648	54
397.111	50
397.573	53
398.035	56
398.498	57
398.96	51
399.423	52
399.885	60
400.348	59
400.81	67
401.273	57
401.736	63
402.198	62
402.661	68
403.124	67
403.587	70
404.049	71
404.512	72
404.975	77
405.438	74
405.901	71
406.364	79
406.827	78
407.29	80
407.754	76
408.217	78
408.68	74
409.143	76
409.607	85
410.07	83
410.533	80
410.997	85
411.46	82
411.924	81
412.387	85
412.851	90
413.314	89
413.778	90
414.242	98
414.705	95
415.169	97
415.633	96
416.097	97
416.561	98
417.024	102
417.488	102
417.952	100
418.416	106
418.88	103
419.344	103
419.809	97
420.273	106
420.737	102
421.201	98
421.665	111
422.13	112
422.594	112
423.059	114
423.523	115
423.987	114
424.452	121
424.916	128
425.381	128
425.846	128
426.31	128
426.775	129
427.24	136
427.704	127
428.169	138
428.634	137
429.099	134
429.564	132
430.029	137
430.494	141
430.959	145
431.424	137
431.889	135
432.354	145
432.819	142
433.284	147
433.75	148
434.215	152
434.68	158
435.146	161
435.611	163
436.077	168
436.542	173
437.008	177
437.473	184
437.939	182
438.404	188
438.87	189
439.336	185
439.801	184
440.267	188
440.733	197
441.199	201
441.665	192
442.131	204
442.596	202
443.062	200
443.529	209
443.995	214
444.461	219
444.927	230
445.393	230
445.859	242
446.325	247
446.792	264
447.258	266
447.724	268
448.191	276
448.657	274
449.124	294
449.59	283
450.057	305
450.523	297
450.99	303
451.457	313
451.923	315
452.39	312
452.857	315
453.324	314
453.791	325
454.257	328
454.724	326
455.191	329
455.658	327
456.125	343
456.592	330
457.059	340
457.527	343
457.994	357
458.461	360
458.928	366
459.396	363
459.863	377
460.33	376
460.798	382
461.265	381
461.732	379
462.2	389
462.668	389
463.135	397
463.603	387
464.07	394
464.538	387
465.006	398
465.474	389
465.941	387
466.409	393
466.877	392
467.345	404
467.813	400
468.281	403
468.749	399
469.217	409
469.685	410
470.153	410
470.621	415
471.09	416
471.558	435
472.026	445
472.494	449
472.963	458
473.431	466
473.9	483
474.368	495
474.837	497
475.305	504
475.774	518
476.242	532
476.711	531
477.18	547
477.648	543
478.117	547
478.586	545
479.055	544
479.524	549
479.993	555
480.462	554
480.93	556
481.399	559
481.869	564
482.338	562
482.807	570
483.276	561
483.745	565
484.214	585
484.684	596
485.153	594
485.622	596
486.092	617
486.561	606
487.031	619
487.5	635
487.97	644
488.439	659
488.909	677
489.378	697
489.848	693
490.318	716
490.787	738
491.257	749
491.727	756
492.197	776
492.667	767
493.137	777
493.607	783
494.077	792
494.547	781
495.017	791
495.487	802
495.957	823
496.427	804
496.897	806
497.368	823
497.838	821
498.308	840
498.779	842
499.249	844
499.719	850
500.19	864
500.66	861
501.131	869
501.602	890
502.072	891
502.543	910
503.014	948
503.484	947
503.955	960
504.426	999
504.897	1015
505.368	1038
505.838	1049
506.309	1081
506.78	1113
507.251	1141
507.722	1141
508.194	1177
508.665	1191
509.136	1197
509.607	1229
510.078	1235
510.549	1248
511.021	1272
511.492	1296
511.964	1311
512.435	1333
512.906	1337
513.378	1343
513.849	1371
514.321	1379
514.793	1378
515.264	1393
515.736	1399
516.208	1432
516.679	1450
517.151	1468
517.623	1478
518.095	1506
518.567	1524
519.038	1554
519.51	1555
519.982	1589
520.454	1604
520.927	1608
521.399	1629
521.871	1658
522.343	1675
522.815	1682
523.287	1681
523.76	1696
524.232	1736
524.704	1738
525.177	1708
525.649	1713
526.122	1748
526.594	1736
527.067	1764
527.539	1778
528.012	1760
528.484	1756
528.957	1771
529.43	1771
529.903	1763
530.375	1840
530.848	1792
531.321	1818
531.794	1814
532.267	1863
532.74	1844
533.213	1835
533.686	1869
534.159	1871
534.632	1923
535.105	1934
535.578	1951
536.051	1937
536.525	1958
536.998	1978
537.471	2028
537.945	1969
538.418	2000
538.891	2026
539.365	2055
539.838	2072
540.312	2066
540.786	2086
541.259	2075
541.733	2100
542.206	2109
542.68	2089
543.154	2088
543.628	2097
544.101	2155
544.575	2135
545.049	2093
545.523	2131
545.997	2133
546.471	2137
546.945	2121
547.419	2169
547.893	2099
548.367	2123
548.842	2105
549.316	2126
549.79	2155
550.264	2133
550.739	2186
551.213	2165
551.687	2150
552.162	2183
552.636	2165
553.111	2161
553.585	2237
554.06	2211
554.534	2269
555.009	2259
555.484	2284
555.958	2326
556.433	2321
556.908	2336
557.383	2292
557.858	2349
558.333	2367
558.807	2367
559.282	2375
559.757	2437
560.232	2443
560.708	2406
561.183	2406
561.658	2447
562.133	2438
562.608	2430
563.083	2483
563.559	2422
564.034	2450
564.509	2470
564.985	2497
565.46	2461
565.936	2504
566.411	2502
566.887	2476
567.362	2479
567.838	2464
568.313	2497
568.789	2460
569.265	2480
569.74	2502
570.216	2462
570.692	2511
571.168	2522
571.644	2544
572.12	2535
572.596	2571
573.071	2581
573.547	2665
574.024	2663
574.5	2684
574.976	2719
575.452	2776
575.928	2770
576.404	2779
576.881	2867
577.357	2828
577.833	2867
578.31	2941
578.786	2939
579.262	3000
579.739	2953
580.215	3025
580.692	3047
581.169	3035
581.645	3044
582.122	3133
582.598	3098
583.075	3077
583.552	3093
584.029	3127
584.506	3143
584.982	3104
585.459	3175
585.936	3155
586.413	3201
586.89	3250
587.367	3210
587.844	3254
588.321	3242
588.799	3235
589.276	3206
589.753	3220
590.23	3253
590.707	3265
591.185	3267
591.662	3253
592.139	3295
592.617	3361
593.094	3368
593.572	3399
594.049	3397
594.527	3416
595.004	3456
595.482	3562
595.96	3522
596.437	3508
596.915	3612
597.393	3582
597.871	3670
598.349	3625
598.826	3673
599.304	3686
599.782	3780
600.26	3762
600.738	3827
601.216	3772
601.694	3775
602.173	3825
602.651	3830
603.129	3788
603.607	3822
604.085	3832
604.564	3822
605.042	3838
605.52	3803
605.999	3910
606.477	3847
606.956	3903
607.434	3914.5
607.913	3926
608.391	3890
608.87	3884
609.348	3855
609.827	3883
610.306	3914
610.785	3892
611.263	3893
611.742	3892
612.221	3851
612.7	3907
613.179	3935
613.658	3878
614.137	3978
614.616	4021
615.095	3934
615.574	3957
616.053	3991
616.532	3942
617.011	3972
617.491	3988
617.97	3969
618.449	4061
618.928	4119
619.408	4122
619.887	4126
620.367	4117
620.846	4189
621.326	4186
621.805	4280
622.285	4261
622.764	4258
623.244	4245
623.724	4263
624.203	4266
624.683	4195
625.163	4291
625.643	4296
626.123	4265
626.602	4373
627.082	4263
627.562	4244
628.042	4356
628.522	4328
629.002	4304
629.482	4292
629.963	4246
630.443	4194
630.923	4219
631.403	4248
631.883	4245
632.364	4283
632.844	4241
633.324	4276
633.805	4286
634.285	4238
634.766	4238
635.246	4243
635.727	4214
636.207	4222
636.688	4223
637.168	4179
637.649	4130
638.13	4081
638.611	4122
639.091	4145
639.572	4142
640.053	4113
640.534	4151
641.015	4163
641.496	4155
641.977	4267
642.458	4203
642.939	4181
643.42	4163
643.901	4174
644.382	4252
644.863	4258
645.345	4250
645.826	4249
646.307	4207
646.788	4243
647.27	4143
647.751	4156
648.233	4185
648.714	4121
649.196	4252
649.677	4231
650.159	4232
650.64	4176
651.122	4236
651.603	4167
652.085	4183
652.567	4218
653.049	4174
653.53	4169
654.012	4238
654.494	4118
654.976	4139
655.458	4115
655.94	4103
656.422	4139
656.904	4063
657.386	4014
657.868	4023
658.35	4019
658.833	4083
659.315	4103
659.797	4053
660.279	4045
660.762	4079
661.244	4038
661.726	3985
662.209	3965
662.691	3927
663.174	3846
663.656	3860
664.139	3868
664.621	3853
665.104	3825
665.587	3874
666.069	3904
666.552	3885
667.035	3844
667.517	3875
668	3888
668.483	3844
668.966	3804
669.449	3820
669.932	3867
670.415	3910
670.898	3859
671.381	3854
671.864	3887
672.347	3872
672.83	3864
673.313	3825
673.797	3810
674.28	3835
674.763	3808
675.247	3808
675.73	3758
676.213	3811
676.697	3846
677.18	3815
677.664	3796
678.147	3808
678.631	3856
679.114	3874
679.598	3860
680.082	3874
680.565	3825
681.049	3809
681.533	3818
682.017	3855
682.5	3845
682.984	3866
683.468	3852
683.952	3745
684.436	3807
684.92	3748
685.404	3770
685.888	3780
686.372	3732
686.856	3755
687.341	3812
687.825	3767
688.309	3774
688.793	3775
689.278	3699
689.762	3689
690.246	3673
690.731	3671
691.215	3690
691.7	3570
692.184	3597
692.669	3576
693.153	3596
693.638	3563
694.122	3537
694.607	3563
695.092	3518
695.577	3574
696.061	3508
696.546	3510
697.031	3499
697.516	3507
698.001	3501
698.486	3480
698.971	3525
699.456	3475
699.941	3477
700.426	3463
700.911	3472
701.396	3399
701.881	3407
702.366	3399
702.852	3411
703.337	3412
703.822	3374
704.308	3348
704.793	3362
705.278	3373
705.764	3406
706.249	3396
706.735	3385
707.22	3423
707.706	3365
708.191	3426
708.677	3423
709.163	3387
709.648	3369
710.134	3402
710.62	3332
711.106	3318
711.592	3331
712.077	3323
712.563	3241
713.049	3214
713.535	3253
714.021	3206
714.507	3166
714.993	3151
715.479	3209
715.966	3192
716.452	3213
716.938	3226
717.424	3127
717.91	3179
718.397	3140
718.883	3110
719.369	3088
719.856	3026
720.342	3042
720.829	2972
721.315	2984
721.802	2962
722.288	2989
722.775	2875
723.262	2808
723.748	2900
724.235	2871
724.722	2888
725.208	2840
725.695	2855
726.182	2843
726.669	2802
727.156	2810
727.643	2787
728.13	2784
728.617	2759
729.104	2784
729.591	2752
730.078	2747
730.565	2741
731.052	2701
731.539	2705
732.027	2700
732.514	2676
733.001	2708
733.488	2674
733.976	2643
734.463	2598
734.951	2582
735.438	2607
735.926	2581
736.413	2592
736.901	2577
737.388	2604
737.876	2598
738.364	2582
738.851	2583
739.339	2582
739.827	2612
740.314	2519
740.802	2525
741.29	2509
741.778	2466
742.266	2459
742.754	2449
743.242	2463
743.73	2412
744.218	2415
744.706	2381
745.194	2401
745.682	2385
746.17	2384
746.659	2393
747.147	2314
747.635	2323
748.123	2309
748.612	2264
749.1	2264
749.589	2305
750.077	2293
750.566	2264
751.054	2263
751.543	2272
752.031	2220
752.52	2207
753.008	2155
753.497	2168
753.986	2144
754.474	2120
754.963	2157
755.452	2115
755.941	2103
756.43	2096
756.919	2086
757.408	2087
757.896	2082
758.385	2074
758.875	2049
759.364	2041
759.853	2013
760.342	1982
760.831	2013
761.32	1973
761.809	1933
762.299	1943
762.788	1946
763.277	1922
763.767	1886
764.256	1892
764.745	1870
765.235	1891
765.724	1820
766.214	1850
766.703	1836
767.193	1800
767.683	1788
768.172	1740
768.662	1762
769.152	1753
769.641	1775
770.131	1737
770.621	1748
771.111	1736
771.601	1729
772.09	1715
772.58	1685
773.07	1680
773.56	1684
774.05	1656
774.54	1657
775.031	1656
775.521	1649
776.011	1643
776.501	1651
776.991	1602
777.482	1601
777.972	1570
778.462	1571
778.953	1581
779.443	1562
779.933	1543
780.424	1519
780.914	1530
781.405	1536
781.895	1530
782.386	1524
782.877	1508
783.367	1463
783.858	1439
784.349	1439
784.839	1425
785.33	1429
785.821	1421
786.312	1401
786.803	1397
787.293	1383
787.784	1353
788.275	1338
788.766	1331
789.257	1343
789.748	1301
790.24	1294
790.731	1316
791.222	1300
791.713	1297
792.204	1293
792.696	1254
793.187	1275
793.678	1270
794.169	1244
794.661	1263
795.152	1237
795.644	1224
796.135	1211
796.627	1224
797.118	1204
797.61	1195
798.101	1185
798.593	1200
799.085	1190
799.576	1198
800.068	1172
800.56	1171
801.052	1140
801.544	1133
802.035	1127
802.527	1113
803.019	1098
803.511	1080
804.003	1068
804.495	1073
804.987	1060
805.479	1031
805.971	1051
806.464	1049
806.956	1024
807.448	1017
807.94	1013
808.433	1015
808.925	1013
809.417	1008
809.91	1000
810.402	973
810.894	974
811.387	982
811.879	953
812.372	960
812.865	941
813.357	930
813.85	925
814.342	932
814.835	934
815.328	933
815.821	914
816.313	914
816.806	917
817.299	904
817.792	908
818.285	900
818.778	912
819.271	911
819.764	904
820.257	897
820.75	894
821.243	889
821.736	882
822.229	893
822.722	877
823.216	897
