Data from lamp4helium_zwak_Subt4__14__14.txt Node

Date: Wed Apr 09 09:32:56 CEST 2025
User: fys-lab-0081
Spectrometer: S04999
Trigger mode: 0
Resolution mode: 1024 pixels
Integration Time (sec): 1.000000E-1
Scans to average: 1
Nonlinearity correction enabled: false
Boxcar width: 0
Baseline correction enabled: true
XAxis mode: Wavelengths
Number of Pixels in Spectrum: 1024
>>>>>Begin Spectral Data<<<<<
336.42	-2
336.877	-4
337.334	3
337.792	-1
338.249	0
338.706	1
339.164	2
339.621	0
340.079	4
340.536	3
340.994	7
341.452	-1
341.909	1
342.367	2
342.825	-2
343.283	3
343.741	0
344.198	2
344.656	0
345.114	2
345.572	3
346.03	4
346.488	4
346.947	-1
347.405	4
347.863	0
348.321	4
348.779	3
349.238	5
349.696	8
350.154	3
350.613	6
351.071	4
351.53	6
351.988	4
352.447	-2
352.905	6
353.364	0
353.823	2
354.282	5
354.74	3
355.199	5
355.658	7
356.117	5
356.576	6
357.035	5
357.494	11
357.953	7
358.412	10
358.871	4
359.33	6
359.789	12
360.249	3
360.708	11
361.167	5
361.626	7
362.086	7
362.545	7
363.005	13
363.464	3
363.924	4
364.383	9
364.843	5
365.303	7
365.762	10
366.222	8
366.682	9
367.142	10
367.601	10
368.061	6
368.521	18
368.981	9
369.441	7
369.901	15
370.361	12
370.821	11
371.282	16
371.742	14
372.202	15
372.662	15
373.123	12
373.583	15
374.043	15
374.504	11
374.964	12
375.425	14
375.885	16
376.346	16
376.806	16
377.267	19
377.728	20
378.188	17
378.649	18
379.11	18
379.571	16
380.032	19
380.493	19
380.954	25
381.414	15
381.876	24
382.337	29
382.798	28
383.259	28
383.72	23
384.181	26
384.642	27
385.104	26
385.565	36
386.026	29
386.488	31
386.949	32
387.411	35
387.872	34
388.334	34
388.795	35
389.257	39
389.719	40
390.181	36
390.642	40
391.104	37
391.566	37
392.028	45
392.49	39
392.952	46
393.414	46
393.876	46
394.338	44
394.8	44
395.262	47
395.724	48
396.186	53
396.648	51
397.111	51
397.573	51
398.035	56
398.498	51
398.96	52
399.423	58
399.885	61
400.348	59
400.81	67
401.273	53
401.736	63
402.198	66
402.661	63
403.124	65
403.587	68
404.049	69
404.512	70
404.975	71
405.438	70
405.901	76
406.364	79
406.827	74
407.29	80
407.754	79
408.217	78
408.68	73
409.143	81
409.607	82
410.07	80
410.533	80
410.997	88
411.46	80
411.924	85
412.387	84
412.851	86
413.314	92
413.778	93
414.242	92
414.705	95
415.169	98
415.633	95
416.097	95
416.561	96
417.024	104
417.488	102
417.952	103
418.416	104
418.88	105
419.344	105
419.809	99
420.273	105
420.737	105
421.201	97
421.665	110
422.13	106
422.594	113
423.059	113
423.523	115
423.987	118
424.452	121
424.916	124
425.381	130
425.846	128
426.31	126
426.775	130
427.24	135
427.704	131
428.169	138
428.634	137
429.099	134
429.564	136
430.029	138
430.494	138
430.959	138
431.424	139
431.889	141
432.354	144
432.819	142
433.284	144
433.75	146
434.215	151
434.68	159
435.146	157
435.611	169
436.077	174
436.542	171
437.008	174
437.473	183
437.939	184
438.404	188
438.87	193
439.336	190
439.801	187
440.267	191
440.733	196
441.199	198
441.665	197
442.131	203
442.596	199
443.062	206
443.529	213
443.995	216
444.461	215
444.927	229
445.393	232
445.859	242
446.325	245
446.792	266
447.258	264
447.724	269
448.191	273
448.657	277
449.124	290
449.59	282
450.057	302
450.523	301
450.99	305
451.457	306
451.923	315
452.39	309
452.857	319
453.324	312
453.791	328
454.257	327
454.724	327
455.191	329
455.658	328
456.125	344
456.592	335
457.059	343
457.527	346
457.994	355
458.461	355
458.928	365
459.396	367
459.863	381
460.33	380
460.798	384
461.265	383
461.732	381
462.2	389
462.668	385
463.135	399
463.603	385
464.07	397
464.538	385
465.006	395
465.474	391
465.941	392
466.409	395
466.877	387
467.345	401
467.813	400
468.281	404
468.749	403
469.217	408
469.685	407
470.153	414
470.621	415
471.09	424
471.558	435
472.026	439
472.494	452
472.963	460
473.431	473
473.9	480
474.368	488
474.837	499
475.305	504
475.774	516
476.242	532
476.711	530
477.18	545
477.648	546
478.117	551
478.586	547
479.055	547
479.524	552
479.993	558
480.462	551
480.93	562
481.399	557
481.869	565
482.338	562
482.807	570
483.276	564
483.745	568
484.214	582
484.684	597
485.153	594
485.622	594
486.092	622
486.561	605
487.031	621
487.5	632
487.97	642
488.439	662
488.909	678
489.378	700
489.848	699
490.318	721
490.787	738
491.257	750
491.727	759
492.197	772
492.667	765
493.137	772
493.607	783
494.077	788
494.547	784
495.017	791
495.487	803
495.957	821
496.427	805
496.897	807
497.368	820
497.838	820
498.308	828
498.779	840
499.249	843
499.719	854
500.19	867
500.66	873
501.131	874
501.602	891
502.072	890
502.543	908
503.014	945
503.484	947
503.955	969
504.426	1009
504.897	1012
505.368	1032
505.838	1051
506.309	1082
506.78	1110
507.251	1137
507.722	1148
508.194	1181
508.665	1206
509.136	1194
509.607	1233
510.078	1236
510.549	1242
511.021	1280
511.492	1299
511.964	1313
512.435	1334
512.906	1336
513.378	1352
513.849	1366
514.321	1381
514.793	1383
515.264	1389
515.736	1408
516.208	1434
516.679	1453
517.151	1470
517.623	1476
518.095	1514
518.567	1521
519.038	1558
519.51	1560
519.982	1591
520.454	1600
520.927	1615
521.399	1628
521.871	1665
522.343	1675
522.815	1686
523.287	1680
523.76	1704
524.232	1732
524.704	1737
525.177	1710
525.649	1713
526.122	1749
526.594	1730
527.067	1770
527.539	1779
528.012	1767
528.484	1762
528.957	1776
529.43	1767
529.903	1769
530.375	1833
530.848	1796
531.321	1822
531.794	1821
532.267	1856
532.74	1842
533.213	1834
533.686	1879
534.159	1868
534.632	1929
535.105	1929
535.578	1949
536.051	1952
536.525	1958
536.998	1975
537.471	2026
537.945	1962
538.418	2007
538.891	2026
539.365	2050
539.838	2069
540.312	2066
540.786	2089
541.259	2077
541.733	2093
542.206	2110
542.68	2095
543.154	2088
543.628	2102
544.101	2161
544.575	2142
545.049	2095
545.523	2138
545.997	2128
546.471	2134
546.945	2117
547.419	2161
547.893	2092
548.367	2131
548.842	2103
549.316	2126
549.79	2156
550.264	2135
550.739	2188
551.213	2159
551.687	2155
552.162	2190
552.636	2166
553.111	2163
553.585	2242
554.06	2214
554.534	2275
555.009	2258
555.484	2283
555.958	2331
556.433	2327
556.908	2334
557.383	2302
557.858	2344
558.333	2371
558.807	2374
559.282	2379
559.757	2446
560.232	2446
560.708	2403
561.183	2412
561.658	2452
562.133	2445
562.608	2433
563.083	2486
563.559	2422
564.034	2447
564.509	2472
564.985	2498
565.46	2465
565.936	2520
566.411	2500
566.887	2478
567.362	2487
567.838	2472
568.313	2499
568.789	2468
569.265	2479
569.74	2502
570.216	2473
570.692	2516
571.168	2523
571.644	2549
572.12	2546
572.596	2572
573.071	2581
573.547	2665
574.024	2670
574.5	2685
574.976	2715
575.452	2774
575.928	2779
576.404	2780
576.881	2865
577.357	2842
577.833	2875
578.31	2942
578.786	2949
579.262	2998
579.739	2959
580.215	3034
580.692	3055
581.169	3034
581.645	3045
582.122	3133
582.598	3097
583.075	3087
583.552	3100
584.029	3144
584.506	3151
584.982	3104
585.459	3174
585.936	3159
586.413	3200
586.89	3262
587.367	3215
587.844	3266
588.321	3253
588.799	3246
589.276	3200
589.753	3226
590.23	3252
590.707	3268
591.185	3268
591.662	3262
592.139	3289
592.617	3359
593.094	3368
593.572	3399
594.049	3399
594.527	3422
595.004	3453
595.482	3563
595.96	3521
596.437	3517
596.915	3616
597.393	3590
597.871	3686
598.349	3627
598.826	3678
599.304	3702
599.782	3786
600.26	3763
600.738	3815
601.216	3786
601.694	3780
602.173	3824
602.651	3836
603.129	3790
603.607	3828
604.085	3834
604.564	3814
605.042	3839
605.52	3802
605.999	3915
606.477	3849
606.956	3903
607.434	3912.5
607.913	3922
608.391	3899
608.87	3886
609.348	3855
609.827	3877
610.306	3914
610.785	3897
611.263	3910
611.742	3891
612.221	3865
612.7	3912
613.179	3931
613.658	3883
614.137	3985
614.616	4025
615.095	3940
615.574	3968
616.053	3997
616.532	3950
617.011	3976
617.491	3989
617.97	3982
618.449	4073
618.928	4125
619.408	4120
619.887	4132
620.367	4117
620.846	4188
621.326	4206
621.805	4290
622.285	4262
622.764	4262
623.244	4260
623.724	4270
624.203	4266
624.683	4205
625.163	4301
625.643	4308
626.123	4265
626.602	4368
627.082	4267
627.562	4242
628.042	4359
628.522	4341
629.002	4318
629.482	4299
629.963	4249
630.443	4205
630.923	4217
631.403	4254
631.883	4255
632.364	4280
632.844	4249
633.324	4279
633.805	4282
634.285	4241
634.766	4241
635.246	4240
635.727	4223
636.207	4215
636.688	4220
637.168	4187
637.649	4128
638.13	4099
638.611	4125
639.091	4142
639.572	4138
640.053	4122
640.534	4151
641.015	4160
641.496	4161
641.977	4270
642.458	4205
642.939	4177
643.42	4163
643.901	4176
644.382	4250
644.863	4261
645.345	4251
645.826	4253
646.307	4214
646.788	4241
647.27	4139
647.751	4160
648.233	4192
648.714	4134
649.196	4258
649.677	4232
650.159	4235
650.64	4186
651.122	4238
651.603	4166
652.085	4189
652.567	4222
653.049	4176
653.53	4180
654.012	4237
654.494	4122
654.976	4138
655.458	4114
655.94	4106
656.422	4146
656.904	4063
657.386	4010
657.868	4027
658.35	4020
658.833	4082
659.315	4105
659.797	4054
660.279	4044
660.762	4074
661.244	4048
661.726	3993
662.209	3975
662.691	3928
663.174	3856
663.656	3865
664.139	3876
664.621	3855
665.104	3828
665.587	3877
666.069	3907
666.552	3883
667.035	3851
667.517	3879
668	3878
668.483	3843
668.966	3805
669.449	3827
669.932	3880
670.415	3914
670.898	3857
671.381	3871
671.864	3896
672.347	3874
672.83	3870
673.313	3831
673.797	3815
674.28	3841
674.763	3814
675.247	3813
675.73	3775
676.213	3821
676.697	3847
677.18	3823
677.664	3797
678.147	3802
678.631	3861
679.114	3882
679.598	3866
680.082	3870
680.565	3833
681.049	3815
681.533	3833
682.017	3853
682.5	3854
682.984	3873
683.468	3860
683.952	3745
684.436	3803
684.92	3755
685.404	3781
685.888	3787
686.372	3745
686.856	3759
687.341	3815
687.825	3776
688.309	3788
688.793	3785
689.278	3704
689.762	3694
690.246	3668
690.731	3676
691.215	3705
691.7	3575
692.184	3607
692.669	3575
693.153	3602
693.638	3561
694.122	3542
694.607	3571
695.092	3518
695.577	3576
696.061	3508
696.546	3516
697.031	3497
697.516	3509
698.001	3508
698.486	3478
698.971	3532
699.456	3486
699.941	3487
700.426	3466
700.911	3465
701.396	3401
701.881	3418
702.366	3400
702.852	3417
703.337	3415
703.822	3368
704.308	3353
704.793	3367
705.278	3372
705.764	3408
706.249	3395
706.735	3387
707.22	3426
707.706	3366
708.191	3428
708.677	3432
709.163	3381
709.648	3376
710.134	3402
710.62	3327
711.106	3316
711.592	3340
712.077	3331
712.563	3246
713.049	3221
713.535	3254
714.021	3206
714.507	3175
714.993	3155
715.479	3210
715.966	3190
716.452	3210
716.938	3218
717.424	3136
717.91	3185
718.397	3136
718.883	3110
719.369	3102
719.856	3031
720.342	3052
720.829	2983
721.315	2994
721.802	2971
722.288	2999
722.775	2880
723.262	2817
723.748	2909
724.235	2873
724.722	2887
725.208	2842
725.695	2857
726.182	2843
726.669	2815
727.156	2820
727.643	2795
728.13	2781
728.617	2760
729.104	2785
729.591	2745
730.078	2754
730.565	2734
731.052	2697
731.539	2708
732.027	2703
732.514	2689
733.001	2712
733.488	2675
733.976	2639
734.463	2605
734.951	2591
735.438	2607
735.926	2588
736.413	2597
736.901	2582
737.388	2608
737.876	2593
738.364	2584
738.851	2592
739.339	2582
739.827	2611
740.314	2525
740.802	2527
741.29	2515
741.778	2461
742.266	2462
742.754	2450
743.242	2474
743.73	2406
744.218	2421
744.706	2381
745.194	2404
745.682	2394
746.17	2388
746.659	2388
747.147	2311
747.635	2327
748.123	2312
748.612	2276
749.1	2260
749.589	2311
750.077	2290
750.566	2264
751.054	2261
751.543	2270
752.031	2224
752.52	2211
753.008	2164
753.497	2167
753.986	2150
754.474	2122
754.963	2151
755.452	2117
755.941	2105
756.43	2094
756.919	2096
757.408	2087
757.896	2084
758.385	2074
758.875	2054
759.364	2038
759.853	2013
760.342	1973
760.831	2011
761.32	1971
761.809	1934
762.299	1944
762.788	1952
763.277	1926
763.767	1894
764.256	1901
764.745	1865
765.235	1890
765.724	1829
766.214	1852
766.703	1835
767.193	1809
767.683	1785
768.172	1746
768.662	1757
769.152	1763
769.641	1781
770.131	1733
770.621	1748
771.111	1727
771.601	1730
772.09	1713
772.58	1689
773.07	1686
773.56	1690
774.05	1656
774.54	1664
775.031	1659
775.521	1653
776.011	1651
776.501	1658
776.991	1601
777.482	1605
777.972	1574
778.462	1569
778.953	1575
779.443	1557
779.933	1547
780.424	1517
780.914	1526
781.405	1538
781.895	1529
782.386	1531
782.877	1511
783.367	1467
783.858	1444
784.349	1438
784.839	1426
785.33	1435
785.821	1422
786.312	1400
786.803	1392
787.293	1381
787.784	1358
788.275	1346
788.766	1326
789.257	1342
789.748	1308
790.24	1300
790.731	1317
791.222	1306
791.713	1296
792.204	1293
792.696	1255
793.187	1272
793.678	1267
794.169	1244
794.661	1261
795.152	1242
795.644	1223
796.135	1213
796.627	1219
797.118	1205
797.61	1197
798.101	1189
798.593	1206
799.085	1192
799.576	1201
800.068	1171
800.56	1176
801.052	1135
801.544	1133
802.035	1125
802.527	1109
803.019	1095
803.511	1082
804.003	1068
804.495	1070
804.987	1058
805.479	1036
805.971	1055
806.464	1049
806.956	1027
807.448	1019
807.94	1018
808.433	1008
808.925	1019
809.417	1005
809.91	999
810.402	974
810.894	975
811.387	980
811.879	958
812.372	964
812.865	934
813.357	931
813.85	933
814.342	930
814.835	936
815.328	935
815.821	920
816.313	912
816.806	913
817.299	903
817.792	913
818.285	903
818.778	916
819.271	912
819.764	902
820.257	900
820.75	896
821.243	887
821.736	880
822.229	889
822.722	888
823.216	902
