Data from lamp4helium_zwak_Subt2__24__424.txt Node

Date: Wed Apr 09 11:14:34 CEST 2025
User: fys-lab-0081
Spectrometer: S04999
Trigger mode: 0
Resolution mode: 1024 pixels
Integration Time (sec): 1.000000E-1
Scans to average: 1
Nonlinearity correction enabled: false
Boxcar width: 0
Baseline correction enabled: true
XAxis mode: Wavelengths
Number of Pixels in Spectrum: 1024
>>>>>Begin Spectral Data<<<<<
336.42	1
336.877	3
337.334	5
337.792	3
338.249	3
338.706	0
339.164	5
339.621	3
340.079	6
340.536	4
340.994	8
341.452	4
341.909	9
342.367	3
342.825	-2
343.283	2
343.741	2
344.198	2
344.656	4
345.114	-2
345.572	7
346.03	1
346.488	4
346.947	3
347.405	5
347.863	-1
348.321	1
348.779	7
349.238	1
349.696	4
350.154	2
350.613	3
351.071	4
351.53	10
351.988	9
352.447	4
352.905	1
353.364	4
353.823	5
354.282	6
354.74	1
355.199	10
355.658	6
356.117	4
356.576	4
357.035	2
357.494	9
357.953	3
358.412	8
358.871	5
359.33	5
359.789	4
360.249	5
360.708	5
361.167	7
361.626	7
362.086	5
362.545	6
363.005	9
363.464	10
363.924	10
364.383	5
364.843	7
365.303	11
365.762	12
366.222	8
366.682	12
367.142	8
367.601	11
368.061	10
368.521	6
368.981	11
369.441	13
369.901	13
370.361	10
370.821	11
371.282	14
371.742	17
372.202	15
372.662	16
373.123	9
373.583	15
374.043	16
374.504	14
374.964	17
375.425	13
375.885	15
376.346	17
376.806	21
377.267	17
377.728	21
378.188	21
378.649	20
379.11	20
379.571	15
380.032	20
380.493	22
380.954	26
381.414	21
381.876	24
382.337	24
382.798	28
383.259	29
383.72	26
384.181	25
384.642	28
385.104	35
385.565	34
386.026	35
386.488	33
386.949	37
387.411	36
387.872	39
388.334	36
388.795	40
389.257	40
389.719	37
390.181	42
390.642	42
391.104	43
391.566	47
392.028	49
392.49	49
392.952	49
393.414	51
393.876	53
394.338	50
394.8	54
395.262	46
395.724	55
396.186	53
396.648	53
397.111	56
397.573	61
398.035	60
398.498	61
398.96	62
399.423	61
399.885	60
400.348	62
400.81	65
401.273	65
401.736	65
402.198	77
402.661	72
403.124	67
403.587	80
404.049	78.5
404.512	77
404.975	80
405.438	82
405.901	84
406.364	84
406.827	85
407.29	85
407.754	86
408.217	84
408.68	84
409.143	92
409.607	94
410.07	90
410.533	92
410.997	92
411.46	99
411.924	101
412.387	98
412.851	97
413.314	104
413.778	102
414.242	103
414.705	110
415.169	110
415.633	111
416.097	106
416.561	110
417.024	109
417.488	112
417.952	116
418.416	107
418.88	104
419.344	106
419.809	117
420.273	121
420.737	114
421.201	118
421.665	126
422.13	123
422.594	132
423.059	128
423.523	135
423.987	132
424.452	138
424.916	139
425.381	141
425.846	140
426.31	153
426.775	155
427.24	157
427.704	152
428.169	153
428.634	162
429.099	155
429.564	152
430.029	155
430.494	157
430.959	156
431.424	152
431.889	164
432.354	171
432.819	165
433.284	176
433.75	169
434.215	179
434.68	179
435.146	179
435.611	189
436.077	191
436.542	196
437.008	205
437.473	204
437.939	206
438.404	213
438.87	214
439.336	213
439.801	214
440.267	217
440.733	220
441.199	218
441.665	225
442.131	229
442.596	223
443.062	233
443.529	244
443.995	247
444.461	250
444.927	261
445.393	262
445.859	272
446.325	279
446.792	297
447.258	294
447.724	303
448.191	316
448.657	318
449.124	318
449.59	318
450.057	344
450.523	344
450.99	350
451.457	344
451.923	359
452.39	353
452.857	368
453.324	362
453.791	368
454.257	367
454.724	372
455.191	374
455.658	376
456.125	386
456.592	380
457.059	390
457.527	388
457.994	402
458.461	409
458.928	414
459.396	411
459.863	429
460.33	425
460.798	428
461.265	436
461.732	431
462.2	445
462.668	441
463.135	449
463.603	430
464.07	451
464.538	437
465.006	451
465.474	446
465.941	446
466.409	448
466.877	438
467.345	453
467.813	445
468.281	452
468.749	462
469.217	455
469.685	466
470.153	474
470.621	478
471.09	478
471.558	501
472.026	505
472.494	516
472.963	521
473.431	534
473.9	545
474.368	561
474.837	572
475.305	577
475.774	587
476.242	594
476.711	599
477.18	624
477.648	618
478.117	621
478.586	625
479.055	622
479.524	625
479.993	631
480.462	630
480.93	629
481.399	626
481.869	641
482.338	627
482.807	641
483.276	638
483.745	638
484.214	655
484.684	669
485.153	670
485.622	675
486.092	698
486.561	686
487.031	713
487.5	716
487.97	731
488.439	751
488.909	766
489.378	796
489.848	796
490.318	815
490.787	852
491.257	852
491.727	856
492.197	867
492.667	880
493.137	892
493.607	895
494.077	899
494.547	889
495.017	889
495.487	905
495.957	922
496.427	905
496.897	909
497.368	918
497.838	913
498.308	918
498.779	938
499.249	947
499.719	956
500.19	965
500.66	972
501.131	981
501.602	996
502.072	994
502.543	1014
503.014	1056
503.484	1055
503.955	1082
504.426	1116
504.897	1123
505.368	1146
505.838	1169
506.309	1197
506.78	1228
507.251	1251
507.722	1275
508.194	1317
508.665	1334
509.136	1327
509.607	1362
510.078	1375
510.549	1379
511.021	1422
511.492	1424
511.964	1448
512.435	1467
512.906	1458
513.378	1477
513.849	1502
514.321	1502
514.793	1510
515.264	1543
515.736	1552
516.208	1592
516.679	1594
517.151	1614
517.623	1628
518.095	1650
518.567	1662
519.038	1701
519.51	1707
519.982	1710
520.454	1722
520.927	1738
521.399	1774
521.871	1797
522.343	1799
522.815	1822
523.287	1824
523.76	1838
524.232	1876
524.704	1879
525.177	1852
525.649	1854
526.122	1886
526.594	1841
527.067	1886
527.539	1920
528.012	1903
528.484	1904
528.957	1916
529.43	1902
529.903	1894
530.375	1954
530.848	1924
531.321	1948
531.794	1953
532.267	1991
532.74	1958
533.213	1954
533.686	1987
534.159	1984
534.632	2035
535.105	2036
535.578	2098
536.051	2098
536.525	2103
536.998	2096
537.471	2137
537.945	2119
538.418	2145
538.891	2145
539.365	2185
539.838	2203
540.312	2191
540.786	2198
541.259	2195
541.733	2237
542.206	2246
542.68	2207
543.154	2212
543.628	2222
544.101	2268
544.575	2229
545.049	2170
545.523	2219
545.997	2223
546.471	2244
546.945	2214
547.419	2256
547.893	2186
548.367	2231
548.842	2207
549.316	2235
549.79	2248
550.264	2225
550.739	2249
551.213	2243
551.687	2239
552.162	2260
552.636	2242
553.111	2240
553.585	2320
554.06	2292
554.534	2334
555.009	2314
555.484	2357
555.958	2392
556.433	2396
556.908	2432
557.383	2412
557.858	2477
558.333	2477
558.807	2460
559.282	2475
559.757	2554
560.232	2540
560.708	2498
561.183	2485
561.658	2530
562.133	2529
562.608	2508
563.083	2566
563.559	2511
564.034	2516
564.509	2519
564.985	2521
565.46	2503
565.936	2550
566.411	2556
566.887	2527
567.362	2546
567.838	2561
568.313	2587
568.789	2529
569.265	2535
569.74	2548
570.216	2537
570.692	2579
571.168	2576
571.644	2589
572.12	2580
572.596	2618
573.071	2636
573.547	2715
574.024	2730
574.5	2743
574.976	2739
575.452	2782
575.928	2815
576.404	2842
576.881	2947
577.357	2884
577.833	2895
578.31	2981
578.786	3015
579.262	3055
579.739	2998
580.215	3082
580.692	3088
581.169	3067
581.645	3062
582.122	3168
582.598	3171
583.075	3187
583.552	3197
584.029	3182
584.506	3136
584.982	3122
585.459	3208
585.936	3151
586.413	3199
586.89	3253
587.367	3219
587.844	3259
588.321	3241
588.799	3262
589.276	3239
589.753	3301
590.23	3322
590.707	3304
591.185	3301
591.662	3301
592.139	3344
592.617	3383
593.094	3361
593.572	3393
594.049	3436
594.527	3476
595.004	3484
595.482	3579
595.96	3564
596.437	3577
596.915	3659
597.393	3588
597.871	3665
598.349	3647
598.826	3709
599.304	3711
599.782	3777
600.26	3734
600.738	3823
601.216	3801
601.694	3818
602.173	3840
602.651	3863
603.129	3800
603.607	3841
604.085	3871
604.564	3875
605.042	3894
605.52	3865
605.999	3965
606.477	3852
606.956	3862
607.434	3906.5
607.913	3951
608.391	3939
608.87	3915
609.348	3850
609.827	3854
610.306	3879
610.785	3884
611.263	3888
611.742	3871
612.221	3812
612.7	3870
613.179	3902
613.658	3882
614.137	3927
614.616	3954
615.095	3887
615.574	3933
616.053	3975
616.532	3929
617.011	3938
617.491	3981
617.97	3967
618.449	4019
618.928	4044
619.408	4020
619.887	4047
620.367	4088
620.846	4123
621.326	4072
621.805	4161
622.285	4158
622.764	4184
623.244	4186
623.724	4204
624.203	4221
624.683	4170
625.163	4265
625.643	4259
626.123	4224
626.602	4316
627.082	4224
627.562	4212
628.042	4287
628.522	4241
629.002	4198
629.482	4232
629.963	4247
630.443	4242
630.923	4244
631.403	4268
631.883	4242
632.364	4251
632.844	4226
633.324	4261
633.805	4272
634.285	4217
634.766	4185
635.246	4172
635.727	4161
636.207	4174
636.688	4171
637.168	4166
637.649	4158
638.13	4126
638.611	4149
639.091	4161
639.572	4142
640.053	4125
640.534	4151
641.015	4143
641.496	4062
641.977	4147
642.458	4108
642.939	4111
643.42	4128
643.901	4121
644.382	4163
644.863	4136
645.345	4122
645.826	4121
646.307	4131
646.788	4193
647.27	4125
647.751	4134
648.233	4176
648.714	4071
649.196	4195
649.677	4187
650.159	4182
650.64	4144
651.122	4203
651.603	4136
652.085	4145
652.567	4172
653.049	4151
653.53	4133
654.012	4193
654.494	4108
654.976	4174
655.458	4175
655.94	4146
656.422	4200
656.904	4113
657.386	4065
657.868	4074
658.35	4042
658.833	4103
659.315	4118
659.797	4063
660.279	4062
660.762	4071
661.244	4040
661.726	3989
662.209	4008
662.691	4012
663.174	3943
663.656	3952
664.139	3934
664.621	3896
665.104	3884
665.587	3930
666.069	3954
666.552	3946
667.035	3882
667.517	3877
668	3912
668.483	3912
668.966	3861
669.449	3858
669.932	3865
670.415	3914
670.898	3880
671.381	3882
671.864	3891
672.347	3837
672.83	3866
673.313	3890
673.797	3874
674.28	3954
674.763	3941
675.247	3954
675.73	3925
676.213	3959
676.697	3985
677.18	3994
677.664	3992
678.147	3993
678.631	4020
679.114	4028
679.598	4009
680.082	4024
680.565	4000
681.049	3980
681.533	3984
682.017	4037
682.5	4017
682.984	4005
683.468	4007
683.952	3957
684.436	4029
684.92	3986
685.404	4006
685.888	4047
686.372	4005
686.856	4018
687.341	4052
687.825	4008
688.309	4041
688.793	4052
689.278	3996
689.762	4031
690.246	4009
690.731	4020
691.215	4041
691.7	3939
692.184	3970
692.669	3950
693.153	3951
693.638	3865
694.122	3861
694.607	3895
695.092	3837
695.577	3860
696.061	3795
696.546	3794
697.031	3760
697.516	3793
698.001	3779
698.486	3751
698.971	3809
699.456	3733
699.941	3725
700.426	3725
700.911	3790
701.396	3767
701.881	3798
702.366	3761
702.852	3731
703.337	3747
703.822	3750
704.308	3766
704.793	3807
705.278	3811
705.764	3818
706.249	3776
706.735	3786
707.22	3829
707.706	3771
708.191	3820
708.677	3804
709.163	3754
709.648	3747
710.134	3789
710.62	3747
711.106	3749
711.592	3795
712.077	3783
712.563	3699
713.049	3706
713.535	3775
714.021	3742
714.507	3720
714.993	3688
715.479	3729
715.966	3686
716.452	3683
716.938	3696
717.424	3571
717.91	3648
718.397	3629
718.883	3618
719.369	3616
719.856	3598
720.342	3669
720.829	3613
721.315	3632
721.802	3612
722.288	3635
722.775	3495
723.262	3395
723.748	3532
724.235	3492
724.722	3527
725.208	3437
725.695	3421
726.182	3403
726.669	3370
727.156	3381
727.643	3349
728.13	3345
728.617	3309
729.104	3324
729.591	3303
730.078	3358
730.565	3361
731.052	3322
731.539	3331
732.027	3305
732.514	3247
733.001	3274
733.488	3251
733.976	3250
734.463	3234
734.951	3238
735.438	3282
735.926	3240
736.413	3266
736.901	3222
737.388	3248
737.876	3240
738.364	3219
738.851	3237
739.339	3226
739.827	3261
740.314	3152
740.802	3178
741.29	3189
741.778	3143
742.266	3155
742.754	3158
743.242	3169
743.73	3101
744.218	3087
744.706	3051
745.194	3066
745.682	3048
746.17	3055
746.659	3062
747.147	2988
747.635	3015
748.123	3001
748.612	2966
749.1	2940
749.589	2969
750.077	2979
750.566	2972
751.054	2989
751.543	2993
752.031	2906
752.52	2906
753.008	2844
753.497	2853
753.986	2837
754.474	2825
754.963	2848
755.452	2792
755.941	2777
756.43	2770
756.919	2762
757.408	2730
757.896	2754
758.385	2740
758.875	2707
759.364	2709
759.853	2692
760.342	2640
760.831	2694
761.32	2656
761.809	2630
762.299	2634
762.788	2648
763.277	2630
763.767	2584
764.256	2573
764.745	2548
765.235	2595
765.724	2534
766.214	2565
766.703	2510
767.193	2464
767.683	2468
768.172	2418
768.662	2427
769.152	2412
769.641	2408
770.131	2362
770.621	2412
771.111	2380
771.601	2369
772.09	2367
772.58	2349
773.07	2348
773.56	2359
774.05	2285
774.54	2274
775.031	2262
775.521	2251
776.011	2254
776.501	2270
776.991	2226
777.482	2232
777.972	2182
778.462	2171
778.953	2183
779.443	2170
779.933	2172
780.424	2152
780.914	2177
781.405	2180
781.895	2167
782.386	2169
782.877	2149
783.367	2094
783.858	2086
784.349	2089
784.839	2079
785.33	2075
785.821	2064
786.312	2047
786.803	2060
787.293	2056
787.784	2017
788.275	1990
788.766	1960
789.257	1989
789.748	1954
790.24	1926
790.731	1922
791.222	1884
791.713	1871
792.204	1878
792.696	1831
793.187	1843
793.678	1834
794.169	1773
794.661	1809
795.152	1792
795.644	1773
796.135	1768
796.627	1789
797.118	1760
797.61	1739
798.101	1711
798.593	1732
799.085	1711
799.576	1714
800.068	1691
800.56	1696
801.052	1658
801.544	1650
802.035	1642
802.527	1615
803.019	1598
803.511	1592
804.003	1569
804.495	1572
804.987	1549
805.479	1521
805.971	1532
806.464	1531
806.956	1499
807.448	1492
807.94	1490
808.433	1475
808.925	1472
809.417	1450
809.91	1443
810.402	1407
810.894	1407
811.387	1418
811.879	1391
812.372	1404
812.865	1393
813.357	1388
813.85	1381
814.342	1376
814.835	1381
815.328	1367
815.821	1351
816.313	1347
816.806	1349
817.299	1349
817.792	1362
818.285	1339
818.778	1347
819.271	1348
819.764	1322
820.257	1332
820.75	1336
821.243	1342
821.736	1329
822.229	1335
822.722	1329
823.216	1354
