Data from lamp4helium_zwak_Subt2__71__471.txt Node

Date: Wed Apr 09 11:14:40 CEST 2025
User: fys-lab-0081
Spectrometer: S04999
Trigger mode: 0
Resolution mode: 1024 pixels
Integration Time (sec): 1.000000E-1
Scans to average: 1
Nonlinearity correction enabled: false
Boxcar width: 0
Baseline correction enabled: true
XAxis mode: Wavelengths
Number of Pixels in Spectrum: 1024
>>>>>Begin Spectral Data<<<<<
336.42	1
336.877	5
337.334	1
337.792	7
338.249	2
338.706	2
339.164	1
339.621	0
340.079	8
340.536	5
340.994	3
341.452	4
341.909	6
342.367	3
342.825	2
343.283	3
343.741	4
344.198	5
344.656	-1
345.114	1
345.572	4
346.03	5
346.488	7
346.947	1
347.405	4
347.863	-2
348.321	1
348.779	7
349.238	1
349.696	5
350.154	3
350.613	3
351.071	4
351.53	8
351.988	6
352.447	3
352.905	-1
353.364	4
353.823	5
354.282	-1
354.74	1
355.199	3
355.658	6
356.117	5
356.576	4
357.035	4
357.494	5
357.953	4
358.412	9
358.871	9
359.33	4
359.789	6
360.249	9
360.708	11
361.167	10
361.626	6
362.086	5
362.545	9
363.005	10
363.464	8
363.924	6
364.383	5
364.843	9
365.303	11
365.762	10
366.222	13
366.682	8
367.142	12
367.601	9
368.061	10
368.521	8
368.981	10
369.441	18
369.901	12
370.361	7
370.821	16
371.282	12
371.742	14
372.202	13
372.662	16
373.123	10
373.583	19
374.043	17
374.504	8
374.964	14
375.425	16
375.885	15
376.346	16
376.806	20
377.267	18
377.728	22
378.188	21
378.649	19
379.11	26
379.571	14
380.032	22
380.493	16
380.954	29
381.414	20
381.876	22
382.337	23
382.798	25
383.259	29
383.72	28
384.181	25
384.642	27
385.104	24
385.565	31
386.026	33
386.488	34
386.949	34
387.411	34
387.872	40
388.334	37
388.795	41
389.257	41
389.719	37
390.181	41
390.642	41
391.104	44
391.566	45
392.028	45
392.49	51
392.952	48
393.414	49
393.876	49
394.338	49
394.8	48
395.262	48
395.724	58
396.186	53
396.648	58
397.111	59
397.573	59
398.035	55
398.498	59
398.96	68
399.423	59
399.885	63
400.348	67
400.81	64
401.273	64
401.736	65
402.198	75
402.661	75
403.124	70
403.587	79
404.049	78.5
404.512	78
404.975	77
405.438	81
405.901	89
406.364	81
406.827	82
407.29	82
407.754	83
408.217	84
408.68	86
409.143	87
409.607	93
410.07	90
410.533	91
410.997	90
411.46	94
411.924	97
412.387	100
412.851	99
413.314	103
413.778	99
414.242	102
414.705	106
415.169	108
415.633	107
416.097	105
416.561	112
417.024	116
417.488	106
417.952	112
418.416	108
418.88	108
419.344	107
419.809	119
420.273	115
420.737	115
421.201	120
421.665	123
422.13	127
422.594	134
423.059	130
423.523	134
423.987	127
424.452	134
424.916	142
425.381	141
425.846	135
426.31	153
426.775	152
427.24	151
427.704	152
428.169	154
428.634	158
429.099	159
429.564	152
430.029	151
430.494	152
430.959	157
431.424	155
431.889	163
432.354	168
432.819	160
433.284	171
433.75	168
434.215	178
434.68	178
435.146	177
435.611	183
436.077	195
436.542	192
437.008	204
437.473	202
437.939	207
438.404	213
438.87	217
439.336	209
439.801	211
440.267	220
440.733	219
441.199	224
441.665	223
442.131	234
442.596	226
443.062	232
443.529	241
443.995	252
444.461	248
444.927	261
445.393	258
445.859	274
446.325	282
446.792	298
447.258	291
447.724	302
448.191	318
448.657	320
449.124	316
449.59	318
450.057	339
450.523	338
450.99	345
451.457	340
451.923	354
452.39	353
452.857	362
453.324	358
453.791	364
454.257	369
454.724	374
455.191	370
455.658	372
456.125	381
456.592	376
457.059	383
457.527	389
457.994	402
458.461	401
458.928	414
459.396	410
459.863	424
460.33	421
460.798	426
461.265	437
461.732	430
462.2	444
462.668	440
463.135	444
463.603	428
464.07	451
464.538	434
465.006	447
465.474	442
465.941	441
466.409	452
466.877	434
467.345	451
467.813	444
468.281	453
468.749	457
469.217	456
469.685	470
470.153	482
470.621	481
471.09	477
471.558	499
472.026	503
472.494	515
472.963	522
473.431	529
473.9	543
474.368	558
474.837	565
475.305	572
475.774	579
476.242	599
476.711	600
477.18	618
477.648	612
478.117	620
478.586	621
479.055	620
479.524	627
479.993	626
480.462	624
480.93	629
481.399	632
481.869	633
482.338	630
482.807	641
483.276	635
483.745	637
484.214	663
484.684	666
485.153	669
485.622	672
486.092	698
486.561	684
487.031	708
487.5	713
487.97	725
488.439	742
488.909	759
489.378	791
489.848	796
490.318	809
490.787	848
491.257	845
491.727	853
492.197	868
492.667	869
493.137	883
493.607	890
494.077	899
494.547	889
495.017	884
495.487	904
495.957	923
496.427	904
496.897	901
497.368	922
497.838	913
498.308	926
498.779	938
499.249	938
499.719	949
500.19	966
500.66	964
501.131	980
501.602	991
502.072	993
502.543	1016
503.014	1050
503.484	1050
503.955	1077
504.426	1110
504.897	1121
505.368	1143
505.838	1164
506.309	1194
506.78	1228
507.251	1249
507.722	1279
508.194	1306
508.665	1331
509.136	1328
509.607	1360
510.078	1367
510.549	1374
511.021	1410
511.492	1416
511.964	1442
512.435	1462
512.906	1454
513.378	1466
513.849	1495
514.321	1489
514.793	1507
515.264	1528
515.736	1547
516.208	1585
516.679	1598
517.151	1607
517.623	1624
518.095	1648
518.567	1659
519.038	1692
519.51	1696
519.982	1707
520.454	1715
520.927	1744
521.399	1772
521.871	1796
522.343	1792
522.815	1822
523.287	1828
523.76	1831
524.232	1863
524.704	1870
525.177	1847
525.649	1843
526.122	1874
526.594	1842
527.067	1886
527.539	1907
528.012	1895
528.484	1890
528.957	1901
529.43	1898
529.903	1882
530.375	1944
530.848	1908
531.321	1945
531.794	1942
532.267	1979
532.74	1952
533.213	1947
533.686	1983
534.159	1979
534.632	2022
535.105	2032
535.578	2089
536.051	2090
536.525	2091
536.998	2094
537.471	2135
537.945	2110
538.418	2138
538.891	2139
539.365	2177
539.838	2193
540.312	2181
540.786	2193
541.259	2195
541.733	2228
542.206	2235
542.68	2209
543.154	2206
543.628	2212
544.101	2255
544.575	2224
545.049	2174
545.523	2216
545.997	2214
546.471	2237
546.945	2206
547.419	2251
547.893	2188
548.367	2223
548.842	2200
549.316	2222
549.79	2235
550.264	2212
550.739	2246
551.213	2235
551.687	2228
552.162	2250
552.636	2241
553.111	2235
553.585	2317
554.06	2284
554.534	2322
555.009	2307
555.484	2347
555.958	2382
556.433	2386
556.908	2421
557.383	2408
557.858	2464
558.333	2470
558.807	2463
559.282	2476
559.757	2548
560.232	2536
560.708	2492
561.183	2482
561.658	2523
562.133	2519
562.608	2494
563.083	2554
563.559	2498
564.034	2509
564.509	2508
564.985	2513
565.46	2493
565.936	2550
566.411	2544
566.887	2517
567.362	2541
567.838	2552
568.313	2583
568.789	2532
569.265	2521
569.74	2548
570.216	2532
570.692	2573
571.168	2567
571.644	2576
572.12	2575
572.596	2604
573.071	2628
573.547	2701
574.024	2723
574.5	2740
574.976	2735
575.452	2774
575.928	2802
576.404	2830
576.881	2936
577.357	2882
577.833	2888
578.31	2975
578.786	3010
579.262	3040
579.739	2995
580.215	3077
580.692	3075
581.169	3062
581.645	3056
582.122	3152
582.598	3161
583.075	3175
583.552	3191
584.029	3176
584.506	3139
584.982	3113
585.459	3195
585.936	3147
586.413	3188
586.89	3248
587.367	3206
587.844	3260
588.321	3231
588.799	3252
589.276	3232
589.753	3283
590.23	3316
590.707	3298
591.185	3289
591.662	3293
592.139	3324
592.617	3380
593.094	3352
593.572	3382
594.049	3423
594.527	3467
595.004	3473
595.482	3562
595.96	3552
596.437	3564
596.915	3652
597.393	3577
597.871	3646
598.349	3629
598.826	3705
599.304	3701
599.782	3763
600.26	3731
600.738	3814
601.216	3794
601.694	3808
602.173	3827
602.651	3849
603.129	3791
603.607	3830
604.085	3864
604.564	3862
605.042	3885
605.52	3853
605.999	3951
606.477	3846
606.956	3844
607.434	3885.5
607.913	3927
608.391	3922
608.87	3911
609.348	3829
609.827	3829
610.306	3864
610.785	3863
611.263	3872
611.742	3857
612.221	3799
612.7	3859
613.179	3891
613.658	3861
614.137	3918
614.616	3942
615.095	3872
615.574	3939
616.053	3964
616.532	3917
617.011	3916
617.491	3962
617.97	3945
618.449	4009
618.928	4037
619.408	3994
619.887	4033
620.367	4070
620.846	4106
621.326	4065
621.805	4151
622.285	4139
622.764	4173
623.244	4168
623.724	4193
624.203	4215
624.683	4151
625.163	4253
625.643	4249
626.123	4214
626.602	4306
627.082	4203
627.562	4195
628.042	4276
628.522	4219
629.002	4182
629.482	4226
629.963	4232
630.443	4225
630.923	4235
631.403	4268
631.883	4246
632.364	4233
632.844	4217
633.324	4248
633.805	4257
634.285	4205
634.766	4167
635.246	4161
635.727	4149
636.207	4153
636.688	4147
637.168	4159
637.649	4150
638.13	4111
638.611	4138
639.091	4135
639.572	4122
640.053	4107
640.534	4140
641.015	4124
641.496	4046
641.977	4129
642.458	4102
642.939	4102
643.42	4109
643.901	4106
644.382	4151
644.863	4133
645.345	4108
645.826	4109
646.307	4121
646.788	4186
647.27	4109
647.751	4121
648.233	4152
648.714	4061
649.196	4187
649.677	4177
650.159	4170
650.64	4132
651.122	4203
651.603	4123
652.085	4132
652.567	4158
653.049	4124
653.53	4118
654.012	4177
654.494	4093
654.976	4156
655.458	4158
655.94	4135
656.422	4202
656.904	4108
657.386	4055
657.868	4067
658.35	4040
658.833	4092
659.315	4110
659.797	4050
660.279	4044
660.762	4081
661.244	4039
661.726	3983
662.209	3987
662.691	4002
663.174	3928
663.656	3954
664.139	3938
664.621	3888
665.104	3869
665.587	3919
666.069	3935
666.552	3928
667.035	3876
667.517	3864
668	3913
668.483	3902
668.966	3856
669.449	3849
669.932	3857
670.415	3892
670.898	3871
671.381	3867
671.864	3888
672.347	3837
672.83	3852
673.313	3873
673.797	3860
674.28	3947
674.763	3934
675.247	3939
675.73	3907
676.213	3957
676.697	3976
677.18	3986
677.664	3979
678.147	3978
678.631	4013
679.114	4030
679.598	4002
680.082	4008
680.565	3991
681.049	3963
681.533	3979
682.017	4027
682.5	4001
682.984	3991
683.468	4001
683.952	3943
684.436	4015
684.92	3977
685.404	4002
685.888	4038
686.372	4001
686.856	3999
687.341	4051
687.825	4001
688.309	4017
688.793	4035
689.278	3984
689.762	4023
690.246	4001
690.731	4011
691.215	4034
691.7	3936
692.184	3955
692.669	3943
693.153	3944
693.638	3859
694.122	3843
694.607	3890
695.092	3828
695.577	3853
696.061	3795
696.546	3787
697.031	3745
697.516	3775
698.001	3781
698.486	3747
698.971	3799
699.456	3712
699.941	3715
700.426	3713
700.911	3782
701.396	3763
701.881	3792
702.366	3739
702.852	3722
703.337	3735
703.822	3738
704.308	3756
704.793	3798
705.278	3801
705.764	3812
706.249	3773
706.735	3770
707.22	3814
707.706	3767
708.191	3814
708.677	3796
709.163	3744
709.648	3743
710.134	3779
710.62	3733
711.106	3727
711.592	3784
712.077	3776
712.563	3688
713.049	3686
713.535	3762
714.021	3735
714.507	3713
714.993	3678
715.479	3722
715.966	3678
716.452	3683
716.938	3683
717.424	3562
717.91	3643
718.397	3621
718.883	3607
719.369	3610
719.856	3588
720.342	3651
720.829	3604
721.315	3623
721.802	3601
722.288	3636
722.775	3488
723.262	3396
723.748	3520
724.235	3489
724.722	3515
725.208	3426
725.695	3409
726.182	3391
726.669	3361
727.156	3370
727.643	3329
728.13	3337
728.617	3301
729.104	3312
729.591	3302
730.078	3334
730.565	3351
731.052	3317
731.539	3321
732.027	3294
732.514	3243
733.001	3269
733.488	3242
733.976	3242
734.463	3217
734.951	3236
735.438	3277
735.926	3235
736.413	3253
736.901	3214
737.388	3237
737.876	3230
738.364	3200
738.851	3222
739.339	3220
739.827	3252
740.314	3138
740.802	3171
741.29	3184
741.778	3141
742.266	3148
742.754	3153
743.242	3165
743.73	3094
744.218	3085
744.706	3044
745.194	3065
745.682	3034
746.17	3056
746.659	3050
747.147	2984
747.635	3009
748.123	3000
748.612	2952
749.1	2932
749.589	2972
750.077	2968
750.566	2965
751.054	2981
751.543	2978
752.031	2904
752.52	2898
753.008	2841
753.497	2842
753.986	2835
754.474	2815
754.963	2839
755.452	2785
755.941	2768
756.43	2768
756.919	2754
757.408	2734
757.896	2740
758.385	2743
758.875	2707
759.364	2706
759.853	2692
760.342	2629
760.831	2684
761.32	2651
761.809	2619
762.299	2627
762.788	2641
763.277	2619
763.767	2569
764.256	2559
764.745	2544
765.235	2586
765.724	2526
766.214	2564
766.703	2508
767.193	2460
767.683	2459
768.172	2411
768.662	2428
769.152	2402
769.641	2404
770.131	2361
770.621	2402
771.111	2375
771.601	2372
772.09	2351
772.58	2340
773.07	2348
773.56	2352
774.05	2296
774.54	2266
775.031	2250
775.521	2248
776.011	2245
776.501	2261
776.991	2221
777.482	2237
777.972	2176
778.462	2169
778.953	2179
779.443	2163
779.933	2168
780.424	2143
780.914	2166
781.405	2166
781.895	2165
782.386	2167
782.877	2142
783.367	2099
783.858	2079
784.349	2088
784.839	2069
785.33	2079
785.821	2061
786.312	2042
786.803	2058
787.293	2048
787.784	2012
788.275	1982
788.766	1959
789.257	1985
789.748	1946
790.24	1929
790.731	1917
791.222	1874
791.713	1866
792.204	1871
792.696	1816
793.187	1841
793.678	1829
794.169	1771
794.661	1806
795.152	1785
795.644	1769
796.135	1770
796.627	1783
797.118	1754
797.61	1727
798.101	1711
798.593	1735
799.085	1701
799.576	1704
800.068	1689
800.56	1695
801.052	1655
801.544	1646
802.035	1642
802.527	1613
803.019	1601
803.511	1589
804.003	1569
804.495	1573
804.987	1552
805.479	1515
805.971	1526
806.464	1529
806.956	1490
807.448	1487
807.94	1482
808.433	1473
808.925	1469
809.417	1449
809.91	1432
810.402	1400
810.894	1410
811.387	1415
811.879	1389
812.372	1400
812.865	1382
813.357	1382
813.85	1377
814.342	1375
814.835	1366
815.328	1360
815.821	1346
816.313	1348
816.806	1347
817.299	1343
817.792	1358
818.285	1334
818.778	1345
819.271	1342
819.764	1322
820.257	1335
820.75	1336
821.243	1342
821.736	1318
822.229	1336
822.722	1337
823.216	1357
