Data from lamp4helium_zwak_Subt2__0__400.txt Node

Date: Wed Apr 09 11:14:31 CEST 2025
User: fys-lab-0081
Spectrometer: S04999
Trigger mode: 0
Resolution mode: 1024 pixels
Integration Time (sec): 1.000000E-1
Scans to average: 1
Nonlinearity correction enabled: false
Boxcar width: 0
Baseline correction enabled: true
XAxis mode: Wavelengths
Number of Pixels in Spectrum: 1024
>>>>>Begin Spectral Data<<<<<
336.42	4
336.877	2
337.334	5
337.792	5
338.249	1
338.706	1
339.164	2
339.621	4
340.079	4
340.536	6
340.994	3
341.452	6
341.909	4
342.367	4
342.825	3
343.283	7
343.741	2
344.198	0
344.656	1
345.114	6
345.572	8
346.03	2
346.488	1
346.947	2
347.405	7
347.863	1
348.321	1
348.779	5
349.238	5
349.696	4
350.154	0
350.613	4
351.071	3
351.53	7
351.988	10
352.447	1
352.905	3
353.364	3
353.823	7
354.282	6
354.74	1
355.199	3
355.658	10
356.117	5
356.576	5
357.035	2
357.494	6
357.953	4
358.412	9
358.871	9
359.33	8
359.789	3
360.249	10
360.708	7
361.167	11
361.626	12
362.086	6
362.545	8
363.005	6
363.464	10
363.924	5
364.383	7
364.843	13
365.303	14
365.762	13
366.222	9
366.682	10
367.142	12
367.601	11
368.061	14
368.521	14
368.981	8
369.441	15
369.901	15
370.361	9
370.821	10
371.282	10
371.742	15
372.202	14
372.662	14
373.123	13
373.583	18
374.043	16
374.504	14
374.964	11
375.425	17
375.885	17
376.346	19
376.806	21
377.267	13
377.728	23
378.188	22
378.649	15
379.11	24
379.571	15
380.032	23
380.493	19
380.954	26
381.414	24
381.876	22
382.337	26
382.798	25
383.259	27
383.72	25
384.181	25
384.642	27
385.104	28
385.565	30
386.026	36
386.488	31
386.949	34
387.411	31
387.872	36
388.334	44
388.795	40
389.257	37
389.719	38
390.181	42
390.642	44
391.104	42
391.566	48
392.028	44
392.49	51
392.952	51
393.414	52
393.876	50
394.338	51
394.8	51
395.262	48
395.724	54
396.186	57
396.648	55
397.111	55
397.573	63
398.035	59
398.498	60
398.96	62
399.423	61
399.885	62
400.348	67
400.81	65
401.273	66
401.736	66
402.198	73
402.661	77
403.124	71
403.587	78
404.049	79.5
404.512	81
404.975	81
405.438	79
405.901	86
406.364	89
406.827	84
407.29	81
407.754	80
408.217	85
408.68	84
409.143	87
409.607	94
410.07	91
410.533	89
410.997	91
411.46	95
411.924	99
412.387	102
412.851	94
413.314	100
413.778	102
414.242	104
414.705	112
415.169	110
415.633	107
416.097	107
416.561	111
417.024	112
417.488	109
417.952	113
418.416	113
418.88	110
419.344	112
419.809	115
420.273	118
420.737	119
421.201	120
421.665	123
422.13	125
422.594	126
423.059	131
423.523	129
423.987	133
424.452	136
424.916	143
425.381	145
425.846	146
426.31	153
426.775	149
427.24	152
427.704	157
428.169	156
428.634	153
429.099	157
429.564	155
430.029	158
430.494	157
430.959	154
431.424	155
431.889	165
432.354	168
432.819	166
433.284	175
433.75	170
434.215	179
434.68	180
435.146	180
435.611	188
436.077	191
436.542	194
437.008	204
437.473	199
437.939	206
438.404	208
438.87	214
439.336	210
439.801	213
440.267	220
440.733	222
441.199	223
441.665	222
442.131	232
442.596	228
443.062	231
443.529	243
443.995	244
444.461	249
444.927	260
445.393	262
445.859	275
446.325	278
446.792	296
447.258	291
447.724	306
448.191	315
448.657	317
449.124	322
449.59	321
450.057	339
450.523	340
450.99	352
451.457	349
451.923	357
452.39	354
452.857	369
453.324	359
453.791	369
454.257	371
454.724	377
455.191	377
455.658	374
456.125	388
456.592	379
457.059	390
457.527	393
457.994	405
458.461	408
458.928	417
459.396	415
459.863	428
460.33	422
460.798	429
461.265	437
461.732	437
462.2	446
462.668	441
463.135	452
463.603	434
464.07	451
464.538	437
465.006	448
465.474	445
465.941	445
466.409	445
466.877	439
467.345	449
467.813	448
468.281	454
468.749	459
469.217	457
469.685	470
470.153	479
470.621	477
471.09	477
471.558	499
472.026	507
472.494	514
472.963	517
473.431	535
473.9	544
474.368	564
474.837	570
475.305	576
475.774	587
476.242	603
476.711	602
477.18	623
477.648	611
478.117	620
478.586	623
479.055	619
479.524	629
479.993	629
480.462	630
480.93	630
481.399	628
481.869	640
482.338	628
482.807	646
483.276	637
483.745	639
484.214	659
484.684	672
485.153	668
485.622	679
486.092	695
486.561	683
487.031	711
487.5	718
487.97	730
488.439	745
488.909	766
489.378	795
489.848	804
490.318	816
490.787	850
491.257	851
491.727	854
492.197	871
492.667	884
493.137	885
493.607	888
494.077	899
494.547	891
495.017	894
495.487	906
495.957	932
496.427	911
496.897	908
497.368	921
497.838	911
498.308	924
498.779	943
499.249	942
499.719	951
500.19	969
500.66	972
501.131	976
501.602	995
502.072	997
502.543	1019
503.014	1056
503.484	1049
503.955	1079
504.426	1121
504.897	1123
505.368	1149
505.838	1174
506.309	1193
506.78	1221
507.251	1251
507.722	1280
508.194	1314
508.665	1335
509.136	1328
509.607	1370
510.078	1370
510.549	1383
511.021	1424
511.492	1425
511.964	1444
512.435	1465
512.906	1461
513.378	1469
513.849	1499
514.321	1498
514.793	1515
515.264	1535
515.736	1553
516.208	1583
516.679	1596
517.151	1618
517.623	1630
518.095	1651
518.567	1664
519.038	1701
519.51	1699
519.982	1708
520.454	1718
520.927	1750
521.399	1779
521.871	1794
522.343	1802
522.815	1822
523.287	1825
523.76	1844
524.232	1870
524.704	1876
525.177	1851
525.649	1856
526.122	1885
526.594	1838
527.067	1885
527.539	1919
528.012	1900
528.484	1888
528.957	1906
529.43	1896
529.903	1887
530.375	1953
530.848	1921
531.321	1946
531.794	1949
532.267	1985
532.74	1958
533.213	1951
533.686	1982
534.159	1976
534.632	2026
535.105	2045
535.578	2095
536.051	2100
536.525	2093
536.998	2091
537.471	2146
537.945	2116
538.418	2148
538.891	2150
539.365	2189
539.838	2199
540.312	2186
540.786	2189
541.259	2195
541.733	2233
542.206	2246
542.68	2205
543.154	2204
543.628	2213
544.101	2265
544.575	2227
545.049	2175
545.523	2222
545.997	2221
546.471	2244
546.945	2223
547.419	2257
547.893	2181
548.367	2225
548.842	2205
549.316	2224
549.79	2240
550.264	2219
550.739	2244
551.213	2238
551.687	2243
552.162	2256
552.636	2241
553.111	2233
553.585	2314
554.06	2287
554.534	2322
555.009	2307
555.484	2353
555.958	2394
556.433	2395
556.908	2426
557.383	2408
557.858	2467
558.333	2472
558.807	2461
559.282	2483
559.757	2550
560.232	2538
560.708	2492
561.183	2479
561.658	2529
562.133	2523
562.608	2499
563.083	2561
563.559	2507
564.034	2522
564.509	2518
564.985	2516
565.46	2496
565.936	2552
566.411	2553
566.887	2521
567.362	2543
567.838	2553
568.313	2580
568.789	2538
569.265	2529
569.74	2547
570.216	2530
570.692	2576
571.168	2579
571.644	2580
572.12	2573
572.596	2607
573.071	2627
573.547	2702
574.024	2728
574.5	2745
574.976	2731
575.452	2782
575.928	2812
576.404	2834
576.881	2937
577.357	2889
577.833	2893
578.31	2980
578.786	3008
579.262	3040
579.739	2997
580.215	3074
580.692	3079
581.169	3056
581.645	3057
582.122	3159
582.598	3163
583.075	3178
583.552	3185
584.029	3183
584.506	3135
584.982	3111
585.459	3192
585.936	3150
586.413	3187
586.89	3245
587.367	3203
587.844	3261
588.321	3235
588.799	3257
589.276	3221
589.753	3292
590.23	3311
590.707	3299
591.185	3293
591.662	3299
592.139	3318
592.617	3373
593.094	3351
593.572	3383
594.049	3426
594.527	3472
595.004	3484
595.482	3563
595.96	3548
596.437	3570
596.915	3650
597.393	3570
597.871	3651
598.349	3635
598.826	3710
599.304	3706
599.782	3772
600.26	3727
600.738	3813
601.216	3797
601.694	3815
602.173	3831
602.651	3848
603.129	3800
603.607	3827
604.085	3876
604.564	3867
605.042	3888
605.52	3855
605.999	3956
606.477	3842
606.956	3848
607.434	3893.5
607.913	3939
608.391	3931
608.87	3903
609.348	3835
609.827	3841
610.306	3870
610.785	3866
611.263	3875
611.742	3862
612.221	3796
612.7	3862
613.179	3900
613.658	3859
614.137	3916
614.616	3942
615.095	3877
615.574	3931
616.053	3960
616.532	3925
617.011	3932
617.491	3958
617.97	3952
618.449	4012
618.928	4039
619.408	3990
619.887	4039
620.367	4055
620.846	4102
621.326	4067
621.805	4149
622.285	4149
622.764	4165
623.244	4176
623.724	4190
624.203	4206
624.683	4146
625.163	4253
625.643	4246
626.123	4206
626.602	4304
627.082	4206
627.562	4203
628.042	4280
628.522	4225
629.002	4185
629.482	4218
629.963	4235
630.443	4223
630.923	4233
631.403	4255
631.883	4237
632.364	4233
632.844	4212
633.324	4245
633.805	4257
634.285	4195
634.766	4169
635.246	4154
635.727	4153
636.207	4148
636.688	4162
637.168	4148
637.649	4142
638.13	4112
638.611	4139
639.091	4144
639.572	4124
640.053	4106
640.534	4138
641.015	4117
641.496	4049
641.977	4130
642.458	4091
642.939	4104
643.42	4108
643.901	4119
644.382	4145
644.863	4124
645.345	4106
645.826	4108
646.307	4111
646.788	4179
647.27	4108
647.751	4126
648.233	4151
648.714	4060
649.196	4181
649.677	4179
650.159	4172
650.64	4125
651.122	4201
651.603	4120
652.085	4137
652.567	4158
653.049	4129
653.53	4131
654.012	4179
654.494	4095
654.976	4160
655.458	4154
655.94	4123
656.422	4190
656.904	4105
657.386	4045
657.868	4060
658.35	4040
658.833	4091
659.315	4106
659.797	4051
660.279	4041
660.762	4064
661.244	4031
661.726	3970
662.209	3989
662.691	4002
663.174	3924
663.656	3935
664.139	3928
664.621	3889
665.104	3865
665.587	3921
666.069	3930
666.552	3930
667.035	3858
667.517	3865
668	3902
668.483	3898
668.966	3850
669.449	3844
669.932	3851
670.415	3897
670.898	3867
671.381	3867
671.864	3874
672.347	3820
672.83	3852
673.313	3866
673.797	3861
674.28	3926
674.763	3923
675.247	3927
675.73	3905
676.213	3951
676.697	3969
677.18	3972
677.664	3967
678.147	3968
678.631	3997
679.114	4029
679.598	3995
680.082	4007
680.565	3983
681.049	3966
681.533	3983
682.017	4020
682.5	3999
682.984	3989
683.468	3989
683.952	3934
684.436	4023
684.92	3967
685.404	3990
685.888	4024
686.372	3994
686.856	3996
687.341	4041
687.825	3986
688.309	4020
688.793	4036
689.278	3976
689.762	4004
690.246	3991
690.731	4002
691.215	4007
691.7	3919
692.184	3957
692.669	3925
693.153	3928
693.638	3846
694.122	3839
694.607	3883
695.092	3822
695.577	3852
696.061	3787
696.546	3781
697.031	3746
697.516	3775
698.001	3770
698.486	3737
698.971	3792
699.456	3714
699.941	3704
700.426	3708
700.911	3770
701.396	3756
701.881	3777
702.366	3732
702.852	3718
703.337	3726
703.822	3738
704.308	3753
704.793	3800
705.278	3800
705.764	3803
706.249	3761
706.735	3762
707.22	3798
707.706	3757
708.191	3802
708.677	3784
709.163	3733
709.648	3737
710.134	3779
710.62	3727
711.106	3726
711.592	3775
712.077	3772
712.563	3686
713.049	3689
713.535	3763
714.021	3740
714.507	3709
714.993	3667
715.479	3704
715.966	3664
716.452	3671
716.938	3670
717.424	3555
717.91	3640
718.397	3613
718.883	3593
719.369	3602
719.856	3577
720.342	3647
720.829	3592
721.315	3620
721.802	3588
722.288	3610
722.775	3472
723.262	3395
723.748	3515
724.235	3474
724.722	3503
725.208	3418
725.695	3395
726.182	3385
726.669	3341
727.156	3368
727.643	3328
728.13	3335
728.617	3289
729.104	3299
729.591	3288
730.078	3327
730.565	3337
731.052	3302
731.539	3309
732.027	3283
732.514	3224
733.001	3252
733.488	3236
733.976	3228
734.463	3211
734.951	3226
735.438	3260
735.926	3233
736.413	3240
736.901	3217
737.388	3228
737.876	3216
738.364	3195
738.851	3205
739.339	3207
739.827	3240
740.314	3131
740.802	3166
741.29	3171
741.778	3130
742.266	3143
742.754	3135
743.242	3154
743.73	3080
744.218	3077
744.706	3028
745.194	3052
745.682	3022
746.17	3045
746.659	3043
747.147	2970
747.635	2999
748.123	2989
748.612	2945
749.1	2928
749.589	2946
750.077	2950
750.566	2956
751.054	2964
751.543	2965
752.031	2899
752.52	2884
753.008	2830
753.497	2837
753.986	2824
754.474	2813
754.963	2832
755.452	2773
755.941	2759
756.43	2760
756.919	2744
757.408	2718
757.896	2740
758.385	2731
758.875	2699
759.364	2693
759.853	2674
760.342	2626
760.831	2673
761.32	2645
761.809	2608
762.299	2624
762.788	2627
763.277	2610
763.767	2559
764.256	2559
764.745	2526
765.235	2577
765.724	2514
766.214	2554
766.703	2503
767.193	2441
767.683	2459
768.172	2403
768.662	2420
769.152	2401
769.641	2400
770.131	2344
770.621	2393
771.111	2364
771.601	2355
772.09	2346
772.58	2330
773.07	2341
773.56	2343
774.05	2284
774.54	2260
775.031	2251
775.521	2237
776.011	2231
776.501	2247
776.991	2212
777.482	2220
777.972	2165
778.462	2169
778.953	2168
779.443	2160
779.933	2156
780.424	2136
780.914	2161
781.405	2168
781.895	2149
782.386	2154
782.877	2130
783.367	2083
783.858	2070
784.349	2076
784.839	2057
785.33	2056
785.821	2048
786.312	2038
786.803	2044
787.293	2036
787.784	2008
788.275	1977
788.766	1952
789.257	1977
789.748	1936
790.24	1922
790.731	1911
791.222	1874
791.713	1857
792.204	1865
792.696	1820
793.187	1833
793.678	1816
794.169	1763
794.661	1797
795.152	1777
795.644	1757
796.135	1758
796.627	1768
797.118	1746
797.61	1721
798.101	1704
798.593	1723
799.085	1696
799.576	1700
800.068	1683
800.56	1687
801.052	1644
801.544	1640
802.035	1635
802.527	1609
803.019	1590
803.511	1573
804.003	1558
804.495	1562
804.987	1544
805.479	1510
805.971	1513
806.464	1521
806.956	1486
807.448	1488
807.94	1476
808.433	1472
808.925	1461
809.417	1443
809.91	1429
810.402	1399
810.894	1402
811.387	1402
811.879	1384
812.372	1392
812.865	1384
813.357	1379
813.85	1369
814.342	1363
814.835	1369
815.328	1360
815.821	1344
816.313	1341
816.806	1340
817.299	1334
817.792	1355
818.285	1333
818.778	1341
819.271	1339
819.764	1320
820.257	1331
820.75	1324
821.243	1335
821.736	1318
822.229	1327
822.722	1323
823.216	1340
