Data from lamp4helium_zwak_Subt2__15__415.txt Node

Date: Wed Apr 09 11:14:33 CEST 2025
User: fys-lab-0081
Spectrometer: S04999
Trigger mode: 0
Resolution mode: 1024 pixels
Integration Time (sec): 1.000000E-1
Scans to average: 1
Nonlinearity correction enabled: false
Boxcar width: 0
Baseline correction enabled: true
XAxis mode: Wavelengths
Number of Pixels in Spectrum: 1024
>>>>>Begin Spectral Data<<<<<
336.42	0
336.877	0
337.334	4
337.792	1
338.249	3
338.706	-1
339.164	0
339.621	0
340.079	4
340.536	5
340.994	5
341.452	4
341.909	7
342.367	0
342.825	-1
343.283	7
343.741	2
344.198	4
344.656	4
345.114	3
345.572	6
346.03	4
346.488	1
346.947	1
347.405	6
347.863	-2
348.321	1
348.779	6
349.238	1
349.696	6
350.154	1
350.613	5
351.071	5
351.53	7
351.988	5
352.447	5
352.905	-1
353.364	2
353.823	5
354.282	5
354.74	-2
355.199	6
355.658	7
356.117	4
356.576	8
357.035	0
357.494	9
357.953	7
358.412	11
358.871	4
359.33	5
359.789	4
360.249	8
360.708	8
361.167	7
361.626	9
362.086	6
362.545	6
363.005	6
363.464	8
363.924	11
364.383	10
364.843	12
365.303	9
365.762	11
366.222	12
366.682	9
367.142	13
367.601	9
368.061	9
368.521	11
368.981	10
369.441	15
369.901	12
370.361	16
370.821	9
371.282	14
371.742	12
372.202	13
372.662	17
373.123	10
373.583	15
374.043	17
374.504	14
374.964	14
375.425	18
375.885	19
376.346	18
376.806	19
377.267	14
377.728	20
378.188	22
378.649	20
379.11	21
379.571	17
380.032	25
380.493	20
380.954	27
381.414	21
381.876	26
382.337	20
382.798	23
383.259	26
383.72	28
384.181	26
384.642	29
385.104	29
385.565	32
386.026	33
386.488	32
386.949	38
387.411	34
387.872	37
388.334	39
388.795	38
389.257	39
389.719	38
390.181	43
390.642	40
391.104	44
391.566	45
392.028	47
392.49	52
392.952	47
393.414	48
393.876	54
394.338	50
394.8	47
395.262	45
395.724	58
396.186	58
396.648	59
397.111	56
397.573	57
398.035	56
398.498	58
398.96	63
399.423	64
399.885	62
400.348	66
400.81	63
401.273	66
401.736	63
402.198	77
402.661	73
403.124	68
403.587	78
404.049	79.5
404.512	81
404.975	80
405.438	83
405.901	82
406.364	84
406.827	84
407.29	83
407.754	83
408.217	90
408.68	83
409.143	90
409.607	96
410.07	89
410.533	87
410.997	95
411.46	94
411.924	98
412.387	99
412.851	99
413.314	96
413.778	99
414.242	103
414.705	110
415.169	111
415.633	107
416.097	104
416.561	111
417.024	115
417.488	115
417.952	115
418.416	109
418.88	109
419.344	113
419.809	115
420.273	115
420.737	113
421.201	119
421.665	122
422.13	121
422.594	129
423.059	126
423.523	131
423.987	129
424.452	136
424.916	139
425.381	145
425.846	141
426.31	150
426.775	150
427.24	152
427.704	154
428.169	155
428.634	155
429.099	156
429.564	157
430.029	157
430.494	153
430.959	156
431.424	154
431.889	167
432.354	168
432.819	158
433.284	170
433.75	173
434.215	181
434.68	178
435.146	181
435.611	185
436.077	198
436.542	193
437.008	202
437.473	197
437.939	204
438.404	212
438.87	218
439.336	213
439.801	211
440.267	216
440.733	219
441.199	221
441.665	225
442.131	232
442.596	225
443.062	234
443.529	243
443.995	245
444.461	249
444.927	259
445.393	260
445.859	269
446.325	277
446.792	295
447.258	293
447.724	303
448.191	311
448.657	315
449.124	319
449.59	320
450.057	341
450.523	342
450.99	350
451.457	346
451.923	357
452.39	354
452.857	363
453.324	360
453.791	369
454.257	372
454.724	374
455.191	374
455.658	373
456.125	386
456.592	377
457.059	387
457.527	395
457.994	403
458.461	407
458.928	416
459.396	411
459.863	427
460.33	426
460.798	427
461.265	438
461.732	429
462.2	450
462.668	440
463.135	447
463.603	432
464.07	450
464.538	442
465.006	448
465.474	442
465.941	447
466.409	447
466.877	441
467.345	450
467.813	445
468.281	452
468.749	458
469.217	460
469.685	467
470.153	477
470.621	475
471.09	478
471.558	501
472.026	501
472.494	512
472.963	519
473.431	531
473.9	541
474.368	556
474.837	567
475.305	576
475.774	585
476.242	597
476.711	598
477.18	618
477.648	613
478.117	620
478.586	621
479.055	624
479.524	632
479.993	632
480.462	626
480.93	629
481.399	630
481.869	638
482.338	628
482.807	645
483.276	637
483.745	643
484.214	654
484.684	666
485.153	677
485.622	678
486.092	696
486.561	682
487.031	709
487.5	717
487.97	726
488.439	744
488.909	766
489.378	796
489.848	798
490.318	814
490.787	850
491.257	859
491.727	855
492.197	868
492.667	874
493.137	883
493.607	897
494.077	896
494.547	893
495.017	891
495.487	910
495.957	922
496.427	905
496.897	907
497.368	922
497.838	913
498.308	924
498.779	940
499.249	942
499.719	952
500.19	966
500.66	964
501.131	976
501.602	993
502.072	991
502.543	1013
503.014	1055
503.484	1052
503.955	1082
504.426	1117
504.897	1127
505.368	1143
505.838	1176
506.309	1196
506.78	1231
507.251	1249
507.722	1270
508.194	1311
508.665	1337
509.136	1327
509.607	1367
510.078	1371
510.549	1381
511.021	1420
511.492	1426
511.964	1446
512.435	1469
512.906	1462
513.378	1479
513.849	1495
514.321	1498
514.793	1512
515.264	1530
515.736	1553
516.208	1590
516.679	1596
517.151	1614
517.623	1620
518.095	1641
518.567	1661
519.038	1696
519.51	1700
519.982	1712
520.454	1722
520.927	1747
521.399	1775
521.871	1799
522.343	1798
522.815	1818
523.287	1818
523.76	1835
524.232	1874
524.704	1882
525.177	1851
525.649	1859
526.122	1879
526.594	1841
527.067	1891
527.539	1911
528.012	1898
528.484	1895
528.957	1910
529.43	1900
529.903	1891
530.375	1954
530.848	1917
531.321	1950
531.794	1948
532.267	1985
532.74	1964
533.213	1950
533.686	1985
534.159	1977
534.632	2025
535.105	2037
535.578	2093
536.051	2096
536.525	2102
536.998	2094
537.471	2140
537.945	2115
538.418	2153
538.891	2144
539.365	2178
539.838	2203
540.312	2188
540.786	2194
541.259	2195
541.733	2233
542.206	2242
542.68	2207
543.154	2209
543.628	2210
544.101	2265
544.575	2230
545.049	2174
545.523	2217
545.997	2223
546.471	2239
546.945	2223
547.419	2262
547.893	2187
548.367	2227
548.842	2205
549.316	2233
549.79	2243
550.264	2220
550.739	2245
551.213	2240
551.687	2243
552.162	2259
552.636	2242
553.111	2238
553.585	2322
554.06	2293
554.534	2332
555.009	2306
555.484	2351
555.958	2390
556.433	2393
556.908	2428
557.383	2408
557.858	2468
558.333	2477
558.807	2464
559.282	2476
559.757	2553
560.232	2536
560.708	2496
561.183	2493
561.658	2527
562.133	2525
562.608	2500
563.083	2561
563.559	2500
564.034	2519
564.509	2507
564.985	2520
565.46	2496
565.936	2558
566.411	2560
566.887	2526
567.362	2548
567.838	2553
568.313	2583
568.789	2535
569.265	2525
569.74	2548
570.216	2535
570.692	2570
571.168	2574
571.644	2578
572.12	2580
572.596	2616
573.071	2628
573.547	2709
574.024	2726
574.5	2741
574.976	2745
575.452	2782
575.928	2810
576.404	2837
576.881	2945
577.357	2888
577.833	2902
578.31	2976
578.786	3015
579.262	3046
579.739	2994
580.215	3078
580.692	3088
581.169	3059
581.645	3059
582.122	3160
582.598	3171
583.075	3192
583.552	3198
584.029	3180
584.506	3135
584.982	3112
585.459	3191
585.936	3148
586.413	3194
586.89	3248
587.367	3220
587.844	3257
588.321	3231
588.799	3248
589.276	3241
589.753	3293
590.23	3319
590.707	3303
591.185	3301
591.662	3301
592.139	3336
592.617	3377
593.094	3354
593.572	3388
594.049	3437
594.527	3474
595.004	3482
595.482	3573
595.96	3561
596.437	3571
596.915	3659
597.393	3581
597.871	3660
598.349	3634
598.826	3714
599.304	3714
599.782	3772
600.26	3738
600.738	3829
601.216	3810
601.694	3825
602.173	3836
602.651	3849
603.129	3803
603.607	3847
604.085	3874
604.564	3867
605.042	3894
605.52	3852
605.999	3955
606.477	3844
606.956	3847
607.434	3897.5
607.913	3948
608.391	3934
608.87	3919
609.348	3849
609.827	3851
610.306	3874
610.785	3879
611.263	3886
611.742	3857
612.221	3803
612.7	3869
613.179	3899
613.658	3865
614.137	3920
614.616	3954
615.095	3876
615.574	3935
616.053	3957
616.532	3931
617.011	3930
617.491	3969
617.97	3963
618.449	4013
618.928	4036
619.408	4001
619.887	4046
620.367	4070
620.846	4115
621.326	4069
621.805	4166
622.285	4154
622.764	4190
623.244	4187
623.724	4203
624.203	4218
624.683	4165
625.163	4268
625.643	4251
626.123	4219
626.602	4313
627.082	4222
627.562	4200
628.042	4282
628.522	4232
629.002	4192
629.482	4235
629.963	4243
630.443	4221
630.923	4230
631.403	4266
631.883	4238
632.364	4243
632.844	4215
633.324	4244
633.805	4264
634.285	4204
634.766	4176
635.246	4169
635.727	4161
636.207	4161
636.688	4164
637.168	4164
637.649	4150
638.13	4122
638.611	4153
639.091	4146
639.572	4129
640.053	4125
640.534	4155
641.015	4136
641.496	4058
641.977	4135
642.458	4101
642.939	4110
643.42	4116
643.901	4112
644.382	4159
644.863	4143
645.345	4123
645.826	4112
646.307	4129
646.788	4196
647.27	4123
647.751	4144
648.233	4162
648.714	4067
649.196	4186
649.677	4182
650.159	4186
650.64	4132
651.122	4210
651.603	4130
652.085	4148
652.567	4167
653.049	4137
653.53	4139
654.012	4189
654.494	4107
654.976	4167
655.458	4161
655.94	4134
656.422	4195
656.904	4113
657.386	4066
657.868	4067
658.35	4041
658.833	4097
659.315	4121
659.797	4059
660.279	4059
660.762	4077
661.244	4037
661.726	3983
662.209	4002
662.691	4014
663.174	3938
663.656	3948
664.139	3948
664.621	3896
665.104	3875
665.587	3921
666.069	3953
666.552	3936
667.035	3878
667.517	3878
668	3908
668.483	3906
668.966	3859
669.449	3856
669.932	3862
670.415	3908
670.898	3874
671.381	3882
671.864	3884
672.347	3837
672.83	3856
673.313	3879
673.797	3866
674.28	3950
674.763	3932
675.247	3943
675.73	3911
676.213	3955
676.697	3988
677.18	3983
677.664	3975
678.147	3983
678.631	4017
679.114	4029
679.598	4002
680.082	4022
680.565	4001
681.049	3964
681.533	3987
682.017	4037
682.5	4019
682.984	4000
683.468	4006
683.952	3947
684.436	4022
684.92	3979
685.404	4000
685.888	4043
686.372	4015
686.856	4006
687.341	4056
687.825	4002
688.309	4024
688.793	4051
689.278	3998
689.762	4026
690.246	4003
690.731	4022
691.215	4032
691.7	3946
692.184	3959
692.669	3936
693.153	3951
693.638	3862
694.122	3851
694.607	3897
695.092	3837
695.577	3864
696.061	3787
696.546	3787
697.031	3757
697.516	3784
698.001	3784
698.486	3750
698.971	3800
699.456	3723
699.941	3725
700.426	3730
700.911	3776
701.396	3760
701.881	3793
702.366	3753
702.852	3725
703.337	3737
703.822	3749
704.308	3770
704.793	3814
705.278	3805
705.764	3817
706.249	3786
706.735	3779
707.22	3818
707.706	3772
708.191	3817
708.677	3802
709.163	3756
709.648	3750
710.134	3780
710.62	3735
711.106	3741
711.592	3793
712.077	3775
712.563	3687
713.049	3693
713.535	3777
714.021	3744
714.507	3722
714.993	3687
715.479	3725
715.966	3681
716.452	3676
716.938	3684
717.424	3573
717.91	3637
718.397	3630
718.883	3610
719.369	3615
719.856	3600
720.342	3658
720.829	3603
721.315	3633
721.802	3606
722.288	3638
722.775	3491
723.262	3394
723.748	3529
724.235	3488
724.722	3522
725.208	3427
725.695	3411
726.182	3394
726.669	3360
727.156	3377
727.643	3338
728.13	3336
728.617	3307
729.104	3323
729.591	3293
730.078	3340
730.565	3360
731.052	3319
731.539	3328
732.027	3293
732.514	3236
733.001	3267
733.488	3256
733.976	3247
734.463	3227
734.951	3228
735.438	3280
735.926	3242
736.413	3258
736.901	3222
737.388	3241
737.876	3233
738.364	3209
738.851	3229
739.339	3223
739.827	3259
740.314	3151
740.802	3176
741.29	3187
741.778	3132
742.266	3155
742.754	3154
743.242	3171
743.73	3099
744.218	3076
744.706	3049
745.194	3065
745.682	3037
746.17	3054
746.659	3047
747.147	2990
747.635	3017
748.123	2996
748.612	2950
749.1	2935
749.589	2970
750.077	2974
750.566	2973
751.054	2981
751.543	2978
752.031	2911
752.52	2907
753.008	2845
753.497	2852
753.986	2835
754.474	2818
754.963	2845
755.452	2789
755.941	2771
756.43	2772
756.919	2756
757.408	2742
757.896	2745
758.385	2739
758.875	2697
759.364	2714
759.853	2688
760.342	2640
760.831	2686
761.32	2659
761.809	2623
762.299	2635
762.788	2643
763.277	2621
763.767	2570
764.256	2572
764.745	2544
765.235	2592
765.724	2534
766.214	2562
766.703	2507
767.193	2460
767.683	2467
768.172	2422
768.662	2435
769.152	2408
769.641	2403
770.131	2357
770.621	2404
771.111	2377
771.601	2368
772.09	2365
772.58	2341
773.07	2351
773.56	2354
774.05	2291
774.54	2270
775.031	2254
775.521	2244
776.011	2256
776.501	2270
776.991	2215
777.482	2232
777.972	2174
778.462	2172
778.953	2183
779.443	2169
779.933	2166
780.424	2146
780.914	2169
781.405	2170
781.895	2170
782.386	2165
782.877	2136
783.367	2097
783.858	2076
784.349	2082
784.839	2076
785.33	2073
785.821	2060
786.312	2046
786.803	2056
787.293	2045
787.784	2013
788.275	1991
788.766	1961
789.257	1989
789.748	1954
790.24	1925
790.731	1914
791.222	1873
791.713	1870
792.204	1874
792.696	1828
793.187	1848
793.678	1826
794.169	1776
794.661	1804
795.152	1786
795.644	1771
796.135	1774
796.627	1782
797.118	1751
797.61	1732
798.101	1708
798.593	1734
799.085	1702
799.576	1710
800.068	1691
800.56	1702
801.052	1648
801.544	1650
802.035	1639
802.527	1614
803.019	1598
803.511	1583
804.003	1565
804.495	1576
804.987	1549
805.479	1517
805.971	1531
806.464	1535
806.956	1491
807.448	1494
807.94	1485
808.433	1476
808.925	1464
809.417	1448
809.91	1438
810.402	1402
810.894	1413
811.387	1414
811.879	1392
812.372	1403
812.865	1382
813.357	1381
813.85	1379
814.342	1375
814.835	1372
815.328	1362
815.821	1349
816.313	1344
816.806	1352
817.299	1337
817.792	1353
818.285	1333
818.778	1353
819.271	1342
819.764	1325
820.257	1335
820.75	1336
821.243	1344
821.736	1330
822.229	1326
822.722	1323
823.216	1357
