Data from lamp4helium_zwak_Subt2__38__438.txt Node

Date: Wed Apr 09 11:14:36 CEST 2025
User: fys-lab-0081
Spectrometer: S04999
Trigger mode: 0
Resolution mode: 1024 pixels
Integration Time (sec): 1.000000E-1
Scans to average: 1
Nonlinearity correction enabled: false
Boxcar width: 0
Baseline correction enabled: true
XAxis mode: Wavelengths
Number of Pixels in Spectrum: 1024
>>>>>Begin Spectral Data<<<<<
336.42	-2
336.877	4
337.334	-2
337.792	2
338.249	8
338.706	3
339.164	1
339.621	2
340.079	4
340.536	2
340.994	4
341.452	4
341.909	6
342.367	7
342.825	0
343.283	3
343.741	2
344.198	4
344.656	2
345.114	3
345.572	2
346.03	-1
346.488	5
346.947	7
347.405	5
347.863	6
348.321	2
348.779	8
349.238	3
349.696	7
350.154	0
350.613	0
351.071	3
351.53	9
351.988	9
352.447	3
352.905	3
353.364	3
353.823	2
354.282	6
354.74	0
355.199	6
355.658	7
356.117	3
356.576	4
357.035	-1
357.494	5
357.953	2
358.412	12
358.871	6
359.33	5
359.789	7
360.249	3
360.708	10
361.167	8
361.626	7
362.086	5
362.545	7
363.005	9
363.464	10
363.924	7
364.383	11
364.843	13
365.303	13
365.762	8
366.222	10
366.682	10
367.142	10
367.601	9
368.061	14
368.521	10
368.981	9
369.441	14
369.901	12
370.361	11
370.821	12
371.282	15
371.742	13
372.202	15
372.662	12
373.123	11
373.583	19
374.043	13
374.504	12
374.964	14
375.425	18
375.885	18
376.346	19
376.806	22
377.267	16
377.728	23
378.188	21
378.649	21
379.11	19
379.571	20
380.032	23
380.493	21
380.954	23
381.414	22
381.876	23
382.337	27
382.798	24
383.259	26
383.72	28
384.181	23
384.642	26
385.104	30
385.565	30
386.026	35
386.488	39
386.949	38
387.411	35
387.872	41
388.334	40
388.795	42
389.257	40
389.719	39
390.181	41
390.642	41
391.104	41
391.566	45
392.028	45
392.49	53
392.952	50
393.414	51
393.876	52
394.338	48
394.8	53
395.262	45
395.724	51
396.186	54
396.648	56
397.111	59
397.573	63
398.035	57
398.498	57
398.96	62
399.423	62
399.885	64
400.348	66
400.81	63
401.273	65
401.736	64
402.198	73
402.661	75
403.124	66
403.587	77
404.049	80.5
404.512	84
404.975	77
405.438	80
405.901	87
406.364	84
406.827	82
407.29	79
407.754	82
408.217	84
408.68	85
409.143	89
409.607	91
410.07	90
410.533	87
410.997	95
411.46	93
411.924	98
412.387	96
412.851	103
413.314	100
413.778	100
414.242	104
414.705	111
415.169	109
415.633	105
416.097	106
416.561	112
417.024	112
417.488	110
417.952	112
418.416	108
418.88	111
419.344	107
419.809	120
420.273	117
420.737	115
421.201	126
421.665	121
422.13	125
422.594	130
423.059	129
423.523	135
423.987	131
424.452	135
424.916	139
425.381	145
425.846	145
426.31	150
426.775	151
427.24	156
427.704	157
428.169	154
428.634	151
429.099	160
429.564	157
430.029	158
430.494	153
430.959	155
431.424	154
431.889	163
432.354	168
432.819	158
433.284	170
433.75	173
434.215	182
434.68	177
435.146	178
435.611	190
436.077	195
436.542	196
437.008	202
437.473	205
437.939	204
438.404	209
438.87	214
439.336	210
439.801	214
440.267	217
440.733	227
441.199	224
441.665	225
442.131	234
442.596	224
443.062	234
443.529	243
443.995	243
444.461	252
444.927	265
445.393	264
445.859	273
446.325	279
446.792	296
447.258	298
447.724	306
448.191	316
448.657	314
449.124	318
449.59	319
450.057	346
450.523	340
450.99	348
451.457	346
451.923	358
452.39	358
452.857	369
453.324	362
453.791	366
454.257	370
454.724	377
455.191	372
455.658	380
456.125	383
456.592	385
457.059	388
457.527	388
457.994	405
458.461	404
458.928	417
459.396	415
459.863	425
460.33	427
460.798	434
461.265	436
461.732	431
462.2	442
462.668	442
463.135	450
463.603	432
464.07	449
464.538	438
465.006	453
465.474	444
465.941	441
466.409	446
466.877	445
467.345	449
467.813	446
468.281	457
468.749	456
469.217	456
469.685	472
470.153	474
470.621	477
471.09	473
471.558	501
472.026	504
472.494	513
472.963	521
473.431	539
473.9	545
474.368	564
474.837	570
475.305	574
475.774	586
476.242	601
476.711	605
477.18	623
477.648	615
478.117	625
478.586	628
479.055	623
479.524	626
479.993	629
480.462	630
480.93	626
481.399	632
481.869	636
482.338	631
482.807	644
483.276	642
483.745	640
484.214	661
484.684	669
485.153	674
485.622	680
486.092	692
486.561	684
487.031	714
487.5	723
487.97	732
488.439	748
488.909	766
489.378	793
489.848	799
490.318	814
490.787	851
491.257	856
491.727	859
492.197	867
492.667	881
493.137	887
493.607	892
494.077	899
494.547	894
495.017	888
495.487	909
495.957	929
496.427	906
496.897	906
497.368	925
497.838	915
498.308	927
498.779	941
499.249	941
499.719	952
500.19	969
500.66	970
501.131	980
501.602	999
502.072	994
502.543	1020
503.014	1048
503.484	1054
503.955	1082
504.426	1124
504.897	1124
505.368	1145
505.838	1174
506.309	1201
506.78	1230
507.251	1244
507.722	1281
508.194	1314
508.665	1339
509.136	1333
509.607	1364
510.078	1377
510.549	1382
511.021	1417
511.492	1424
511.964	1442
512.435	1468
512.906	1468
513.378	1472
513.849	1505
514.321	1496
514.793	1517
515.264	1542
515.736	1556
516.208	1590
516.679	1598
517.151	1613
517.623	1634
518.095	1656
518.567	1666
519.038	1700
519.51	1699
519.982	1714
520.454	1730
520.927	1753
521.399	1779
521.871	1795
522.343	1802
522.815	1829
523.287	1824
523.76	1849
524.232	1876
524.704	1874
525.177	1846
525.649	1848
526.122	1886
526.594	1843
527.067	1886
527.539	1922
528.012	1906
528.484	1900
528.957	1907
529.43	1909
529.903	1891
530.375	1960
530.848	1917
531.321	1948
531.794	1955
532.267	1992
532.74	1966
533.213	1960
533.686	1985
534.159	1979
534.632	2032
535.105	2047
535.578	2100
536.051	2101
536.525	2107
536.998	2102
537.471	2142
537.945	2122
538.418	2152
538.891	2146
539.365	2187
539.838	2198
540.312	2193
540.786	2200
541.259	2206
541.733	2239
542.206	2244
542.68	2219
543.154	2212
543.628	2216
544.101	2272
544.575	2232
545.049	2182
545.523	2218
545.997	2231
546.471	2250
546.945	2221
547.419	2258
547.893	2188
548.367	2235
548.842	2210
549.316	2230
549.79	2248
550.264	2226
550.739	2255
551.213	2249
551.687	2237
552.162	2267
552.636	2240
553.111	2247
553.585	2318
554.06	2294
554.534	2334
555.009	2317
555.484	2356
555.958	2404
556.433	2398
556.908	2431
557.383	2412
557.858	2476
558.333	2476
558.807	2462
559.282	2488
559.757	2550
560.232	2545
560.708	2496
561.183	2488
561.658	2538
562.133	2531
562.608	2497
563.083	2567
563.559	2509
564.034	2519
564.509	2519
564.985	2523
565.46	2501
565.936	2558
566.411	2562
566.887	2525
567.362	2547
567.838	2562
568.313	2594
568.789	2542
569.265	2533
569.74	2552
570.216	2542
570.692	2579
571.168	2579
571.644	2588
572.12	2587
572.596	2613
573.071	2633
573.547	2721
574.024	2738
574.5	2745
574.976	2743
575.452	2786
575.928	2813
576.404	2844
576.881	2952
577.357	2887
577.833	2895
578.31	2985
578.786	3018
579.262	3051
579.739	3001
580.215	3086
580.692	3086
581.169	3072
581.645	3071
582.122	3164
582.598	3165
583.075	3191
583.552	3206
584.029	3182
584.506	3148
584.982	3119
585.459	3208
585.936	3163
586.413	3199
586.89	3255
587.367	3227
587.844	3263
588.321	3242
588.799	3265
589.276	3245
589.753	3304
590.23	3318
590.707	3307
591.185	3306
591.662	3310
592.139	3341
592.617	3391
593.094	3364
593.572	3392
594.049	3440
594.527	3481
595.004	3484
595.482	3580
595.96	3561
596.437	3583
596.915	3671
597.393	3589
597.871	3668
598.349	3634
598.826	3725
599.304	3715
599.782	3787
600.26	3742
600.738	3826
601.216	3809
601.694	3824
602.173	3839
602.651	3868
603.129	3812
603.607	3846
604.085	3871
604.564	3880
605.042	3893
605.52	3868
605.999	3965
606.477	3857
606.956	3853
607.434	3901
607.913	3949
608.391	3953
608.87	3921
609.348	3843
609.827	3863
610.306	3888
610.785	3882
611.263	3893
611.742	3871
612.221	3815
612.7	3878
613.179	3915
613.658	3878
614.137	3929
614.616	3961
615.095	3886
615.574	3937
616.053	3979
616.532	3933
617.011	3937
617.491	3986
617.97	3976
618.449	4032
618.928	4048
619.408	4011
619.887	4056
620.367	4088
620.846	4125
621.326	4083
621.805	4170
622.285	4155
622.764	4194
623.244	4184
623.724	4206
624.203	4232
624.683	4162
625.163	4266
625.643	4258
626.123	4226
626.602	4315
627.082	4228
627.562	4210
628.042	4288
628.522	4245
629.002	4199
629.482	4235
629.963	4246
630.443	4235
630.923	4247
631.403	4264
631.883	4249
632.364	4258
632.844	4229
633.324	4260
633.805	4277
634.285	4227
634.766	4180
635.246	4170
635.727	4170
636.207	4175
636.688	4171
637.168	4168
637.649	4168
638.13	4126
638.611	4157
639.091	4155
639.572	4137
640.053	4120
640.534	4158
641.015	4140
641.496	4071
641.977	4146
642.458	4119
642.939	4121
643.42	4133
643.901	4120
644.382	4170
644.863	4152
645.345	4136
645.826	4127
646.307	4131
646.788	4203
647.27	4129
647.751	4138
648.233	4169
648.714	4082
649.196	4201
649.677	4192
650.159	4184
650.64	4136
651.122	4215
651.603	4142
652.085	4153
652.567	4168
653.049	4147
653.53	4134
654.012	4198
654.494	4110
654.976	4176
655.458	4173
655.94	4155
656.422	4210
656.904	4119
657.386	4064
657.868	4079
658.35	4053
658.833	4109
659.315	4124
659.797	4072
660.279	4057
660.762	4082
661.244	4046
661.726	3999
662.209	4008
662.691	4019
663.174	3943
663.656	3959
664.139	3944
664.621	3901
665.104	3886
665.587	3932
666.069	3950
666.552	3952
667.035	3890
667.517	3885
668	3915
668.483	3912
668.966	3869
669.449	3863
669.932	3877
670.415	3915
670.898	3878
671.381	3877
671.864	3898
672.347	3842
672.83	3862
673.313	3880
673.797	3872
674.28	3959
674.763	3948
675.247	3942
675.73	3917
676.213	3974
676.697	3992
677.18	3988
677.664	3987
678.147	3990
678.631	4019
679.114	4041
679.598	4019
680.082	4020
680.565	4008
681.049	3981
681.533	3994
682.017	4041
682.5	4014
682.984	4009
683.468	4012
683.952	3948
684.436	4037
684.92	3976
685.404	4012
685.888	4044
686.372	4014
686.856	4018
687.341	4063
687.825	4009
688.309	4040
688.793	4052
689.278	3995
689.762	4040
690.246	4014
690.731	4017
691.215	4035
691.7	3951
692.184	3976
692.669	3951
693.153	3952
693.638	3858
694.122	3858
694.607	3899
695.092	3844
695.577	3867
696.061	3802
696.546	3806
697.031	3768
697.516	3785
698.001	3791
698.486	3753
698.971	3807
699.456	3737
699.941	3731
700.426	3733
700.911	3789
701.396	3771
701.881	3795
702.366	3761
702.852	3733
703.337	3755
703.822	3754
704.308	3773
704.793	3820
705.278	3822
705.764	3835
706.249	3788
706.735	3789
707.22	3822
707.706	3775
708.191	3826
708.677	3812
709.163	3752
709.648	3750
710.134	3801
710.62	3745
711.106	3746
711.592	3794
712.077	3785
712.563	3702
713.049	3714
713.535	3781
714.021	3742
714.507	3728
714.993	3691
715.479	3729
715.966	3686
716.452	3684
716.938	3694
717.424	3576
717.91	3650
718.397	3631
718.883	3618
719.369	3630
719.856	3593
720.342	3662
720.829	3602
721.315	3637
721.802	3617
722.288	3642
722.775	3498
723.262	3401
723.748	3538
724.235	3501
724.722	3525
725.208	3441
725.695	3423
726.182	3403
726.669	3372
727.156	3385
727.643	3339
728.13	3341
728.617	3314
729.104	3329
729.591	3299
730.078	3350
730.565	3361
731.052	3333
731.539	3326
732.027	3298
732.514	3249
733.001	3281
733.488	3264
733.976	3248
734.463	3227
734.951	3247
735.438	3280
735.926	3253
736.413	3265
736.901	3227
737.388	3254
737.876	3226
738.364	3218
738.851	3236
739.339	3232
739.827	3264
740.314	3157
740.802	3180
741.29	3189
741.778	3147
742.266	3151
742.754	3173
743.242	3171
743.73	3100
744.218	3093
744.706	3059
745.194	3070
745.682	3037
746.17	3052
746.659	3061
747.147	2991
747.635	3019
748.123	3003
748.612	2970
749.1	2942
749.589	2974
750.077	2981
750.566	2976
751.054	2992
751.543	2988
752.031	2915
752.52	2908
753.008	2852
753.497	2859
753.986	2848
754.474	2830
754.963	2845
755.452	2802
755.941	2783
756.43	2777
756.919	2768
757.408	2740
757.896	2760
758.385	2746
758.875	2715
759.364	2721
759.853	2688
760.342	2649
760.831	2687
761.32	2665
761.809	2626
762.299	2639
762.788	2656
763.277	2635
763.767	2586
764.256	2573
764.745	2544
765.235	2592
765.724	2544
766.214	2562
766.703	2512
767.193	2459
767.683	2469
768.172	2418
768.662	2430
769.152	2412
769.641	2413
770.131	2362
770.621	2413
771.111	2386
771.601	2373
772.09	2364
772.58	2351
773.07	2352
773.56	2360
774.05	2294
774.54	2277
775.031	2268
775.521	2251
776.011	2246
776.501	2271
776.991	2225
777.482	2242
777.972	2181
778.462	2179
778.953	2183
779.443	2167
779.933	2175
780.424	2151
780.914	2173
781.405	2178
781.895	2173
782.386	2163
782.877	2145
783.367	2099
783.858	2083
784.349	2090
784.839	2073
785.33	2077
785.821	2068
786.312	2053
786.803	2057
787.293	2052
787.784	2011
788.275	1989
788.766	1962
789.257	1993
789.748	1960
790.24	1928
790.731	1918
791.222	1886
791.713	1876
792.204	1877
792.696	1829
793.187	1847
793.678	1828
794.169	1773
794.661	1814
795.152	1791
795.644	1778
796.135	1780
796.627	1786
797.118	1752
797.61	1737
798.101	1724
798.593	1737
799.085	1715
799.576	1717
800.068	1691
800.56	1703
801.052	1656
801.544	1651
802.035	1639
802.527	1621
803.019	1603
803.511	1591
804.003	1572
804.495	1572
804.987	1556
805.479	1518
805.971	1527
806.464	1528
806.956	1494
807.448	1496
807.94	1490
808.433	1473
808.925	1471
809.417	1454
809.91	1440
810.402	1405
810.894	1409
811.387	1416
811.879	1389
812.372	1402
812.865	1388
813.357	1391
813.85	1379
814.342	1382
814.835	1378
815.328	1361
815.821	1349
816.313	1349
816.806	1349
817.299	1350
817.792	1362
818.285	1333
818.778	1352
819.271	1346
819.764	1330
820.257	1337
820.75	1335
821.243	1348
821.736	1328
822.229	1337
822.722	1333
823.216	1356
