Data from lamp4helium_zwak_Subt2__14__414.txt Node

Date: Wed Apr 09 11:14:33 CEST 2025
User: fys-lab-0081
Spectrometer: S04999
Trigger mode: 0
Resolution mode: 1024 pixels
Integration Time (sec): 1.000000E-1
Scans to average: 1
Nonlinearity correction enabled: false
Boxcar width: 0
Baseline correction enabled: true
XAxis mode: Wavelengths
Number of Pixels in Spectrum: 1024
>>>>>Begin Spectral Data<<<<<
336.42	-1
336.877	5
337.334	4
337.792	3
338.249	6
338.706	3
339.164	1
339.621	2
340.079	3
340.536	2
340.994	0
341.452	3
341.909	7
342.367	3
342.825	0
343.283	6
343.741	4
344.198	2
344.656	0
345.114	1
345.572	5
346.03	1
346.488	4
346.947	1
347.405	5
347.863	0
348.321	-3
348.779	7
349.238	5
349.696	9
350.154	1
350.613	1
351.071	3
351.53	7
351.988	6
352.447	1
352.905	3
353.364	0
353.823	7
354.282	6
354.74	-1
355.199	6
355.658	10
356.117	6
356.576	2
357.035	4
357.494	4
357.953	6
358.412	10
358.871	9
359.33	4
359.789	4
360.249	8
360.708	5
361.167	3
361.626	8
362.086	9
362.545	6
363.005	9
363.464	7
363.924	12
364.383	7
364.843	10
365.303	9
365.762	12
366.222	12
366.682	9
367.142	8
367.601	8
368.061	5
368.521	9
368.981	13
369.441	14
369.901	18
370.361	11
370.821	13
371.282	12
371.742	12
372.202	17
372.662	15
373.123	9
373.583	19
374.043	16
374.504	10
374.964	11
375.425	14
375.885	13
376.346	19
376.806	21
377.267	19
377.728	22
378.188	20
378.649	18
379.11	21
379.571	14
380.032	19
380.493	23
380.954	28
381.414	22
381.876	25
382.337	21
382.798	24
383.259	30
383.72	27
384.181	27
384.642	26
385.104	29
385.565	30
386.026	32
386.488	39
386.949	34
387.411	33
387.872	36
388.334	40
388.795	46
389.257	42
389.719	41
390.181	42
390.642	41
391.104	45
391.566	46
392.028	44
392.49	52
392.952	53
393.414	48
393.876	51
394.338	51
394.8	51
395.262	48
395.724	56
396.186	53
396.648	55
397.111	58
397.573	64
398.035	54
398.498	58
398.96	62
399.423	62
399.885	63
400.348	66
400.81	65
401.273	66
401.736	64
402.198	72
402.661	72
403.124	67
403.587	78
404.049	77
404.512	76
404.975	80
405.438	78
405.901	85
406.364	80
406.827	82
407.29	80
407.754	83
408.217	87
408.68	89
409.143	88
409.607	89
410.07	94
410.533	82
410.997	91
411.46	95
411.924	98
412.387	98
412.851	93
413.314	102
413.778	103
414.242	103
414.705	109
415.169	111
415.633	110
416.097	104
416.561	111
417.024	107
417.488	109
417.952	113
418.416	108
418.88	106
419.344	103
419.809	113
420.273	119
420.737	111
421.201	122
421.665	122
422.13	124
422.594	131
423.059	136
423.523	130
423.987	133
424.452	136
424.916	140
425.381	143
425.846	143
426.31	155
426.775	151
427.24	153
427.704	153
428.169	151
428.634	156
429.099	152
429.564	150
430.029	158
430.494	157
430.959	157
431.424	150
431.889	163
432.354	168
432.819	162
433.284	171
433.75	169
434.215	180
434.68	178
435.146	180
435.611	184
436.077	194
436.542	194
437.008	208
437.473	203
437.939	203
438.404	211
438.87	215
439.336	211
439.801	212
440.267	214
440.733	226
441.199	220
441.665	226
442.131	231
442.596	223
443.062	233
443.529	244
443.995	247
444.461	249
444.927	263
445.393	263
445.859	272
446.325	275
446.792	294
447.258	291
447.724	305
448.191	315
448.657	317
449.124	326
449.59	317
450.057	340
450.523	338
450.99	351
451.457	347
451.923	356
452.39	353
452.857	363
453.324	354
453.791	369
454.257	367
454.724	376
455.191	368
455.658	371
456.125	383
456.592	377
457.059	386
457.527	392
457.994	404
458.461	406
458.928	413
459.396	408
459.863	422
460.33	428
460.798	424
461.265	435
461.732	434
462.2	445
462.668	439
463.135	446
463.603	431
464.07	454
464.538	438
465.006	452
465.474	442
465.941	442
466.409	448
466.877	436
467.345	453
467.813	447
468.281	454
468.749	466
469.217	457
469.685	466
470.153	479
470.621	475
471.09	476
471.558	500
472.026	503
472.494	513
472.963	517
473.431	533
473.9	540
474.368	558
474.837	573
475.305	575
475.774	585
476.242	597
476.711	604
477.18	619
477.648	615
478.117	616
478.586	622
479.055	623
479.524	627
479.993	629
480.462	631
480.93	634
481.399	629
481.869	636
482.338	631
482.807	650
483.276	640
483.745	641
484.214	660
484.684	669
485.153	672
485.622	677
486.092	699
486.561	680
487.031	709
487.5	717
487.97	728
488.439	748
488.909	763
489.378	797
489.848	797
490.318	808
490.787	852
491.257	857
491.727	857
492.197	869
492.667	873
493.137	879
493.607	890
494.077	901
494.547	889
495.017	885
495.487	905
495.957	926
496.427	904
496.897	908
497.368	923
497.838	913
498.308	919
498.779	937
499.249	941
499.719	952
500.19	964
500.66	967
501.131	976
501.602	989
502.072	993
502.543	1014
503.014	1058
503.484	1049
503.955	1081
504.426	1120
504.897	1118
505.368	1144
505.838	1172
506.309	1192
506.78	1225
507.251	1250
507.722	1273
508.194	1313
508.665	1332
509.136	1324
509.607	1374
510.078	1367
510.549	1384
511.021	1417
511.492	1423
511.964	1441
512.435	1460
512.906	1462
513.378	1468
513.849	1498
514.321	1498
514.793	1511
515.264	1536
515.736	1544
516.208	1581
516.679	1595
517.151	1616
517.623	1631
518.095	1649
518.567	1665
519.038	1692
519.51	1696
519.982	1709
520.454	1717
520.927	1744
521.399	1776
521.871	1793
522.343	1794
522.815	1823
523.287	1820
523.76	1840
524.232	1872
524.704	1870
525.177	1851
525.649	1854
526.122	1880
526.594	1836
527.067	1886
527.539	1917
528.012	1905
528.484	1893
528.957	1909
529.43	1897
529.903	1891
530.375	1955
530.848	1913
531.321	1946
531.794	1951
532.267	1984
532.74	1962
533.213	1949
533.686	1985
534.159	1982
534.632	2028
535.105	2036
535.578	2093
536.051	2097
536.525	2095
536.998	2093
537.471	2134
537.945	2118
538.418	2151
538.891	2146
539.365	2180
539.838	2197
540.312	2186
540.786	2188
541.259	2194
541.733	2237
542.206	2244
542.68	2202
543.154	2214
543.628	2209
544.101	2265
544.575	2227
545.049	2174
545.523	2220
545.997	2217
546.471	2242
546.945	2218
547.419	2252
547.893	2190
548.367	2229
548.842	2198
549.316	2230
549.79	2241
550.264	2217
550.739	2245
551.213	2241
551.687	2242
552.162	2257
552.636	2239
553.111	2242
553.585	2317
554.06	2291
554.534	2325
555.009	2308
555.484	2355
555.958	2393
556.433	2399
556.908	2424
557.383	2401
557.858	2469
558.333	2471
558.807	2456
559.282	2478
559.757	2546
560.232	2541
560.708	2500
561.183	2485
561.658	2529
562.133	2519
562.608	2498
563.083	2563
563.559	2505
564.034	2515
564.509	2514
564.985	2517
565.46	2493
565.936	2557
566.411	2553
566.887	2520
567.362	2543
567.838	2559
568.313	2585
568.789	2538
569.265	2526
569.74	2543
570.216	2527
570.692	2578
571.168	2570
571.644	2584
572.12	2586
572.596	2617
573.071	2629
573.547	2708
574.024	2731
574.5	2741
574.976	2741
575.452	2780
575.928	2798
576.404	2841
576.881	2942
577.357	2880
577.833	2899
578.31	2982
578.786	3013
579.262	3044
579.739	3003
580.215	3085
580.692	3077
581.169	3057
581.645	3068
582.122	3164
582.598	3160
583.075	3183
583.552	3191
584.029	3181
584.506	3135
584.982	3119
585.459	3204
585.936	3149
586.413	3191
586.89	3252
587.367	3209
587.844	3263
588.321	3232
588.799	3257
589.276	3232
589.753	3293
590.23	3309
590.707	3311
591.185	3290
591.662	3297
592.139	3322
592.617	3383
593.094	3359
593.572	3390
594.049	3435
594.527	3467
595.004	3470
595.482	3575
595.96	3551
596.437	3563
596.915	3653
597.393	3587
597.871	3662
598.349	3640
598.826	3708
599.304	3707
599.782	3772
600.26	3742
600.738	3811
601.216	3791
601.694	3812
602.173	3829
602.651	3861
603.129	3795
603.607	3833
604.085	3866
604.564	3878
605.042	3887
605.52	3859
605.999	3952
606.477	3846
606.956	3849
607.434	3895
607.913	3941
608.391	3939
608.87	3913
609.348	3844
609.827	3835
610.306	3873
610.785	3877
611.263	3881
611.742	3858
612.221	3812
612.7	3861
613.179	3907
613.658	3866
614.137	3930
614.616	3952
615.095	3873
615.574	3932
616.053	3960
616.532	3923
617.011	3929
617.491	3970
617.97	3959
618.449	4020
618.928	4041
619.408	4008
619.887	4044
620.367	4071
620.846	4110
621.326	4067
621.805	4161
622.285	4146
622.764	4181
623.244	4174
623.724	4194
624.203	4221
624.683	4150
625.163	4260
625.643	4251
626.123	4219
626.602	4314
627.082	4224
627.562	4203
628.042	4281
628.522	4229
629.002	4191
629.482	4227
629.963	4235
630.443	4236
630.923	4236
631.403	4268
631.883	4248
632.364	4245
632.844	4213
633.324	4245
633.805	4253
634.285	4216
634.766	4164
635.246	4164
635.727	4158
636.207	4165
636.688	4161
637.168	4158
637.649	4136
638.13	4116
638.611	4144
639.091	4145
639.572	4133
640.053	4116
640.534	4141
641.015	4134
641.496	4057
641.977	4143
642.458	4110
642.939	4114
643.42	4121
643.901	4115
644.382	4161
644.863	4135
645.345	4117
645.826	4108
646.307	4118
646.788	4188
647.27	4114
647.751	4129
648.233	4157
648.714	4065
649.196	4189
649.677	4171
650.159	4175
650.64	4130
651.122	4205
651.603	4133
652.085	4144
652.567	4160
653.049	4133
653.53	4132
654.012	4189
654.494	4107
654.976	4170
655.458	4160
655.94	4140
656.422	4198
656.904	4106
657.386	4057
657.868	4073
658.35	4041
658.833	4095
659.315	4117
659.797	4050
660.279	4045
660.762	4073
661.244	4037
661.726	3984
662.209	3996
662.691	4000
663.174	3927
663.656	3948
664.139	3944
664.621	3894
665.104	3879
665.587	3926
666.069	3945
666.552	3938
667.035	3881
667.517	3873
668	3899
668.483	3909
668.966	3867
669.449	3854
669.932	3860
670.415	3907
670.898	3869
671.381	3876
671.864	3890
672.347	3838
672.83	3863
673.313	3879
673.797	3864
674.28	3956
674.763	3943
675.247	3938
675.73	3916
676.213	3955
676.697	3989
677.18	3984
677.664	3987
678.147	3979
678.631	4011
679.114	4031
679.598	4006
680.082	4018
680.565	3991
681.049	3970
681.533	3987
682.017	4027
682.5	4005
682.984	4001
683.468	4006
683.952	3950
684.436	4026
684.92	3976
685.404	3998
685.888	4030
686.372	4004
686.856	4009
687.341	4052
687.825	4007
688.309	4036
688.793	4050
689.278	3979
689.762	4025
690.246	4003
690.731	4011
691.215	4029
691.7	3935
692.184	3957
692.669	3932
693.153	3944
693.638	3861
694.122	3847
694.607	3894
695.092	3829
695.577	3856
696.061	3790
696.546	3783
697.031	3753
697.516	3782
698.001	3775
698.486	3747
698.971	3796
699.456	3724
699.941	3723
700.426	3718
700.911	3780
701.396	3763
701.881	3787
702.366	3748
702.852	3722
703.337	3742
703.822	3738
704.308	3767
704.793	3816
705.278	3812
705.764	3803
706.249	3767
706.735	3780
707.22	3817
707.706	3759
708.191	3811
708.677	3796
709.163	3750
709.648	3752
710.134	3786
710.62	3733
711.106	3732
711.592	3789
712.077	3778
712.563	3695
713.049	3696
713.535	3769
714.021	3739
714.507	3716
714.993	3683
715.479	3712
715.966	3673
716.452	3680
716.938	3683
717.424	3566
717.91	3637
718.397	3624
718.883	3608
719.369	3616
719.856	3590
720.342	3657
720.829	3611
721.315	3623
721.802	3614
722.288	3635
722.775	3498
723.262	3395
723.748	3526
724.235	3489
724.722	3521
725.208	3434
725.695	3412
726.182	3394
726.669	3353
727.156	3383
727.643	3340
728.13	3336
728.617	3303
729.104	3316
729.591	3301
730.078	3352
730.565	3355
731.052	3317
731.539	3317
732.027	3288
732.514	3239
733.001	3266
733.488	3239
733.976	3249
734.463	3226
734.951	3241
735.438	3273
735.926	3244
736.413	3247
736.901	3227
737.388	3239
737.876	3220
738.364	3213
738.851	3226
739.339	3224
739.827	3253
740.314	3151
740.802	3173
741.29	3187
741.778	3138
742.266	3150
742.754	3153
743.242	3168
743.73	3092
744.218	3078
744.706	3045
745.194	3065
745.682	3043
746.17	3050
746.659	3054
747.147	2983
747.635	3012
748.123	2995
748.612	2958
749.1	2934
749.589	2966
750.077	2968
750.566	2970
751.054	2980
751.543	2985
752.031	2907
752.52	2896
753.008	2838
753.497	2838
753.986	2832
754.474	2816
754.963	2848
755.452	2789
755.941	2767
756.43	2774
756.919	2756
757.408	2736
757.896	2748
758.385	2740
758.875	2695
759.364	2709
759.853	2688
760.342	2636
760.831	2687
761.32	2653
761.809	2622
762.299	2632
762.788	2639
763.277	2630
763.767	2579
764.256	2572
764.745	2548
765.235	2590
765.724	2522
766.214	2562
766.703	2510
767.193	2455
767.683	2467
768.172	2421
768.662	2424
769.152	2407
769.641	2402
770.131	2355
770.621	2407
771.111	2369
771.601	2368
772.09	2362
772.58	2344
773.07	2350
773.56	2348
774.05	2288
774.54	2266
775.031	2254
775.521	2253
776.011	2246
776.501	2269
776.991	2221
777.482	2235
777.972	2178
778.462	2169
778.953	2177
779.443	2167
779.933	2156
780.424	2146
780.914	2164
781.405	2167
781.895	2163
782.386	2154
782.877	2139
783.367	2093
783.858	2077
784.349	2083
784.839	2070
785.33	2070
785.821	2054
786.312	2044
786.803	2065
787.293	2052
787.784	2007
788.275	1981
788.766	1960
789.257	1992
789.748	1947
790.24	1925
790.731	1911
791.222	1879
791.713	1871
792.204	1875
792.696	1821
793.187	1837
793.678	1829
794.169	1779
794.661	1811
795.152	1787
795.644	1768
796.135	1764
796.627	1785
797.118	1753
797.61	1734
798.101	1711
798.593	1730
799.085	1708
799.576	1713
800.068	1689
800.56	1696
801.052	1651
801.544	1645
802.035	1644
802.527	1617
803.019	1596
803.511	1587
804.003	1566
804.495	1574
804.987	1547
805.479	1516
805.971	1529
806.464	1528
806.956	1490
807.448	1490
807.94	1488
808.433	1477
808.925	1465
809.417	1448
809.91	1438
810.402	1399
810.894	1412
811.387	1407
811.879	1390
812.372	1400
812.865	1385
813.357	1378
813.85	1383
814.342	1374
814.835	1374
815.328	1360
815.821	1350
816.313	1348
816.806	1354
817.299	1342
817.792	1361
818.285	1334
818.778	1351
819.271	1345
819.764	1326
820.257	1332
820.75	1331
821.243	1340
821.736	1327
822.229	1331
822.722	1325
823.216	1352
