Data from lamp4helium_zwak_Subt2__75__475.txt Node

Date: Wed Apr 09 11:14:40 CEST 2025
User: fys-lab-0081
Spectrometer: S04999
Trigger mode: 0
Resolution mode: 1024 pixels
Integration Time (sec): 1.000000E-1
Scans to average: 1
Nonlinearity correction enabled: false
Boxcar width: 0
Baseline correction enabled: true
XAxis mode: Wavelengths
Number of Pixels in Spectrum: 1024
>>>>>Begin Spectral Data<<<<<
336.42	-4
336.877	4
337.334	4
337.792	1
338.249	0
338.706	5
339.164	2
339.621	2
340.079	1
340.536	1
340.994	5
341.452	3
341.909	6
342.367	1
342.825	-1
343.283	3
343.741	4
344.198	1
344.656	0
345.114	3
345.572	6
346.03	2
346.488	2
346.947	3
347.405	2
347.863	3
348.321	-1
348.779	2
349.238	4
349.696	9
350.154	-1
350.613	4
351.071	2
351.53	10
351.988	8
352.447	5
352.905	2
353.364	-1
353.823	6
354.282	3
354.74	-1
355.199	5
355.658	6
356.117	2
356.576	11
357.035	5
357.494	6
357.953	4
358.412	9
358.871	6
359.33	7
359.789	3
360.249	2
360.708	8
361.167	8
361.626	5
362.086	3
362.545	7
363.005	10
363.464	8
363.924	11
364.383	7
364.843	10
365.303	12
365.762	16
366.222	7
366.682	10
367.142	12
367.601	11
368.061	8
368.521	8
368.981	10
369.441	13
369.901	15
370.361	12
370.821	9
371.282	14
371.742	12
372.202	12
372.662	14
373.123	8
373.583	17
374.043	17
374.504	12
374.964	12
375.425	12
375.885	16
376.346	20
376.806	22
377.267	16
377.728	22
378.188	22
378.649	22
379.11	20
379.571	15
380.032	23
380.493	23
380.954	23
381.414	23
381.876	24
382.337	24
382.798	27
383.259	25
383.72	30
384.181	24
384.642	22
385.104	31
385.565	32
386.026	38
386.488	34
386.949	37
387.411	31
387.872	37
388.334	40
388.795	40
389.257	40
389.719	37
390.181	42
390.642	41
391.104	42
391.566	46
392.028	43
392.49	52
392.952	53
393.414	50
393.876	50
394.338	48
394.8	50
395.262	47
395.724	55
396.186	57
396.648	58
397.111	58
397.573	62
398.035	60
398.498	57
398.96	66
399.423	60
399.885	63
400.348	65
400.81	66
401.273	66
401.736	66
402.198	75
402.661	71
403.124	68
403.587	80
404.049	79.5
404.512	79
404.975	81
405.438	82
405.901	82
406.364	83
406.827	83
407.29	79
407.754	84
408.217	83
408.68	79
409.143	91
409.607	91
410.07	88
410.533	91
410.997	93
411.46	98
411.924	97
412.387	101
412.851	95
413.314	100
413.778	101
414.242	103
414.705	112
415.169	109
415.633	112
416.097	105
416.561	111
417.024	109
417.488	111
417.952	115
418.416	105
418.88	108
419.344	110
419.809	118
420.273	119
420.737	114
421.201	117
421.665	120
422.13	124
422.594	130
423.059	131
423.523	131
423.987	130
424.452	138
424.916	140
425.381	142
425.846	141
426.31	152
426.775	151
427.24	154
427.704	156
428.169	155
428.634	154
429.099	153
429.564	156
430.029	158
430.494	152
430.959	154
431.424	154
431.889	166
432.354	167
432.819	158
433.284	171
433.75	171
434.215	180
434.68	177
435.146	180
435.611	190
436.077	195
436.542	194
437.008	203
437.473	203
437.939	201
438.404	210
438.87	219
439.336	212
439.801	215
440.267	220
440.733	222
441.199	216
441.665	223
442.131	233
442.596	225
443.062	235
443.529	242
443.995	243
444.461	250
444.927	260
445.393	264
445.859	270
446.325	279
446.792	292
447.258	293
447.724	304
448.191	314
448.657	318
449.124	318
449.59	324
450.057	340
450.523	343
450.99	353
451.457	349
451.923	357
452.39	355
452.857	364
453.324	360
453.791	365
454.257	370
454.724	371
455.191	373
455.658	378
456.125	384
456.592	376
457.059	388
457.527	391
457.994	407
458.461	405
458.928	418
459.396	412
459.863	422
460.33	420
460.798	429
461.265	434
461.732	433
462.2	445
462.668	439
463.135	448
463.603	433
464.07	450
464.538	441
465.006	450
465.474	444
465.941	441
466.409	447
466.877	439
467.345	453
467.813	447
468.281	451
468.749	460
469.217	455
469.685	467
470.153	476
470.621	475
471.09	477
471.558	502
472.026	505
472.494	519
472.963	522
473.431	533
473.9	545
474.368	562
474.837	564
475.305	576
475.774	586
476.242	604
476.711	598
477.18	622
477.648	616
478.117	623
478.586	625
479.055	626
479.524	627
479.993	629
480.462	628
480.93	631
481.399	629
481.869	637
482.338	631
482.807	640
483.276	640
483.745	635
484.214	658
484.684	669
485.153	670
485.622	674
486.092	696
486.561	677
487.031	712
487.5	720
487.97	730
488.439	746
488.909	765
489.378	797
489.848	796
490.318	809
490.787	851
491.257	854
491.727	853
492.197	869
492.667	880
493.137	886
493.607	895
494.077	903
494.547	891
495.017	886
495.487	901
495.957	930
496.427	909
496.897	905
497.368	923
497.838	912
498.308	921
498.779	938
499.249	938
499.719	955
500.19	970
500.66	969
501.131	981
501.602	994
502.072	995
502.543	1015
503.014	1052
503.484	1057
503.955	1077
504.426	1119
504.897	1125
505.368	1147
505.838	1175
506.309	1192
506.78	1230
507.251	1255
507.722	1277
508.194	1311
508.665	1333
509.136	1324
509.607	1366
510.078	1375
510.549	1381
511.021	1418
511.492	1429
511.964	1442
512.435	1464
512.906	1456
513.378	1469
513.849	1500
514.321	1502
514.793	1508
515.264	1534
515.736	1550
516.208	1592
516.679	1598
517.151	1618
517.623	1630
518.095	1653
518.567	1655
519.038	1696
519.51	1697
519.982	1711
520.454	1721
520.927	1748
521.399	1774
521.871	1794
522.343	1799
522.815	1824
523.287	1816
523.76	1841
524.232	1872
524.704	1875
525.177	1851
525.649	1851
526.122	1878
526.594	1839
527.067	1886
527.539	1913
528.012	1901
528.484	1896
528.957	1909
529.43	1903
529.903	1889
530.375	1951
530.848	1919
531.321	1948
531.794	1945
532.267	1986
532.74	1956
533.213	1955
533.686	1986
534.159	1983
534.632	2029
535.105	2043
535.578	2100
536.051	2098
536.525	2100
536.998	2098
537.471	2138
537.945	2121
538.418	2149
538.891	2141
539.365	2182
539.838	2200
540.312	2189
540.786	2195
541.259	2199
541.733	2232
542.206	2239
542.68	2204
543.154	2211
543.628	2216
544.101	2262
544.575	2225
545.049	2176
545.523	2214
545.997	2220
546.471	2245
546.945	2213
547.419	2254
547.893	2184
548.367	2231
548.842	2203
549.316	2227
549.79	2243
550.264	2225
550.739	2249
551.213	2251
551.687	2242
552.162	2264
552.636	2238
553.111	2236
553.585	2326
554.06	2288
554.534	2336
555.009	2309
555.484	2348
555.958	2392
556.433	2392
556.908	2435
557.383	2407
557.858	2475
558.333	2474
558.807	2459
559.282	2481
559.757	2554
560.232	2553
560.708	2497
561.183	2482
561.658	2530
562.133	2529
562.608	2501
563.083	2566
563.559	2505
564.034	2523
564.509	2513
564.985	2520
565.46	2500
565.936	2566
566.411	2560
566.887	2520
567.362	2548
567.838	2553
568.313	2584
568.789	2538
569.265	2526
569.74	2550
570.216	2533
570.692	2573
571.168	2579
571.644	2588
572.12	2583
572.596	2621
573.071	2632
573.547	2714
574.024	2731
574.5	2744
574.976	2747
575.452	2777
575.928	2808
576.404	2844
576.881	2949
577.357	2881
577.833	2901
578.31	2986
578.786	3012
579.262	3049
579.739	3000
580.215	3084
580.692	3084
581.169	3066
581.645	3072
582.122	3161
582.598	3177
583.075	3189
583.552	3198
584.029	3189
584.506	3145
584.982	3121
585.459	3196
585.936	3153
586.413	3194
586.89	3242
587.367	3220
587.844	3258
588.321	3236
588.799	3259
589.276	3229
589.753	3304
590.23	3315
590.707	3300
591.185	3300
591.662	3304
592.139	3338
592.617	3380
593.094	3357
593.572	3390
594.049	3432
594.527	3480
595.004	3480
595.482	3577
595.96	3566
596.437	3574
596.915	3664
597.393	3584
597.871	3666
598.349	3627
598.826	3709
599.304	3711
599.782	3780
600.26	3743
600.738	3826
601.216	3799
601.694	3821
602.173	3841
602.651	3863
603.129	3803
603.607	3836
604.085	3865
604.564	3871
605.042	3903
605.52	3859
605.999	3958
606.477	3851
606.956	3854
607.434	3904.5
607.913	3955
608.391	3944
608.87	3918
609.348	3842
609.827	3855
610.306	3878
610.785	3886
611.263	3884
611.742	3871
612.221	3810
612.7	3877
613.179	3909
613.658	3884
614.137	3925
614.616	3947
615.095	3889
615.574	3935
616.053	3966
616.532	3925
617.011	3938
617.491	3969
617.97	3959
618.449	4018
618.928	4046
619.408	4003
619.887	4039
620.367	4070
620.846	4119
621.326	4077
621.805	4162
622.285	4146
622.764	4187
623.244	4184
623.724	4206
624.203	4230
624.683	4158
625.163	4260
625.643	4247
626.123	4220
626.602	4312
627.082	4216
627.562	4210
628.042	4284
628.522	4237
629.002	4193
629.482	4231
629.963	4240
630.443	4231
630.923	4243
631.403	4270
631.883	4241
632.364	4252
632.844	4229
633.324	4249
633.805	4267
634.285	4204
634.766	4177
635.246	4172
635.727	4161
636.207	4162
636.688	4171
637.168	4168
637.649	4155
638.13	4120
638.611	4158
639.091	4146
639.572	4134
640.053	4117
640.534	4150
641.015	4135
641.496	4062
641.977	4137
642.458	4099
642.939	4116
643.42	4119
643.901	4126
644.382	4162
644.863	4137
645.345	4114
645.826	4118
646.307	4136
646.788	4195
647.27	4123
647.751	4132
648.233	4170
648.714	4070
649.196	4191
649.677	4186
650.159	4182
650.64	4138
651.122	4215
651.603	4138
652.085	4149
652.567	4166
653.049	4145
653.53	4129
654.012	4193
654.494	4097
654.976	4163
655.458	4173
655.94	4139
656.422	4201
656.904	4106
657.386	4068
657.868	4076
658.35	4041
658.833	4098
659.315	4123
659.797	4060
660.279	4059
660.762	4080
661.244	4040
661.726	3994
662.209	4006
662.691	4019
663.174	3934
663.656	3962
664.139	3938
664.621	3904
665.104	3877
665.587	3934
666.069	3955
666.552	3933
667.035	3879
667.517	3882
668	3902
668.483	3903
668.966	3860
669.449	3869
669.932	3867
670.415	3906
670.898	3880
671.381	3886
671.864	3899
672.347	3840
672.83	3863
673.313	3889
673.797	3871
674.28	3957
674.763	3949
675.247	3948
675.73	3912
676.213	3970
676.697	3992
677.18	3992
677.664	3989
678.147	3989
678.631	4020
679.114	4039
679.598	4009
680.082	4017
680.565	3999
681.049	3981
681.533	3987
682.017	4038
682.5	4015
682.984	4006
683.468	4008
683.952	3953
684.436	4025
684.92	3971
685.404	4009
685.888	4039
686.372	4012
686.856	4017
687.341	4050
687.825	4011
688.309	4038
688.793	4058
689.278	3981
689.762	4030
690.246	4010
690.731	4014
691.215	4034
691.7	3943
692.184	3961
692.669	3944
693.153	3955
693.638	3864
694.122	3844
694.607	3894
695.092	3838
695.577	3858
696.061	3792
696.546	3791
697.031	3756
697.516	3783
698.001	3780
698.486	3747
698.971	3805
699.456	3734
699.941	3726
700.426	3738
700.911	3784
701.396	3767
701.881	3801
702.366	3752
702.852	3728
703.337	3743
703.822	3753
704.308	3772
704.793	3808
705.278	3811
705.764	3820
706.249	3779
706.735	3789
707.22	3822
707.706	3775
708.191	3815
708.677	3812
709.163	3751
709.648	3747
710.134	3780
710.62	3747
711.106	3742
711.592	3791
712.077	3786
712.563	3699
713.049	3702
713.535	3770
714.021	3750
714.507	3723
714.993	3680
715.479	3731
715.966	3684
716.452	3676
716.938	3687
717.424	3573
717.91	3643
718.397	3632
718.883	3611
719.369	3625
719.856	3596
720.342	3666
720.829	3610
721.315	3626
721.802	3610
722.288	3635
722.775	3498
723.262	3399
723.748	3522
724.235	3490
724.722	3527
725.208	3430
725.695	3410
726.182	3401
726.669	3365
727.156	3380
727.643	3348
728.13	3345
728.617	3299
729.104	3320
729.591	3304
730.078	3350
730.565	3355
731.052	3319
731.539	3338
732.027	3304
732.514	3239
733.001	3264
733.488	3251
733.976	3241
734.463	3231
734.951	3234
735.438	3276
735.926	3244
736.413	3263
736.901	3222
737.388	3241
737.876	3232
738.364	3211
738.851	3223
739.339	3220
739.827	3261
740.314	3149
740.802	3179
741.29	3189
741.778	3142
742.266	3152
742.754	3153
743.242	3173
743.73	3101
744.218	3092
744.706	3053
745.194	3074
745.682	3049
746.17	3054
746.659	3065
747.147	2989
747.635	3014
748.123	3003
748.612	2962
749.1	2941
749.589	2977
750.077	2973
750.566	2971
751.054	2990
751.543	2989
752.031	2915
752.52	2905
753.008	2847
753.497	2855
753.986	2836
754.474	2828
754.963	2843
755.452	2790
755.941	2780
756.43	2777
756.919	2764
757.408	2742
757.896	2755
758.385	2745
758.875	2707
759.364	2717
759.853	2691
760.342	2635
760.831	2696
761.32	2658
761.809	2633
762.299	2636
762.788	2642
763.277	2635
763.767	2580
764.256	2573
764.745	2548
765.235	2590
765.724	2531
766.214	2569
766.703	2507
767.193	2457
767.683	2471
768.172	2418
768.662	2428
769.152	2404
769.641	2402
770.131	2363
770.621	2410
771.111	2375
771.601	2375
772.09	2364
772.58	2347
773.07	2349
773.56	2349
774.05	2291
774.54	2275
775.031	2258
775.521	2249
776.011	2253
776.501	2272
776.991	2226
777.482	2234
777.972	2177
778.462	2173
778.953	2190
779.443	2171
779.933	2169
780.424	2148
780.914	2166
781.405	2170
781.895	2166
782.386	2162
782.877	2141
783.367	2102
783.858	2080
784.349	2087
784.839	2076
785.33	2075
785.821	2060
786.312	2045
786.803	2062
787.293	2049
787.784	2019
788.275	1983
788.766	1963
789.257	1993
789.748	1951
790.24	1927
790.731	1923
791.222	1877
791.713	1876
792.204	1873
792.696	1821
793.187	1842
793.678	1827
794.169	1776
794.661	1808
795.152	1791
795.644	1771
796.135	1775
796.627	1782
797.118	1752
797.61	1730
798.101	1715
798.593	1735
799.085	1713
799.576	1709
800.068	1691
800.56	1698
801.052	1658
801.544	1650
802.035	1647
802.527	1615
803.019	1594
803.511	1592
804.003	1571
804.495	1575
804.987	1552
805.479	1520
805.971	1526
806.464	1528
806.956	1492
807.448	1494
807.94	1487
808.433	1476
808.925	1470
809.417	1449
809.91	1439
810.402	1405
810.894	1414
811.387	1412
811.879	1393
812.372	1402
812.865	1386
813.357	1389
813.85	1382
814.342	1371
814.835	1378
815.328	1371
815.821	1353
816.313	1350
816.806	1351
817.299	1347
817.792	1360
818.285	1338
818.778	1348
819.271	1351
819.764	1332
820.257	1330
820.75	1333
821.243	1342
821.736	1324
822.229	1334
822.722	1327
823.216	1355
