Data from lamp4helium_zwak_Subt2__70__470.txt Node

Date: Wed Apr 09 11:14:39 CEST 2025
User: fys-lab-0081
Spectrometer: S04999
Trigger mode: 0
Resolution mode: 1024 pixels
Integration Time (sec): 1.000000E-1
Scans to average: 1
Nonlinearity correction enabled: false
Boxcar width: 0
Baseline correction enabled: true
XAxis mode: Wavelengths
Number of Pixels in Spectrum: 1024
>>>>>Begin Spectral Data<<<<<
336.42	0
336.877	0
337.334	3
337.792	4
338.249	3
338.706	1
339.164	1
339.621	3
340.079	4
340.536	4
340.994	5
341.452	2
341.909	8
342.367	1
342.825	0
343.283	5
343.741	2
344.198	1
344.656	3
345.114	1
345.572	9
346.03	4
346.488	1
346.947	4
347.405	9
347.863	5
348.321	2
348.779	5
349.238	3
349.696	7
350.154	0
350.613	1
351.071	3
351.53	9
351.988	8
352.447	2
352.905	1
353.364	5
353.823	8
354.282	7
354.74	-4
355.199	5
355.658	9
356.117	10
356.576	3
357.035	-1
357.494	4
357.953	7
358.412	8
358.871	8
359.33	2
359.789	3
360.249	9
360.708	7
361.167	10
361.626	10
362.086	9
362.545	4
363.005	7
363.464	8
363.924	11
364.383	4
364.843	11
365.303	11
365.762	9
366.222	12
366.682	8
367.142	11
367.601	12
368.061	6
368.521	7
368.981	10
369.441	16
369.901	13
370.361	14
370.821	14
371.282	16
371.742	12
372.202	15
372.662	13
373.123	14
373.583	13
374.043	17
374.504	12
374.964	14
375.425	19
375.885	16
376.346	17
376.806	22
377.267	15
377.728	22
378.188	17
378.649	18
379.11	22
379.571	14
380.032	21
380.493	24
380.954	25
381.414	23
381.876	25
382.337	18
382.798	28
383.259	27
383.72	28
384.181	26
384.642	27
385.104	28
385.565	33
386.026	34
386.488	30
386.949	34
387.411	37
387.872	36
388.334	42
388.795	39
389.257	41
389.719	39
390.181	40
390.642	38
391.104	41
391.566	43
392.028	50
392.49	52
392.952	48
393.414	48
393.876	50
394.338	53
394.8	53
395.262	46
395.724	56
396.186	57
396.648	56
397.111	55
397.573	63
398.035	62
398.498	60
398.96	59
399.423	57
399.885	62
400.348	66
400.81	68
401.273	71
401.736	64
402.198	78
402.661	78
403.124	67
403.587	77
404.049	77
404.512	77
404.975	77
405.438	81
405.901	86
406.364	87
406.827	84
407.29	84
407.754	83
408.217	85
408.68	86
409.143	94
409.607	91
410.07	96
410.533	90
410.997	90
411.46	92
411.924	103
412.387	99
412.851	101
413.314	98
413.778	102
414.242	104
414.705	107
415.169	107
415.633	111
416.097	104
416.561	112
417.024	115
417.488	110
417.952	115
418.416	109
418.88	104
419.344	108
419.809	115
420.273	117
420.737	113
421.201	123
421.665	124
422.13	128
422.594	129
423.059	132
423.523	133
423.987	131
424.452	138
424.916	139
425.381	146
425.846	146
426.31	152
426.775	149
427.24	151
427.704	154
428.169	155
428.634	158
429.099	156
429.564	157
430.029	159
430.494	155
430.959	156
431.424	158
431.889	164
432.354	167
432.819	162
433.284	176
433.75	169
434.215	185
434.68	180
435.146	179
435.611	186
436.077	197
436.542	195
437.008	205
437.473	206
437.939	201
438.404	210
438.87	214
439.336	213
439.801	212
440.267	220
440.733	222
441.199	220
441.665	227
442.131	230
442.596	226
443.062	232
443.529	245
443.995	246
444.461	248
444.927	261
445.393	261
445.859	271
446.325	276
446.792	297
447.258	294
447.724	302
448.191	319
448.657	318
449.124	322
449.59	321
450.057	340
450.523	346
450.99	350
451.457	347
451.923	354
452.39	355
452.857	365
453.324	363
453.791	367
454.257	370
454.724	375
455.191	374
455.658	373
456.125	383
456.592	374
457.059	391
457.527	391
457.994	404
458.461	404
458.928	420
459.396	414
459.863	426
460.33	427
460.798	426
461.265	437
461.732	433
462.2	447
462.668	440
463.135	445
463.603	432
464.07	455
464.538	440
465.006	455
465.474	449
465.941	445
466.409	448
466.877	441
467.345	454
467.813	443
468.281	453
468.749	462
469.217	458
469.685	466
470.153	475
470.621	476
471.09	481
471.558	502
472.026	502
472.494	518
472.963	522
473.431	533
473.9	544
474.368	562
474.837	571
475.305	577
475.774	583
476.242	599
476.711	601
477.18	620
477.648	616
478.117	621
478.586	624
479.055	626
479.524	629
479.993	629
480.462	627
480.93	632
481.399	635
481.869	635
482.338	632
482.807	642
483.276	642
483.745	637
484.214	659
484.684	666
485.153	673
485.622	680
486.092	690
486.561	680
487.031	708
487.5	720
487.97	733
488.439	751
488.909	762
489.378	795
489.848	795
490.318	814
490.787	852
491.257	853
491.727	854
492.197	872
492.667	877
493.137	883
493.607	894
494.077	902
494.547	895
495.017	893
495.487	907
495.957	931
496.427	908
496.897	910
497.368	930
497.838	919
498.308	924
498.779	944
499.249	941
499.719	951
500.19	965
500.66	975
501.131	982
501.602	994
502.072	993
502.543	1017
503.014	1060
503.484	1052
503.955	1079
504.426	1122
504.897	1123
505.368	1146
505.838	1176
506.309	1194
506.78	1229
507.251	1253
507.722	1283
508.194	1314
508.665	1340
509.136	1330
509.607	1371
510.078	1373
510.549	1382
511.021	1413
511.492	1430
511.964	1447
512.435	1466
512.906	1465
513.378	1472
513.849	1505
514.321	1498
514.793	1519
515.264	1538
515.736	1556
516.208	1584
516.679	1597
517.151	1618
517.623	1629
518.095	1652
518.567	1663
519.038	1700
519.51	1701
519.982	1704
520.454	1722
520.927	1749
521.399	1779
521.871	1800
522.343	1803
522.815	1820
523.287	1825
523.76	1842
524.232	1873
524.704	1872
525.177	1850
525.649	1851
526.122	1879
526.594	1844
527.067	1889
527.539	1910
528.012	1900
528.484	1895
528.957	1909
529.43	1906
529.903	1887
530.375	1957
530.848	1923
531.321	1949
531.794	1943
532.267	1990
532.74	1966
533.213	1953
533.686	1988
534.159	1980
534.632	2038
535.105	2049
535.578	2099
536.051	2103
536.525	2103
536.998	2099
537.471	2136
537.945	2117
538.418	2152
538.891	2143
539.365	2187
539.838	2196
540.312	2191
540.786	2192
541.259	2206
541.733	2232
542.206	2236
542.68	2207
543.154	2213
543.628	2220
544.101	2266
544.575	2231
545.049	2177
545.523	2224
545.997	2232
546.471	2242
546.945	2213
547.419	2258
547.893	2186
548.367	2225
548.842	2208
549.316	2230
549.79	2247
550.264	2225
550.739	2249
551.213	2242
551.687	2243
552.162	2264
552.636	2247
553.111	2242
553.585	2311
554.06	2298
554.534	2327
555.009	2312
555.484	2357
555.958	2397
556.433	2398
556.908	2437
557.383	2407
557.858	2469
558.333	2477
558.807	2461
559.282	2477
559.757	2555
560.232	2545
560.708	2500
561.183	2487
561.658	2535
562.133	2529
562.608	2504
563.083	2568
563.559	2505
564.034	2516
564.509	2514
564.985	2522
565.46	2507
565.936	2566
566.411	2561
566.887	2526
567.362	2554
567.838	2557
568.313	2592
568.789	2544
569.265	2528
569.74	2547
570.216	2532
570.692	2583
571.168	2580
571.644	2594
572.12	2590
572.596	2611
573.071	2633
573.547	2717
574.024	2736
574.5	2738
574.976	2748
575.452	2781
575.928	2819
576.404	2839
576.881	2947
577.357	2892
577.833	2895
578.31	2987
578.786	3013
579.262	3059
579.739	3004
580.215	3086
580.692	3090
581.169	3071
581.645	3071
582.122	3171
582.598	3169
583.075	3188
583.552	3202
584.029	3183
584.506	3143
584.982	3129
585.459	3200
585.936	3163
586.413	3193
586.89	3251
587.367	3218
587.844	3267
588.321	3234
588.799	3259
589.276	3236
589.753	3301
590.23	3321
590.707	3303
591.185	3304
591.662	3303
592.139	3334
592.617	3394
593.094	3361
593.572	3396
594.049	3440
594.527	3482
595.004	3483
595.482	3580
595.96	3559
596.437	3576
596.915	3663
597.393	3588
597.871	3660
598.349	3645
598.826	3713
599.304	3709
599.782	3782
600.26	3737
600.738	3823
601.216	3810
601.694	3824
602.173	3840
602.651	3862
603.129	3797
603.607	3843
604.085	3873
604.564	3870
605.042	3890
605.52	3861
605.999	3970
606.477	3856
606.956	3861
607.434	3905
607.913	3949
608.391	3942
608.87	3912
609.348	3853
609.827	3856
610.306	3882
610.785	3884
611.263	3883
611.742	3860
612.221	3814
612.7	3872
613.179	3914
613.658	3873
614.137	3929
614.616	3956
615.095	3885
615.574	3936
616.053	3959
616.532	3931
617.011	3933
617.491	3976
617.97	3967
618.449	4023
618.928	4042
619.408	4016
619.887	4059
620.367	4081
620.846	4123
621.326	4077
621.805	4175
622.285	4153
622.764	4186
623.244	4189
623.724	4204
624.203	4223
624.683	4162
625.163	4272
625.643	4272
626.123	4229
626.602	4313
627.082	4228
627.562	4211
628.042	4291
628.522	4241
629.002	4194
629.482	4235
629.963	4246
630.443	4238
630.923	4244
631.403	4274
631.883	4247
632.364	4256
632.844	4220
633.324	4252
633.805	4269
634.285	4213
634.766	4182
635.246	4169
635.727	4164
636.207	4164
636.688	4172
637.168	4167
637.649	4158
638.13	4128
638.611	4154
639.091	4160
639.572	4131
640.053	4125
640.534	4155
641.015	4138
641.496	4061
641.977	4132
642.458	4118
642.939	4120
643.42	4117
643.901	4127
644.382	4160
644.863	4143
645.345	4130
645.826	4114
646.307	4131
646.788	4196
647.27	4122
647.751	4142
648.233	4163
648.714	4077
649.196	4199
649.677	4188
650.159	4192
650.64	4140
651.122	4211
651.603	4136
652.085	4152
652.567	4160
653.049	4140
653.53	4141
654.012	4201
654.494	4109
654.976	4176
655.458	4168
655.94	4147
656.422	4203
656.904	4119
657.386	4068
657.868	4072
658.35	4054
658.833	4101
659.315	4123
659.797	4060
660.279	4048
660.762	4075
661.244	4053
661.726	3990
662.209	4009
662.691	4017
663.174	3936
663.656	3963
664.139	3940
664.621	3896
665.104	3890
665.587	3932
666.069	3946
666.552	3945
667.035	3879
667.517	3881
668	3915
668.483	3916
668.966	3865
669.449	3862
669.932	3872
670.415	3904
670.898	3876
671.381	3882
671.864	3900
672.347	3848
672.83	3859
673.313	3882
673.797	3879
674.28	3943
674.763	3942
675.247	3952
675.73	3917
676.213	3969
676.697	3988
677.18	3990
677.664	3989
678.147	3979
678.631	4020
679.114	4028
679.598	4016
680.082	4024
680.565	4002
681.049	3975
681.533	3993
682.017	4043
682.5	4011
682.984	4006
683.468	4013
683.952	3949
684.436	4027
684.92	3982
685.404	4005
685.888	4047
686.372	4005
686.856	4019
687.341	4056
687.825	4012
688.309	4036
688.793	4055
689.278	3994
689.762	4030
690.246	4018
690.731	4022
691.215	4034
691.7	3944
692.184	3970
692.669	3951
693.153	3952
693.638	3874
694.122	3855
694.607	3900
695.092	3830
695.577	3866
696.061	3797
696.546	3793
697.031	3762
697.516	3786
698.001	3777
698.486	3754
698.971	3803
699.456	3727
699.941	3729
700.426	3722
700.911	3790
701.396	3777
701.881	3804
702.366	3763
702.852	3722
703.337	3746
703.822	3745
704.308	3775
704.793	3811
705.278	3821
705.764	3816
706.249	3785
706.735	3784
707.22	3822
707.706	3774
708.191	3817
708.677	3800
709.163	3754
709.648	3748
710.134	3793
710.62	3746
711.106	3743
711.592	3798
712.077	3785
712.563	3701
713.049	3700
713.535	3776
714.021	3745
714.507	3730
714.993	3693
715.479	3725
715.966	3687
716.452	3693
716.938	3693
717.424	3568
717.91	3642
718.397	3622
718.883	3617
719.369	3624
719.856	3601
720.342	3662
720.829	3612
721.315	3632
721.802	3611
722.288	3642
722.775	3491
723.262	3401
723.748	3531
724.235	3496
724.722	3525
725.208	3439
725.695	3416
726.182	3403
726.669	3373
727.156	3387
727.643	3343
728.13	3344
728.617	3305
729.104	3330
729.591	3303
730.078	3348
730.565	3353
731.052	3330
731.539	3330
732.027	3296
732.514	3240
733.001	3272
733.488	3257
733.976	3250
734.463	3232
734.951	3245
735.438	3281
735.926	3245
736.413	3261
736.901	3230
737.388	3244
737.876	3232
738.364	3217
738.851	3233
739.339	3230
739.827	3253
740.314	3146
740.802	3179
741.29	3189
741.778	3139
742.266	3156
742.754	3161
743.242	3175
743.73	3105
744.218	3090
744.706	3050
745.194	3070
745.682	3044
746.17	3056
746.659	3054
747.147	2990
747.635	3013
748.123	2996
748.612	2964
749.1	2937
749.589	2975
750.077	2978
750.566	2974
751.054	2987
751.543	2996
752.031	2917
752.52	2898
753.008	2848
753.497	2847
753.986	2847
754.474	2818
754.963	2845
755.452	2782
755.941	2780
756.43	2778
756.919	2765
757.408	2738
757.896	2756
758.385	2746
758.875	2710
759.364	2715
759.853	2694
760.342	2640
760.831	2691
761.32	2668
761.809	2629
762.299	2633
762.788	2647
763.277	2634
763.767	2580
764.256	2576
764.745	2543
765.235	2598
765.724	2533
766.214	2564
766.703	2514
767.193	2458
767.683	2475
768.172	2420
768.662	2432
769.152	2414
769.641	2410
770.131	2362
770.621	2410
771.111	2377
771.601	2374
772.09	2368
772.58	2346
773.07	2350
773.56	2360
774.05	2290
774.54	2275
775.031	2263
775.521	2248
776.011	2257
776.501	2264
776.991	2224
777.482	2246
777.972	2179
778.462	2172
778.953	2179
779.443	2175
779.933	2172
780.424	2144
780.914	2170
781.405	2177
781.895	2173
782.386	2172
782.877	2144
783.367	2096
783.858	2082
784.349	2091
784.839	2077
785.33	2072
785.821	2068
786.312	2056
786.803	2059
787.293	2056
787.784	2021
788.275	1988
788.766	1964
789.257	1995
789.748	1950
790.24	1925
790.731	1915
791.222	1882
791.713	1873
792.204	1872
792.696	1828
793.187	1846
793.678	1828
794.169	1773
794.661	1811
795.152	1789
795.644	1774
796.135	1774
796.627	1790
797.118	1755
797.61	1735
798.101	1717
798.593	1740
799.085	1705
799.576	1711
800.068	1698
800.56	1698
801.052	1660
801.544	1654
802.035	1647
802.527	1620
803.019	1600
803.511	1587
804.003	1569
804.495	1570
804.987	1557
805.479	1520
805.971	1532
806.464	1530
806.956	1494
807.448	1495
807.94	1488
808.433	1478
808.925	1467
809.417	1449
809.91	1444
810.402	1397
810.894	1411
811.387	1418
811.879	1386
812.372	1404
812.865	1392
813.357	1386
813.85	1380
814.342	1376
814.835	1380
815.328	1370
815.821	1350
816.313	1351
816.806	1356
817.299	1345
817.792	1362
818.285	1331
818.778	1351
819.271	1346
819.764	1330
820.257	1332
820.75	1334
821.243	1343
821.736	1329
822.229	1337
822.722	1332
823.216	1355
