Data from lamp4helium_zwak_Subt4__24__24.txt Node

Date: Wed Apr 09 09:32:57 CEST 2025
User: fys-lab-0081
Spectrometer: S04999
Trigger mode: 0
Resolution mode: 1024 pixels
Integration Time (sec): 1.000000E-1
Scans to average: 1
Nonlinearity correction enabled: false
Boxcar width: 0
Baseline correction enabled: true
XAxis mode: Wavelengths
Number of Pixels in Spectrum: 1024
>>>>>Begin Spectral Data<<<<<
336.42	0
336.877	0
337.334	0
337.792	0
338.249	2
338.706	2
339.164	1
339.621	1
340.079	1
340.536	6
340.994	7
341.452	-4
341.909	-2
342.367	0
342.825	1
343.283	1
343.741	3
344.198	2
344.656	2
345.114	2
345.572	4
346.03	2
346.488	5
346.947	-1
347.405	4
347.863	2
348.321	5
348.779	1
349.238	5
349.696	4
350.154	7
350.613	4
351.071	5
351.53	11
351.988	-1
352.447	5
352.905	2
353.364	-1
353.823	2
354.282	3
354.74	2
355.199	9
355.658	4
356.117	2
356.576	8
357.035	6
357.494	5
357.953	10
358.412	8
358.871	-1
359.33	4
359.789	4
360.249	1
360.708	8
361.167	6
361.626	10
362.086	5
362.545	5
363.005	14
363.464	3
363.924	4
364.383	10
364.843	5
365.303	8
365.762	11
366.222	8
366.682	14
367.142	10
367.601	8
368.061	10
368.521	14
368.981	13
369.441	14
369.901	12
370.361	11
370.821	9
371.282	15
371.742	14
372.202	17
372.662	11
373.123	12
373.583	16
374.043	12
374.504	8
374.964	15
375.425	17
375.885	17
376.346	17
376.806	16
377.267	18
377.728	21
378.188	20
378.649	19
379.11	20
379.571	16
380.032	18
380.493	18
380.954	21
381.414	16
381.876	22
382.337	28
382.798	22
383.259	30
383.72	25
384.181	24
384.642	24
385.104	29
385.565	36
386.026	30
386.488	29
386.949	34
387.411	34
387.872	28
388.334	33
388.795	31
389.257	40
389.719	37
390.181	36
390.642	41
391.104	35
391.566	37
392.028	45
392.49	41
392.952	40
393.414	45
393.876	43
394.338	42
394.8	46
395.262	42
395.724	48
396.186	55
396.648	52
397.111	54
397.573	53
398.035	52
398.498	57
398.96	54
399.423	56
399.885	57
400.348	60
400.81	63
401.273	53
401.736	63
402.198	63
402.661	65
403.124	64
403.587	64
404.049	68.5
404.512	73
404.975	72
405.438	68
405.901	77
406.364	75
406.827	75
407.29	76
407.754	76
408.217	77
408.68	71
409.143	77
409.607	84
410.07	78
410.533	79
410.997	79
411.46	82
411.924	80
412.387	83
412.851	89
413.314	93
413.778	90
414.242	93
414.705	93
415.169	96
415.633	95
416.097	95
416.561	97
417.024	100
417.488	101
417.952	101
418.416	105
418.88	99
419.344	101
419.809	97
420.273	102
420.737	94
421.201	97
421.665	111
422.13	106
422.594	110
423.059	115
423.523	112
423.987	116
424.452	116
424.916	124
425.381	126
425.846	126
426.31	125
426.775	130
427.24	137
427.704	127
428.169	135
428.634	137
429.099	135
429.564	135
430.029	139
430.494	139
430.959	138
431.424	135
431.889	139
432.354	143
432.819	138
433.284	142
433.75	146
434.215	150
434.68	156
435.146	160
435.611	167
436.077	170
436.542	166
437.008	175
437.473	178
437.939	183
438.404	188
438.87	190
439.336	184
439.801	180
440.267	186
440.733	195
441.199	197
441.665	194
442.131	198
442.596	199
443.062	201
443.529	212
443.995	213
444.461	215
444.927	229
445.393	226
445.859	233
446.325	244
446.792	260
447.258	260
447.724	266
448.191	274
448.657	275
449.124	289
449.59	286
450.057	301
450.523	298
450.99	305
451.457	308
451.923	315
452.39	309
452.857	319
453.324	314
453.791	323
454.257	323
454.724	323
455.191	329
455.658	322
456.125	339
456.592	337
457.059	333
457.527	341
457.994	356
458.461	356
458.928	364
459.396	359
459.863	379
460.33	372
460.798	374
461.265	382
461.732	380
462.2	386
462.668	385
463.135	394
463.603	382
464.07	394
464.538	385
465.006	396
465.474	387
465.941	390
466.409	396
466.877	382
467.345	404
467.813	400
468.281	399
468.749	399
469.217	403
469.685	405
470.153	412
470.621	416
471.09	417
471.558	429
472.026	438
472.494	450
472.963	460
473.431	466
473.9	473
474.368	488
474.837	499
475.305	499
475.774	514
476.242	531
476.711	529
477.18	537
477.648	538
478.117	551
478.586	545
479.055	545
479.524	546
479.993	551
480.462	551
480.93	554
481.399	554
481.869	559
482.338	555
482.807	566
483.276	557
483.745	560
484.214	580
484.684	596
485.153	589
485.622	589
486.092	615
486.561	603
487.031	619
487.5	631
487.97	642
488.439	655
488.909	680
489.378	699
489.848	698
490.318	714
490.787	734
491.257	749
491.727	754
492.197	767
492.667	762
493.137	769
493.607	778
494.077	789
494.547	778
495.017	784
495.487	796
495.957	819
496.427	800
496.897	800
497.368	811
497.838	816
498.308	827
498.779	832
499.249	839
499.719	846
500.19	864
500.66	859
501.131	860
501.602	881
502.072	880
502.543	905
503.014	935
503.484	938
503.955	961
504.426	1000
504.897	1006
505.368	1031
505.838	1044
506.309	1072
506.78	1109
507.251	1124
507.722	1134
508.194	1172
508.665	1198
509.136	1181
509.607	1223
510.078	1237
510.549	1233
511.021	1269
511.492	1288
511.964	1301
512.435	1331
512.906	1319
513.378	1336
513.849	1362
514.321	1366
514.793	1369
515.264	1383
515.736	1392
516.208	1423
516.679	1451
517.151	1460
517.623	1468
518.095	1499
518.567	1516
519.038	1547
519.51	1551
519.982	1581
520.454	1590
520.927	1602
521.399	1625
521.871	1657
522.343	1664
522.815	1682
523.287	1675
523.76	1695
524.232	1721
524.704	1726
525.177	1703
525.649	1704
526.122	1739
526.594	1717
527.067	1760
527.539	1768
528.012	1751
528.484	1756
528.957	1762
529.43	1762
529.903	1754
530.375	1829
530.848	1783
531.321	1810
531.794	1811
532.267	1851
532.74	1837
533.213	1825
533.686	1867
534.159	1859
534.632	1916
535.105	1915
535.578	1943
536.051	1931
536.525	1945
536.998	1966
537.471	2013
537.945	1957
538.418	1996
538.891	2017
539.365	2046
539.838	2060
540.312	2055
540.786	2076
541.259	2062
541.733	2084
542.206	2097
542.68	2088
543.154	2079
543.628	2087
544.101	2151
544.575	2120
545.049	2081
545.523	2126
545.997	2123
546.471	2134
546.945	2109
547.419	2157
547.893	2082
548.367	2113
548.842	2097
549.316	2116
549.79	2148
550.264	2127
550.739	2169
551.213	2142
551.687	2142
552.162	2169
552.636	2160
553.111	2155
553.585	2229
554.06	2203
554.534	2262
555.009	2245
555.484	2267
555.958	2316
556.433	2314
556.908	2326
557.383	2286
557.858	2337
558.333	2354
558.807	2355
559.282	2367
559.757	2424
560.232	2430
560.708	2397
561.183	2398
561.658	2437
562.133	2422
562.608	2415
563.083	2463
563.559	2411
564.034	2437
564.509	2460
564.985	2487
565.46	2443
565.936	2494
566.411	2484
566.887	2467
567.362	2469
567.838	2449
568.313	2487
568.789	2452
569.265	2469
569.74	2493
570.216	2458
570.692	2497
571.168	2506
571.644	2527
572.12	2531
572.596	2557
573.071	2573
573.547	2664
574.024	2656
574.5	2664
574.976	2700
575.452	2759
575.928	2769
576.404	2762
576.881	2846
577.357	2814
577.833	2856
578.31	2926
578.786	2937
579.262	2983
579.739	2937
580.215	3019
580.692	3042
581.169	3025
581.645	3022
582.122	3118
582.598	3080
583.075	3061
583.552	3078
584.029	3112
584.506	3120
584.982	3082
585.459	3168
585.936	3146
586.413	3189
586.89	3232
587.367	3202
587.844	3239
588.321	3227
588.799	3220
589.276	3182
589.753	3203
590.23	3251
590.707	3248
591.185	3254
591.662	3238
592.139	3281
592.617	3351
593.094	3350
593.572	3382
594.049	3383
594.527	3404
595.004	3431
595.482	3546
595.96	3499
596.437	3497
596.915	3583
597.393	3573
597.871	3657
598.349	3604
598.826	3656
599.304	3682
599.782	3769
600.26	3747
600.738	3811
601.216	3772
601.694	3767
602.173	3793
602.651	3815
603.129	3762
603.607	3802
604.085	3801
604.564	3794
605.042	3816
605.52	3782
605.999	3891
606.477	3826
606.956	3883
607.434	3899.5
607.913	3916
608.391	3887
608.87	3875
609.348	3839
609.827	3861
610.306	3896
610.785	3860
611.263	3877
611.742	3870
612.221	3837
612.7	3893
613.179	3918
613.658	3861
614.137	3966
614.616	4007
615.095	3915
615.574	3948
616.053	3975
616.532	3933
617.011	3966
617.491	3965
617.97	3959
618.449	4045
618.928	4101
619.408	4099
619.887	4099
620.367	4106
620.846	4177
621.326	4163
621.805	4259
622.285	4242
622.764	4236
623.244	4234
623.724	4242
624.203	4252
624.683	4185
625.163	4276
625.643	4277
626.123	4255
626.602	4355
627.082	4239
627.562	4216
628.042	4330
628.522	4319
629.002	4283
629.482	4272
629.963	4222
630.443	4165
630.923	4199
631.403	4234
631.883	4238
632.364	4259
632.844	4225
633.324	4258
633.805	4253
634.285	4215
634.766	4223
635.246	4220
635.727	4208
636.207	4192
636.688	4199
637.168	4157
637.649	4115
638.13	4073
638.611	4108
639.091	4119
639.572	4127
640.053	4104
640.534	4122
641.015	4130
641.496	4134
641.977	4252
642.458	4178
642.939	4162
643.42	4153
643.901	4149
644.382	4235
644.863	4239
645.345	4231
645.826	4223
646.307	4197
646.788	4227
647.27	4127
647.751	4127
648.233	4156
648.714	4106
649.196	4228
649.677	4204
650.159	4218
650.64	4162
651.122	4214
651.603	4141
652.085	4175
652.567	4195
653.049	4149
653.53	4160
654.012	4217
654.494	4109
654.976	4115
655.458	4090
655.94	4070
656.422	4122
656.904	4049
657.386	3994
657.868	4014
658.35	4011
658.833	4076
659.315	4090
659.797	4043
660.279	4020
660.762	4055
661.244	4039
661.726	3968
662.209	3949
662.691	3903
663.174	3829
663.656	3840
664.139	3853
664.621	3843
665.104	3812
665.587	3859
666.069	3889
666.552	3875
667.035	3851
667.517	3864
668	3876
668.483	3848
668.966	3797
669.449	3813
669.932	3848
670.415	3893
670.898	3847
671.381	3834
671.864	3862
672.347	3843
672.83	3839
673.313	3804
673.797	3780
674.28	3815
674.763	3804
675.247	3792
675.73	3751
676.213	3793
676.697	3829
677.18	3798
677.664	3781
678.147	3802
678.631	3837
679.114	3857
679.598	3854
680.082	3862
680.565	3822
681.049	3802
681.533	3805
682.017	3826
682.5	3833
682.984	3844
683.468	3838
683.952	3736
684.436	3786
684.92	3738
685.404	3759
685.888	3765
686.372	3717
686.856	3732
687.341	3790
687.825	3739
688.309	3763
688.793	3761
689.278	3674
689.762	3683
690.246	3658
690.731	3661
691.215	3680
691.7	3560
692.184	3590
692.669	3558
693.153	3578
693.638	3541
694.122	3511
694.607	3554
695.092	3503
695.577	3554
696.061	3492
696.546	3504
697.031	3491
697.516	3501
698.001	3484
698.486	3464
698.971	3519
699.456	3467
699.941	3467
700.426	3437
700.911	3456
701.396	3383
701.881	3401
702.366	3384
702.852	3391
703.337	3400
703.822	3359
704.308	3332
704.793	3341
705.278	3352
705.764	3388
706.249	3374
706.735	3376
707.22	3407
707.706	3362
708.191	3415
708.677	3410
709.163	3363
709.648	3355
710.134	3387
710.62	3311
711.106	3296
711.592	3321
712.077	3319
712.563	3228
713.049	3204
713.535	3242
714.021	3190
714.507	3164
714.993	3153
715.479	3204
715.966	3185
716.452	3200
716.938	3215
717.424	3126
717.91	3167
718.397	3122
718.883	3095
719.369	3082
719.856	3014
720.342	3031
720.829	2961
721.315	2975
721.802	2955
722.288	2974
722.775	2853
723.262	2799
723.748	2895
724.235	2858
724.722	2872
725.208	2843
725.695	2846
726.182	2829
726.669	2793
727.156	2800
727.643	2771
728.13	2775
728.617	2760
729.104	2780
729.591	2747
730.078	2747
730.565	2730
731.052	2685
731.539	2688
732.027	2695
732.514	2675
733.001	2702
733.488	2667
733.976	2626
734.463	2580
734.951	2572
735.438	2603
735.926	2580
736.413	2596
736.901	2572
737.388	2597
737.876	2588
738.364	2572
738.851	2572
739.339	2564
739.827	2605
740.314	2506
740.802	2514
741.29	2497
741.778	2446
742.266	2449
742.754	2445
743.242	2452
743.73	2407
744.218	2410
744.706	2369
745.194	2381
745.682	2379
746.17	2377
746.659	2381
747.147	2310
747.635	2323
748.123	2305
748.612	2259
749.1	2251
749.589	2294
750.077	2279
750.566	2254
751.054	2261
751.543	2262
752.031	2205
752.52	2191
753.008	2149
753.497	2159
753.986	2132
754.474	2109
754.963	2149
755.452	2112
755.941	2094
756.43	2089
756.919	2086
757.408	2080
757.896	2067
758.385	2060
758.875	2038
759.364	2025
759.853	2001
760.342	1964
760.831	2002
761.32	1971
761.809	1923
762.299	1934
762.788	1941
763.277	1909
763.767	1891
764.256	1881
764.745	1858
765.235	1882
765.724	1820
766.214	1843
766.703	1830
767.193	1796
767.683	1787
768.172	1741
768.662	1755
769.152	1754
769.641	1774
770.131	1733
770.621	1747
771.111	1735
771.601	1724
772.09	1714
772.58	1679
773.07	1675
773.56	1683
774.05	1657
774.54	1659
775.031	1656
775.521	1647
776.011	1631
776.501	1642
776.991	1595
777.482	1606
777.972	1569
778.462	1568
778.953	1578
779.443	1556
779.933	1534
780.424	1510
780.914	1523
781.405	1531
781.895	1519
782.386	1513
782.877	1503
783.367	1458
783.858	1427
784.349	1432
784.839	1423
785.33	1419
785.821	1414
786.312	1387
786.803	1391
787.293	1374
787.784	1350
788.275	1341
788.766	1329
789.257	1332
789.748	1302
790.24	1288
790.731	1306
791.222	1298
791.713	1291
792.204	1289
792.696	1246
793.187	1268
793.678	1254
794.169	1239
794.661	1258
795.152	1240
795.644	1220
796.135	1208
796.627	1211
797.118	1195
797.61	1188
798.101	1180
798.593	1196
799.085	1188
799.576	1197
800.068	1167
800.56	1170
801.052	1137
801.544	1126
802.035	1126
802.527	1111
803.019	1093
803.511	1079
804.003	1070
804.495	1065
804.987	1051
805.479	1035
805.971	1050
806.464	1046
806.956	1021
807.448	1017
807.94	1015
808.433	1004
808.925	1008
809.417	997
809.91	993
810.402	976
810.894	972
811.387	979
811.879	951
812.372	955
812.865	929
813.357	928
813.85	924
814.342	926
814.835	921
815.328	929
815.821	916
816.313	909
816.806	916
817.299	898
817.792	906
818.285	900
818.778	909
819.271	910
819.764	894
820.257	904
820.75	894
821.243	886
821.736	874
822.229	887
822.722	879
823.216	899
