Data from lamp4helium_zwak_Subt4__19__19.txt Node

Date: Wed Apr 09 09:32:56 CEST 2025
User: fys-lab-0081
Spectrometer: S04999
Trigger mode: 0
Resolution mode: 1024 pixels
Integration Time (sec): 1.000000E-1
Scans to average: 1
Nonlinearity correction enabled: false
Boxcar width: 0
Baseline correction enabled: true
XAxis mode: Wavelengths
Number of Pixels in Spectrum: 1024
>>>>>Begin Spectral Data<<<<<
336.42	2
336.877	-2
337.334	-1
337.792	-1
338.249	3
338.706	3
339.164	0
339.621	-2
340.079	5
340.536	1
340.994	8
341.452	3
341.909	3
342.367	-1
342.825	3
343.283	2
343.741	-2
344.198	3
344.656	-2
345.114	3
345.572	6
346.03	4
346.488	5
346.947	0
347.405	1
347.863	2
348.321	5
348.779	4
349.238	2
349.696	4
350.154	1
350.613	0
351.071	6
351.53	5
351.988	5
352.447	2
352.905	4
353.364	0
353.823	9
354.282	7
354.74	-1
355.199	6
355.658	5
356.117	-1
356.576	10
357.035	8
357.494	2
357.953	6
358.412	7
358.871	-1
359.33	6
359.789	10
360.249	3
360.708	12
361.167	7
361.626	9
362.086	6
362.545	10
363.005	14
363.464	5
363.924	8
364.383	11
364.843	5
365.303	9
365.762	6
366.222	6
366.682	10
367.142	12
367.601	13
368.061	11
368.521	14
368.981	10
369.441	14
369.901	15
370.361	8
370.821	12
371.282	14
371.742	14
372.202	16
372.662	18
373.123	13
373.583	14
374.043	10
374.504	10
374.964	11
375.425	17
375.885	19
376.346	14
376.806	15
377.267	20
377.728	19
378.188	16
378.649	18
379.11	21
379.571	20
380.032	23
380.493	15
380.954	24
381.414	22
381.876	21
382.337	27
382.798	30
383.259	30
383.72	25
384.181	29
384.642	25
385.104	36
385.565	41
386.026	30
386.488	30
386.949	33
387.411	33
387.872	29
388.334	34
388.795	39
389.257	40
389.719	40
390.181	34
390.642	39
391.104	41
391.566	36
392.028	44
392.49	40
392.952	41
393.414	46
393.876	44
394.338	45
394.8	42
395.262	47
395.724	49
396.186	53
396.648	49
397.111	53
397.573	51
398.035	55
398.498	53
398.96	52
399.423	58
399.885	63
400.348	57
400.81	61
401.273	57
401.736	64
402.198	59
402.661	64
403.124	65
403.587	68
404.049	70
404.512	72
404.975	72
405.438	71
405.901	73
406.364	76
406.827	75
407.29	74
407.754	80
408.217	80
408.68	73
409.143	80
409.607	83
410.07	82
410.533	79
410.997	86
411.46	80
411.924	84
412.387	86
412.851	87
413.314	91
413.778	92
414.242	91
414.705	96
415.169	94
415.633	97
416.097	96
416.561	98
417.024	101
417.488	103
417.952	102
418.416	105
418.88	101
419.344	100
419.809	100
420.273	102
420.737	103
421.201	99
421.665	113
422.13	107
422.594	112
423.059	118
423.523	115
423.987	118
424.452	117
424.916	126
425.381	127
425.846	126
426.31	128
426.775	129
427.24	134
427.704	131
428.169	137
428.634	131
429.099	131
429.564	135
430.029	139
430.494	138
430.959	141
431.424	136
431.889	141
432.354	142
432.819	142
433.284	148
433.75	147
434.215	151
434.68	158
435.146	154
435.611	169
436.077	169
436.542	177
437.008	177
437.473	178
437.939	187
438.404	189
438.87	192
439.336	185
439.801	182
440.267	191
440.733	200
441.199	200
441.665	195
442.131	207
442.596	197
443.062	201
443.529	214
443.995	213
444.461	216
444.927	232
445.393	230
445.859	239
446.325	246
446.792	265
447.258	261
447.724	264
448.191	273
448.657	274
449.124	286
449.59	283
450.057	300
450.523	299
450.99	303
451.457	309
451.923	315
452.39	309
452.857	319
453.324	317
453.791	328
454.257	322
454.724	322
455.191	330
455.658	326
456.125	344
456.592	338
457.059	341
457.527	347
457.994	354
458.461	355
458.928	363
459.396	365
459.863	380
460.33	375
460.798	381
461.265	389
461.732	380
462.2	389
462.668	391
463.135	400
463.603	382
464.07	390
464.538	385
465.006	401
465.474	387
465.941	393
466.409	396
466.877	385
467.345	400
467.813	402
468.281	401
468.749	398
469.217	406
469.685	411
470.153	416
470.621	412
471.09	419
471.558	433
472.026	442
472.494	451
472.963	453
473.431	471
473.9	478
474.368	489
474.837	500
475.305	502
475.774	513
476.242	535
476.711	535
477.18	547
477.648	545
478.117	551
478.586	547
479.055	541
479.524	549
479.993	553
480.462	548
480.93	556
481.399	550
481.869	561
482.338	556
482.807	569
483.276	563
483.745	562
484.214	583
484.684	598
485.153	597
485.622	592
486.092	616
486.561	606
487.031	623
487.5	637
487.97	639
488.439	655
488.909	679
489.378	697
489.848	700
490.318	712
490.787	738
491.257	754
491.727	758
492.197	774
492.667	763
493.137	770
493.607	780
494.077	790
494.547	780
495.017	788
495.487	804
495.957	821
496.427	800
496.897	804
497.368	817
497.838	819
498.308	832
498.779	839
499.249	842
499.719	853
500.19	865
500.66	870
501.131	866
501.602	893
502.072	889
502.543	912
503.014	943
503.484	942
503.955	972
504.426	996
504.897	1007
505.368	1034
505.838	1045
506.309	1077
506.78	1108
507.251	1138
507.722	1148
508.194	1178
508.665	1202
509.136	1190
509.607	1230
510.078	1238
510.549	1234
511.021	1276
511.492	1289
511.964	1310
512.435	1337
512.906	1327
513.378	1344
513.849	1368
514.321	1374
514.793	1378
515.264	1391
515.736	1405
516.208	1429
516.679	1455
517.151	1467
517.623	1476
518.095	1505
518.567	1523
519.038	1551
519.51	1558
519.982	1585
520.454	1594
520.927	1617
521.399	1627
521.871	1653
522.343	1677
522.815	1684
523.287	1677
523.76	1691
524.232	1732
524.704	1732
525.177	1700
525.649	1709
526.122	1750
526.594	1724
527.067	1766
527.539	1778
528.012	1761
528.484	1760
528.957	1772
529.43	1768
529.903	1767
530.375	1832
530.848	1793
531.321	1821
531.794	1817
532.267	1859
532.74	1840
533.213	1833
533.686	1870
534.159	1868
534.632	1917
535.105	1926
535.578	1946
536.051	1942
536.525	1957
536.998	1980
537.471	2022
537.945	1964
538.418	1993
538.891	2018
539.365	2052
539.838	2070
540.312	2062
540.786	2088
541.259	2066
541.733	2098
542.206	2111
542.68	2090
543.154	2090
543.628	2093
544.101	2155
544.575	2140
545.049	2087
545.523	2134
545.997	2125
546.471	2138
546.945	2114
547.419	2169
547.893	2088
548.367	2122
548.842	2105
549.316	2124
549.79	2156
550.264	2127
550.739	2180
551.213	2162
551.687	2154
552.162	2181
552.636	2164
553.111	2163
553.585	2241
554.06	2209
554.534	2263
555.009	2253
555.484	2287
555.958	2324
556.433	2322
556.908	2328
557.383	2293
557.858	2340
558.333	2363
558.807	2366
559.282	2373
559.757	2428
560.232	2431
560.708	2403
561.183	2403
561.658	2448
562.133	2436
562.608	2435
563.083	2481
563.559	2415
564.034	2438
564.509	2470
564.985	2494
565.46	2452
565.936	2497
566.411	2500
566.887	2478
567.362	2484
567.838	2460
568.313	2497
568.789	2455
569.265	2483
569.74	2501
570.216	2472
570.692	2505
571.168	2518
571.644	2543
572.12	2533
572.596	2572
573.071	2578
573.547	2668
574.024	2670
574.5	2679
574.976	2703
575.452	2775
575.928	2782
576.404	2775
576.881	2855
577.357	2825
577.833	2865
578.31	2935
578.786	2947
579.262	2993
579.739	2954
580.215	3034
580.692	3050
581.169	3030
581.645	3037
582.122	3132
582.598	3088
583.075	3074
583.552	3094
584.029	3127
584.506	3137
584.982	3100
585.459	3172
585.936	3154
586.413	3202
586.89	3246
587.367	3214
587.844	3252
588.321	3240
588.799	3236
589.276	3193
589.753	3218
590.23	3249
590.707	3257
591.185	3266
591.662	3252
592.139	3284
592.617	3368
593.094	3353
593.572	3385
594.049	3405
594.527	3405
595.004	3447
595.482	3562
595.96	3513
596.437	3508
596.915	3611
597.393	3581
597.871	3668
598.349	3622
598.826	3673
599.304	3690
599.782	3778
600.26	3759
600.738	3818
601.216	3784
601.694	3783
602.173	3814
602.651	3833
603.129	3782
603.607	3816
604.085	3819
604.564	3798
605.042	3836
605.52	3794
605.999	3904
606.477	3846
606.956	3902
607.434	3911
607.913	3920
608.391	3892
608.87	3887
609.348	3860
609.827	3879
610.306	3908
610.785	3880
611.263	3904
611.742	3891
612.221	3857
612.7	3912
613.179	3926
613.658	3868
614.137	3971
614.616	4014
615.095	3932
615.574	3959
616.053	3986
616.532	3946
617.011	3963
617.491	3986
617.97	3978
618.449	4057
618.928	4114
619.408	4110
619.887	4129
620.367	4121
620.846	4193
621.326	4179
621.805	4276
622.285	4246
622.764	4247
623.244	4247
623.724	4256
624.203	4263
624.683	4195
625.163	4291
625.643	4293
626.123	4263
626.602	4369
627.082	4264
627.562	4238
628.042	4336
628.522	4333
629.002	4297
629.482	4281
629.963	4235
630.443	4189
630.923	4214
631.403	4244
631.883	4250
632.364	4283
632.844	4244
633.324	4273
633.805	4275
634.285	4235
634.766	4228
635.246	4230
635.727	4219
636.207	4214
636.688	4216
637.168	4176
637.649	4133
638.13	4083
638.611	4122
639.091	4135
639.572	4142
640.053	4121
640.534	4145
641.015	4150
641.496	4154
641.977	4262
642.458	4197
642.939	4177
643.42	4155
643.901	4173
644.382	4251
644.863	4258
645.345	4241
645.826	4239
646.307	4216
646.788	4234
647.27	4143
647.751	4148
648.233	4178
648.714	4119
649.196	4246
649.677	4219
650.159	4230
650.64	4178
651.122	4233
651.603	4164
652.085	4188
652.567	4204
653.049	4170
653.53	4169
654.012	4239
654.494	4125
654.976	4136
655.458	4114
655.94	4092
656.422	4127
656.904	4064
657.386	4009
657.868	4025
658.35	4014
658.833	4081
659.315	4106
659.797	4048
660.279	4035
660.762	4070
661.244	4039
661.726	3989
662.209	3966
662.691	3915
663.174	3839
663.656	3859
664.139	3867
664.621	3853
665.104	3825
665.587	3870
666.069	3902
666.552	3885
667.035	3848
667.517	3866
668	3881
668.483	3843
668.966	3809
669.449	3831
669.932	3859
670.415	3911
670.898	3859
671.381	3855
671.864	3882
672.347	3866
672.83	3846
673.313	3830
673.797	3790
674.28	3831
674.763	3804
675.247	3806
675.73	3759
676.213	3813
676.697	3836
677.18	3810
677.664	3795
678.147	3803
678.631	3856
679.114	3862
679.598	3867
680.082	3872
680.565	3832
681.049	3814
681.533	3819
682.017	3845
682.5	3844
682.984	3864
683.468	3847
683.952	3745
684.436	3801
684.92	3751
685.404	3775
685.888	3780
686.372	3731
686.856	3755
687.341	3798
687.825	3764
688.309	3790
688.793	3772
689.278	3701
689.762	3687
690.246	3655
690.731	3668
691.215	3696
691.7	3572
692.184	3604
692.669	3573
693.153	3590
693.638	3549
694.122	3534
694.607	3562
695.092	3521
695.577	3573
696.061	3507
696.546	3515
697.031	3504
697.516	3508
698.001	3503
698.486	3473
698.971	3522
699.456	3482
699.941	3471
700.426	3460
700.911	3462
701.396	3392
701.881	3412
702.366	3393
702.852	3408
703.337	3418
703.822	3370
704.308	3345
704.793	3357
705.278	3366
705.764	3395
706.249	3389
706.735	3389
707.22	3423
707.706	3367
708.191	3421
708.677	3417
709.163	3373
709.648	3375
710.134	3396
710.62	3320
711.106	3307
711.592	3347
712.077	3321
712.563	3237
713.049	3211
713.535	3248
714.021	3204
714.507	3165
714.993	3145
715.479	3208
715.966	3192
716.452	3218
716.938	3223
717.424	3129
717.91	3170
718.397	3134
718.883	3099
719.369	3087
719.856	3024
720.342	3040
720.829	2970
721.315	2980
721.802	2959
722.288	2987
722.775	2872
723.262	2809
723.748	2897
724.235	2869
724.722	2880
725.208	2846
725.695	2858
726.182	2839
726.669	2803
727.156	2820
727.643	2790
728.13	2785
728.617	2763
729.104	2789
729.591	2749
730.078	2755
730.565	2737
731.052	2689
731.539	2697
732.027	2701
732.514	2676
733.001	2710
733.488	2662
733.976	2625
734.463	2597
734.951	2588
735.438	2604
735.926	2570
736.413	2588
736.901	2583
737.388	2606
737.876	2593
738.364	2577
738.851	2579
739.339	2573
739.827	2608
740.314	2513
740.802	2512
741.29	2517
741.778	2457
742.266	2455
742.754	2450
743.242	2465
743.73	2415
744.218	2421
744.706	2384
745.194	2393
745.682	2382
746.17	2383
746.659	2387
747.147	2313
747.635	2321
748.123	2306
748.612	2265
749.1	2254
749.589	2305
750.077	2282
750.566	2263
751.054	2269
751.543	2271
752.031	2211
752.52	2198
753.008	2160
753.497	2162
753.986	2140
754.474	2119
754.963	2150
755.452	2106
755.941	2107
756.43	2090
756.919	2093
757.408	2089
757.896	2085
758.385	2065
758.875	2046
759.364	2038
759.853	2014
760.342	1976
760.831	2009
761.32	1975
761.809	1924
762.299	1938
762.788	1945
763.277	1921
763.767	1893
764.256	1896
764.745	1864
765.235	1893
765.724	1818
766.214	1848
766.703	1834
767.193	1801
767.683	1787
768.172	1736
768.662	1757
769.152	1759
769.641	1775
770.131	1734
770.621	1757
771.111	1731
771.601	1722
772.09	1709
772.58	1681
773.07	1680
773.56	1682
774.05	1655
774.54	1663
775.031	1656
775.521	1648
776.011	1643
776.501	1649
776.991	1598
777.482	1604
777.972	1575
778.462	1571
778.953	1577
779.443	1560
779.933	1537
780.424	1517
780.914	1528
781.405	1535
781.895	1528
782.386	1524
782.877	1511
783.367	1468
783.858	1437
784.349	1432
784.839	1426
785.33	1433
785.821	1422
786.312	1399
786.803	1390
787.293	1380
787.784	1357
788.275	1340
788.766	1322
789.257	1336
789.748	1302
790.24	1291
790.731	1314
791.222	1301
791.713	1292
792.204	1292
792.696	1258
793.187	1274
793.678	1264
794.169	1241
794.661	1255
795.152	1242
795.644	1221
796.135	1211
796.627	1222
797.118	1201
797.61	1194
798.101	1183
798.593	1205
799.085	1196
799.576	1197
800.068	1170
800.56	1173
801.052	1138
801.544	1131
802.035	1128
802.527	1107
803.019	1093
803.511	1076
804.003	1069
804.495	1077
804.987	1057
805.479	1033
805.971	1049
806.464	1044
806.956	1026
807.448	1017
807.94	1020
808.433	1014
808.925	1015
809.417	998
809.91	996
810.402	968
810.894	981
811.387	984
811.879	959
812.372	960
812.865	938
813.357	930
813.85	926
814.342	932
814.835	929
815.328	932
815.821	915
816.313	913
816.806	913
817.299	901
817.792	913
818.285	906
818.778	911
819.271	915
819.764	900
820.257	899
820.75	897
821.243	883
821.736	876
822.229	889
822.722	882
823.216	897
