Data from lamp4helium_zwak_Subt2__50__450.txt Node

Date: Wed Apr 09 11:14:37 CEST 2025
User: fys-lab-0081
Spectrometer: S04999
Trigger mode: 0
Resolution mode: 1024 pixels
Integration Time (sec): 1.000000E-1
Scans to average: 1
Nonlinearity correction enabled: false
Boxcar width: 0
Baseline correction enabled: true
XAxis mode: Wavelengths
Number of Pixels in Spectrum: 1024
>>>>>Begin Spectral Data<<<<<
336.42	2
336.877	6
337.334	2
337.792	5
338.249	0
338.706	3
339.164	5
339.621	4
340.079	5
340.536	8
340.994	3
341.452	2
341.909	7
342.367	-2
342.825	-3
343.283	9
343.741	4
344.198	3
344.656	-1
345.114	3
345.572	4
346.03	0
346.488	3
346.947	0
347.405	4
347.863	0
348.321	3
348.779	6
349.238	0
349.696	4
350.154	-1
350.613	4
351.071	3
351.53	9
351.988	8
352.447	4
352.905	1
353.364	1
353.823	4
354.282	3
354.74	2
355.199	4
355.658	5
356.117	4
356.576	5
357.035	0
357.494	8
357.953	3
358.412	10
358.871	10
359.33	6
359.789	2
360.249	7
360.708	3
361.167	4
361.626	8
362.086	8
362.545	6
363.005	8
363.464	5
363.924	9
364.383	6
364.843	8
365.303	11
365.762	12
366.222	9
366.682	6
367.142	15
367.601	12
368.061	11
368.521	10
368.981	12
369.441	15
369.901	16
370.361	15
370.821	10
371.282	11
371.742	13
372.202	12
372.662	16
373.123	14
373.583	14
374.043	15
374.504	13
374.964	13
375.425	14
375.885	15
376.346	21
376.806	21
377.267	17
377.728	22
378.188	21
378.649	17
379.11	21
379.571	15
380.032	19
380.493	19
380.954	27
381.414	20
381.876	22
382.337	24
382.798	30
383.259	27
383.72	30
384.181	27
384.642	25
385.104	33
385.565	33
386.026	34
386.488	33
386.949	34
387.411	32
387.872	39
388.334	44
388.795	40
389.257	43
389.719	42
390.181	41
390.642	39
391.104	40
391.566	46
392.028	51
392.49	52
392.952	50
393.414	50
393.876	56
394.338	49
394.8	46
395.262	47
395.724	58
396.186	57
396.648	54
397.111	60
397.573	59
398.035	60
398.498	59
398.96	62
399.423	61
399.885	58
400.348	62
400.81	67
401.273	63
401.736	63
402.198	74
402.661	75
403.124	72
403.587	79
404.049	79
404.512	79
404.975	82
405.438	81
405.901	80
406.364	82
406.827	83
407.29	83
407.754	83
408.217	83
408.68	86
409.143	90
409.607	94
410.07	90
410.533	89
410.997	95
411.46	96
411.924	101
412.387	100
412.851	97
413.314	101
413.778	103
414.242	103
414.705	109
415.169	106
415.633	111
416.097	104
416.561	110
417.024	115
417.488	110
417.952	112
418.416	108
418.88	107
419.344	110
419.809	113
420.273	115
420.737	113
421.201	118
421.665	129
422.13	125
422.594	125
423.059	130
423.523	133
423.987	132
424.452	141
424.916	139
425.381	143
425.846	145
426.31	152
426.775	151
427.24	151
427.704	149
428.169	156
428.634	159
429.099	153
429.564	155
430.029	156
430.494	157
430.959	156
431.424	154
431.889	164
432.354	164
432.819	159
433.284	175
433.75	168
434.215	182
434.68	174
435.146	180
435.611	186
436.077	193
436.542	194
437.008	204
437.473	205
437.939	207
438.404	212
438.87	217
439.336	215
439.801	216
440.267	219
440.733	224
441.199	223
441.665	224
442.131	232
442.596	221
443.062	235
443.529	243
443.995	247
444.461	245
444.927	261
445.393	265
445.859	270
446.325	279
446.792	298
447.258	293
447.724	302
448.191	316
448.657	312
449.124	322
449.59	318
450.057	339
450.523	346
450.99	351
451.457	341
451.923	358
452.39	352
452.857	365
453.324	363
453.791	369
454.257	370
454.724	375
455.191	369
455.658	372
456.125	384
456.592	379
457.059	385
457.527	391
457.994	401
458.461	407
458.928	418
459.396	410
459.863	427
460.33	424
460.798	429
461.265	436
461.732	432
462.2	440
462.668	441
463.135	449
463.603	433
464.07	453
464.538	435
465.006	448
465.474	445
465.941	447
466.409	445
466.877	442
467.345	452
467.813	450
468.281	454
468.749	461
469.217	455
469.685	469
470.153	472
470.621	474
471.09	473
471.558	500
472.026	506
472.494	515
472.963	514
473.431	534
473.9	543
474.368	561
474.837	563
475.305	576
475.774	586
476.242	601
476.711	606
477.18	618
477.648	617
478.117	621
478.586	627
479.055	625
479.524	624
479.993	629
480.462	632
480.93	633
481.399	633
481.869	641
482.338	631
482.807	643
483.276	637
483.745	636
484.214	655
484.684	669
485.153	676
485.622	677
486.092	695
486.561	683
487.031	713
487.5	717
487.97	727
488.439	747
488.909	765
489.378	793
489.848	796
490.318	810
490.787	846
491.257	853
491.727	859
492.197	870
492.667	876
493.137	885
493.607	895
494.077	905
494.547	888
495.017	888
495.487	900
495.957	926
496.427	908
496.897	904
497.368	923
497.838	916
498.308	924
498.779	939
499.249	944
499.719	950
500.19	966
500.66	973
501.131	977
501.602	1000
502.072	992
502.543	1016
503.014	1056
503.484	1054
503.955	1080
504.426	1118
504.897	1126
505.368	1153
505.838	1174
506.309	1190
506.78	1231
507.251	1254
507.722	1274
508.194	1312
508.665	1335
509.136	1325
509.607	1365
510.078	1374
510.549	1379
511.021	1421
511.492	1420
511.964	1444
512.435	1463
512.906	1460
513.378	1476
513.849	1496
514.321	1494
514.793	1508
515.264	1529
515.736	1551
516.208	1582
516.679	1592
517.151	1616
517.623	1621
518.095	1652
518.567	1659
519.038	1698
519.51	1703
519.982	1711
520.454	1718
520.927	1744
521.399	1770
521.871	1791
522.343	1797
522.815	1820
523.287	1821
523.76	1841
524.232	1869
524.704	1876
525.177	1848
525.649	1848
526.122	1879
526.594	1840
527.067	1886
527.539	1915
528.012	1896
528.484	1893
528.957	1903
529.43	1903
529.903	1883
530.375	1953
530.848	1914
531.321	1945
531.794	1946
532.267	1988
532.74	1961
533.213	1950
533.686	1983
534.159	1983
534.632	2024
535.105	2034
535.578	2095
536.051	2102
536.525	2104
536.998	2089
537.471	2138
537.945	2115
538.418	2154
538.891	2146
539.365	2181
539.838	2197
540.312	2182
540.786	2196
541.259	2197
541.733	2234
542.206	2246
542.68	2209
543.154	2204
543.628	2213
544.101	2268
544.575	2228
545.049	2166
545.523	2216
545.997	2223
546.471	2240
546.945	2219
547.419	2253
547.893	2181
548.367	2230
548.842	2202
549.316	2225
549.79	2242
550.264	2223
550.739	2244
551.213	2241
551.687	2235
552.162	2262
552.636	2240
553.111	2244
553.585	2314
554.06	2294
554.534	2326
555.009	2310
555.484	2354
555.958	2391
556.433	2393
556.908	2431
557.383	2402
557.858	2469
558.333	2473
558.807	2460
559.282	2481
559.757	2555
560.232	2537
560.708	2498
561.183	2490
561.658	2529
562.133	2527
562.608	2501
563.083	2561
563.559	2507
564.034	2517
564.509	2512
564.985	2517
565.46	2506
565.936	2558
566.411	2551
566.887	2522
567.362	2550
567.838	2555
568.313	2579
568.789	2540
569.265	2532
569.74	2550
570.216	2543
570.692	2575
571.168	2569
571.644	2584
572.12	2587
572.596	2607
573.071	2631
573.547	2711
574.024	2734
574.5	2743
574.976	2734
575.452	2777
575.928	2808
576.404	2840
576.881	2948
577.357	2885
577.833	2896
578.31	2989
578.786	3014
579.262	3048
579.739	3003
580.215	3081
580.692	3090
581.169	3070
581.645	3064
582.122	3164
582.598	3170
583.075	3187
583.552	3200
584.029	3177
584.506	3141
584.982	3120
585.459	3198
585.936	3151
586.413	3193
586.89	3246
587.367	3214
587.844	3265
588.321	3237
588.799	3252
589.276	3241
589.753	3295
590.23	3314
590.707	3304
591.185	3292
591.662	3302
592.139	3339
592.617	3384
593.094	3347
593.572	3385
594.049	3434
594.527	3482
595.004	3480
595.482	3573
595.96	3560
596.437	3572
596.915	3664
597.393	3584
597.871	3658
598.349	3647
598.826	3717
599.304	3703
599.782	3770
600.26	3735
600.738	3818
601.216	3800
601.694	3819
602.173	3835
602.651	3852
603.129	3805
603.607	3846
604.085	3871
604.564	3865
605.042	3889
605.52	3860
605.999	3969
606.477	3862
606.956	3850
607.434	3895
607.913	3940
608.391	3941
608.87	3911
609.348	3843
609.827	3843
610.306	3875
610.785	3870
611.263	3881
611.742	3862
612.221	3813
612.7	3867
613.179	3906
613.658	3871
614.137	3924
614.616	3947
615.095	3880
615.574	3943
616.053	3976
616.532	3925
617.011	3929
617.491	3974
617.97	3968
618.449	4022
618.928	4043
619.408	4002
619.887	4042
620.367	4074
620.846	4118
621.326	4070
621.805	4154
622.285	4148
622.764	4187
623.244	4180
623.724	4198
624.203	4214
624.683	4157
625.163	4267
625.643	4247
626.123	4220
626.602	4311
627.082	4223
627.562	4215
628.042	4285
628.522	4229
629.002	4194
629.482	4230
629.963	4243
630.443	4232
630.923	4241
631.403	4263
631.883	4243
632.364	4247
632.844	4220
633.324	4251
633.805	4263
634.285	4208
634.766	4170
635.246	4173
635.727	4155
636.207	4159
636.688	4167
637.168	4166
637.649	4148
638.13	4118
638.611	4145
639.091	4147
639.572	4126
640.053	4116
640.534	4149
641.015	4131
641.496	4064
641.977	4139
642.458	4109
642.939	4117
643.42	4120
643.901	4125
644.382	4161
644.863	4136
645.345	4122
645.826	4123
646.307	4128
646.788	4191
647.27	4113
647.751	4130
648.233	4166
648.714	4071
649.196	4199
649.677	4191
650.159	4181
650.64	4139
651.122	4202
651.603	4125
652.085	4150
652.567	4163
653.049	4138
653.53	4143
654.012	4189
654.494	4102
654.976	4169
655.458	4163
655.94	4140
656.422	4198
656.904	4118
657.386	4063
657.868	4065
658.35	4055
658.833	4098
659.315	4121
659.797	4064
660.279	4053
660.762	4079
661.244	4045
661.726	3983
662.209	4000
662.691	4015
663.174	3935
663.656	3952
664.139	3939
664.621	3893
665.104	3881
665.587	3923
666.069	3945
666.552	3941
667.035	3877
667.517	3881
668	3918
668.483	3917
668.966	3873
669.449	3856
669.932	3866
670.415	3908
670.898	3880
671.381	3877
671.864	3885
672.347	3839
672.83	3855
673.313	3880
673.797	3875
674.28	3946
674.763	3942
675.247	3950
675.73	3920
676.213	3963
676.697	3983
677.18	3980
677.664	3984
678.147	3983
678.631	4022
679.114	4031
679.598	4007
680.082	4016
680.565	3997
681.049	3980
681.533	3989
682.017	4032
682.5	4004
682.984	4001
683.468	4006
683.952	3951
684.436	4018
684.92	3985
685.404	4003
685.888	4039
686.372	4015
686.856	4008
687.341	4054
687.825	4013
688.309	4032
688.793	4039
689.278	3994
689.762	4032
690.246	4012
690.731	4012
691.215	4034
691.7	3932
692.184	3960
692.669	3943
693.153	3952
693.638	3857
694.122	3855
694.607	3898
695.092	3826
695.577	3862
696.061	3797
696.546	3796
697.031	3751
697.516	3791
698.001	3785
698.486	3749
698.971	3807
699.456	3727
699.941	3713
700.426	3724
700.911	3783
701.396	3770
701.881	3791
702.366	3754
702.852	3736
703.337	3738
703.822	3743
704.308	3776
704.793	3813
705.278	3807
705.764	3810
706.249	3786
706.735	3781
707.22	3820
707.706	3767
708.191	3811
708.677	3806
709.163	3751
709.648	3748
710.134	3788
710.62	3743
711.106	3738
711.592	3795
712.077	3781
712.563	3702
713.049	3704
713.535	3766
714.021	3747
714.507	3722
714.993	3684
715.479	3726
715.966	3687
716.452	3686
716.938	3688
717.424	3571
717.91	3653
718.397	3623
718.883	3614
719.369	3627
719.856	3591
720.342	3661
720.829	3610
721.315	3632
721.802	3616
722.288	3640
722.775	3502
723.262	3393
723.748	3527
724.235	3490
724.722	3528
725.208	3436
725.695	3415
726.182	3400
726.669	3361
727.156	3381
727.643	3345
728.13	3341
728.617	3308
729.104	3325
729.591	3300
730.078	3352
730.565	3359
731.052	3324
731.539	3329
732.027	3293
732.514	3246
733.001	3268
733.488	3252
733.976	3248
734.463	3230
734.951	3242
735.438	3279
735.926	3240
736.413	3262
736.901	3219
737.388	3239
737.876	3235
738.364	3207
738.851	3226
739.339	3222
739.827	3264
740.314	3154
740.802	3182
741.29	3184
741.778	3144
742.266	3144
742.754	3169
743.242	3171
743.73	3089
744.218	3091
744.706	3052
745.194	3062
745.682	3041
746.17	3051
746.659	3057
747.147	2999
747.635	3008
748.123	3001
748.612	2954
749.1	2934
749.589	2970
750.077	2972
750.566	2971
751.054	2986
751.543	2990
752.031	2911
752.52	2892
753.008	2841
753.497	2851
753.986	2841
754.474	2827
754.963	2841
755.452	2790
755.941	2771
756.43	2777
756.919	2762
757.408	2738
757.896	2752
758.385	2740
758.875	2709
759.364	2713
759.853	2693
760.342	2635
760.831	2693
761.32	2659
761.809	2626
762.299	2637
762.788	2646
763.277	2626
763.767	2576
764.256	2571
764.745	2542
765.235	2591
765.724	2534
766.214	2558
766.703	2514
767.193	2462
767.683	2470
768.172	2414
768.662	2420
769.152	2408
769.641	2408
770.131	2361
770.621	2410
771.111	2373
771.601	2373
772.09	2372
772.58	2349
773.07	2355
773.56	2352
774.05	2291
774.54	2269
775.031	2259
775.521	2254
776.011	2254
776.501	2269
776.991	2219
777.482	2238
777.972	2177
778.462	2172
778.953	2182
779.443	2166
779.933	2165
780.424	2156
780.914	2175
781.405	2174
781.895	2166
782.386	2166
782.877	2143
783.367	2094
783.858	2076
784.349	2086
784.839	2080
785.33	2073
785.821	2059
786.312	2056
786.803	2064
787.293	2057
787.784	2013
788.275	1987
788.766	1958
789.257	1994
789.748	1949
790.24	1928
790.731	1912
791.222	1879
791.713	1869
792.204	1873
792.696	1823
793.187	1846
793.678	1825
794.169	1773
794.661	1810
795.152	1787
795.644	1773
796.135	1776
796.627	1784
797.118	1753
797.61	1737
798.101	1713
798.593	1729
799.085	1701
799.576	1718
800.068	1697
800.56	1694
801.052	1655
801.544	1652
802.035	1643
802.527	1620
803.019	1593
803.511	1587
804.003	1567
804.495	1572
804.987	1548
805.479	1520
805.971	1529
806.464	1535
806.956	1495
807.448	1488
807.94	1485
808.433	1476
808.925	1464
809.417	1452
809.91	1441
810.402	1399
810.894	1412
811.387	1419
811.879	1394
812.372	1403
812.865	1388
813.357	1383
813.85	1381
814.342	1373
814.835	1373
815.328	1362
815.821	1350
816.313	1347
816.806	1354
817.299	1345
817.792	1359
818.285	1337
818.778	1349
819.271	1347
819.764	1329
820.257	1333
820.75	1339
821.243	1337
821.736	1328
822.229	1335
822.722	1326
823.216	1358
