Data from lamp4helium_zwak_Subt2__25__425.txt Node

Date: Wed Apr 09 11:14:34 CEST 2025
User: fys-lab-0081
Spectrometer: S04999
Trigger mode: 0
Resolution mode: 1024 pixels
Integration Time (sec): 1.000000E-1
Scans to average: 1
Nonlinearity correction enabled: false
Boxcar width: 0
Baseline correction enabled: true
XAxis mode: Wavelengths
Number of Pixels in Spectrum: 1024
>>>>>Begin Spectral Data<<<<<
336.42	2
336.877	1
337.334	3
337.792	1
338.249	4
338.706	2
339.164	3
339.621	3
340.079	8
340.536	4
340.994	1
341.452	0
341.909	9
342.367	3
342.825	2
343.283	5
343.741	0
344.198	4
344.656	4
345.114	-1
345.572	6
346.03	3
346.488	4
346.947	2
347.405	9
347.863	2
348.321	2
348.779	4
349.238	2
349.696	4
350.154	0
350.613	1
351.071	6
351.53	9
351.988	10
352.447	3
352.905	2
353.364	2
353.823	8
354.282	3
354.74	-1
355.199	6
355.658	6
356.117	7
356.576	7
357.035	3
357.494	6
357.953	7
358.412	9
358.871	6
359.33	6
359.789	5
360.249	5
360.708	8
361.167	9
361.626	8
362.086	3
362.545	8
363.005	10
363.464	8
363.924	10
364.383	6
364.843	9
365.303	9
365.762	15
366.222	14
366.682	6
367.142	10
367.601	11
368.061	8
368.521	10
368.981	8
369.441	16
369.901	14
370.361	14
370.821	10
371.282	8
371.742	15
372.202	14
372.662	16
373.123	11
373.583	14
374.043	18
374.504	15
374.964	11
375.425	15
375.885	19
376.346	22
376.806	21
377.267	15
377.728	22
378.188	23
378.649	18
379.11	22
379.571	15
380.032	27
380.493	19
380.954	25
381.414	23
381.876	24
382.337	23
382.798	28
383.259	25
383.72	26
384.181	31
384.642	29
385.104	27
385.565	33
386.026	34
386.488	35
386.949	35
387.411	31
387.872	42
388.334	42
388.795	38
389.257	37
389.719	37
390.181	41
390.642	41
391.104	43
391.566	47
392.028	43
392.49	51
392.952	51
393.414	49
393.876	54
394.338	45
394.8	51
395.262	50
395.724	60
396.186	56
396.648	58
397.111	58
397.573	62
398.035	60
398.498	57
398.96	62
399.423	62
399.885	62
400.348	65
400.81	61
401.273	68
401.736	65
402.198	75
402.661	77
403.124	67
403.587	79
404.049	80
404.512	81
404.975	76
405.438	81
405.901	86
406.364	83
406.827	82
407.29	82
407.754	84
408.217	85
408.68	86
409.143	91
409.607	93
410.07	92
410.533	89
410.997	91
411.46	96
411.924	97
412.387	102
412.851	96
413.314	103
413.778	102
414.242	106
414.705	109
415.169	109
415.633	108
416.097	104
416.561	112
417.024	114
417.488	108
417.952	116
418.416	111
418.88	108
419.344	103
419.809	117
420.273	116
420.737	116
421.201	121
421.665	122
422.13	126
422.594	131
423.059	126
423.523	132
423.987	133
424.452	140
424.916	138
425.381	146
425.846	140
426.31	150
426.775	155
427.24	153
427.704	148
428.169	154
428.634	156
429.099	159
429.564	154
430.029	155
430.494	158
430.959	154
431.424	158
431.889	168
432.354	166
432.819	160
433.284	173
433.75	171
434.215	182
434.68	183
435.146	180
435.611	186
436.077	193
436.542	193
437.008	204
437.473	203
437.939	204
438.404	212
438.87	215
439.336	211
439.801	210
440.267	214
440.733	220
441.199	224
441.665	226
442.131	234
442.596	228
443.062	232
443.529	247
443.995	247
444.461	249
444.927	261
445.393	256
445.859	273
446.325	277
446.792	299
447.258	296
447.724	299
448.191	317
448.657	320
449.124	326
449.59	316
450.057	341
450.523	345
450.99	350
451.457	351
451.923	358
452.39	355
452.857	368
453.324	359
453.791	370
454.257	369
454.724	377
455.191	369
455.658	375
456.125	385
456.592	377
457.059	388
457.527	393
457.994	403
458.461	410
458.928	416
459.396	412
459.863	427
460.33	423
460.798	427
461.265	434
461.732	435
462.2	444
462.668	441
463.135	445
463.603	432
464.07	449
464.538	435
465.006	449
465.474	443
465.941	444
466.409	448
466.877	438
467.345	451
467.813	444
468.281	454
468.749	458
469.217	458
469.685	467
470.153	475
470.621	477
471.09	481
471.558	502
472.026	505
472.494	519
472.963	521
473.431	538
473.9	544
474.368	559
474.837	565
475.305	573
475.774	586
476.242	602
476.711	603
477.18	620
477.648	615
478.117	624
478.586	618
479.055	626
479.524	633
479.993	627
480.462	629
480.93	628
481.399	629
481.869	632
482.338	625
482.807	648
483.276	637
483.745	641
484.214	658
484.684	672
485.153	670
485.622	682
486.092	696
486.561	683
487.031	712
487.5	716
487.97	725
488.439	749
488.909	771
489.378	798
489.848	798
490.318	809
490.787	848
491.257	858
491.727	855
492.197	872
492.667	878
493.137	886
493.607	890
494.077	901
494.547	894
495.017	890
495.487	908
495.957	931
496.427	909
496.897	904
497.368	930
497.838	916
498.308	922
498.779	940
499.249	938
499.719	952
500.19	965
500.66	964
501.131	983
501.602	995
502.072	997
502.543	1015
503.014	1058
503.484	1053
503.955	1074
504.426	1124
504.897	1124
505.368	1143
505.838	1181
506.309	1192
506.78	1237
507.251	1258
507.722	1280
508.194	1315
508.665	1337
509.136	1329
509.607	1371
510.078	1373
510.549	1378
511.021	1422
511.492	1427
511.964	1444
512.435	1467
512.906	1464
513.378	1472
513.849	1500
514.321	1501
514.793	1510
515.264	1534
515.736	1551
516.208	1588
516.679	1596
517.151	1614
517.623	1626
518.095	1651
518.567	1661
519.038	1703
519.51	1698
519.982	1708
520.454	1724
520.927	1747
521.399	1781
521.871	1800
522.343	1798
522.815	1829
523.287	1819
523.76	1842
524.232	1872
524.704	1875
525.177	1845
525.649	1859
526.122	1876
526.594	1844
527.067	1900
527.539	1915
528.012	1905
528.484	1894
528.957	1912
529.43	1903
529.903	1889
530.375	1955
530.848	1917
531.321	1950
531.794	1950
532.267	1986
532.74	1965
533.213	1952
533.686	1984
534.159	1984
534.632	2031
535.105	2037
535.578	2094
536.051	2100
536.525	2100
536.998	2099
537.471	2144
537.945	2120
538.418	2143
538.891	2151
539.365	2188
539.838	2199
540.312	2189
540.786	2196
541.259	2201
541.733	2230
542.206	2239
542.68	2204
543.154	2211
543.628	2215
544.101	2262
544.575	2231
545.049	2170
545.523	2218
545.997	2222
546.471	2242
546.945	2225
547.419	2262
547.893	2192
548.367	2234
548.842	2197
549.316	2222
549.79	2248
550.264	2227
550.739	2245
551.213	2250
551.687	2240
552.162	2261
552.636	2244
553.111	2244
553.585	2315
554.06	2299
554.534	2332
555.009	2315
555.484	2357
555.958	2394
556.433	2400
556.908	2437
557.383	2414
557.858	2469
558.333	2471
558.807	2467
559.282	2482
559.757	2554
560.232	2543
560.708	2500
561.183	2486
561.658	2532
562.133	2533
562.608	2504
563.083	2561
563.559	2517
564.034	2516
564.509	2521
564.985	2531
565.46	2498
565.936	2553
566.411	2558
566.887	2527
567.362	2545
567.838	2565
568.313	2583
568.789	2539
569.265	2533
569.74	2558
570.216	2538
570.692	2579
571.168	2578
571.644	2586
572.12	2582
572.596	2611
573.071	2634
573.547	2711
574.024	2734
574.5	2739
574.976	2751
575.452	2781
575.928	2813
576.404	2841
576.881	2943
577.357	2888
577.833	2904
578.31	2987
578.786	3015
579.262	3047
579.739	3003
580.215	3087
580.692	3088
581.169	3065
581.645	3066
582.122	3171
582.598	3167
583.075	3190
583.552	3195
584.029	3183
584.506	3146
584.982	3122
585.459	3204
585.936	3156
586.413	3197
586.89	3253
587.367	3226
587.844	3261
588.321	3245
588.799	3263
589.276	3247
589.753	3302
590.23	3320
590.707	3304
591.185	3305
591.662	3308
592.139	3334
592.617	3384
593.094	3357
593.572	3388
594.049	3436
594.527	3475
595.004	3485
595.482	3579
595.96	3560
596.437	3578
596.915	3654
597.393	3580
597.871	3660
598.349	3637
598.826	3711
599.304	3707
599.782	3778
600.26	3733
600.738	3824
601.216	3815
601.694	3831
602.173	3835
602.651	3858
603.129	3816
603.607	3847
604.085	3881
604.564	3869
605.042	3888
605.52	3871
605.999	3964
606.477	3854
606.956	3853
607.434	3902
607.913	3951
608.391	3935
608.87	3916
609.348	3854
609.827	3850
610.306	3876
610.785	3879
611.263	3881
611.742	3867
612.221	3815
612.7	3873
613.179	3909
613.658	3865
614.137	3929
614.616	3954
615.095	3880
615.574	3936
616.053	3969
616.532	3929
617.011	3937
617.491	3975
617.97	3963
618.449	4032
618.928	4043
619.408	4007
619.887	4060
620.367	4072
620.846	4124
621.326	4076
621.805	4162
622.285	4153
622.764	4187
623.244	4183
623.724	4211
624.203	4219
624.683	4166
625.163	4265
625.643	4256
626.123	4225
626.602	4317
627.082	4215
627.562	4204
628.042	4291
628.522	4234
629.002	4186
629.482	4234
629.963	4246
630.443	4238
630.923	4248
631.403	4270
631.883	4254
632.364	4240
632.844	4229
633.324	4261
633.805	4263
634.285	4212
634.766	4185
635.246	4171
635.727	4158
636.207	4170
636.688	4175
637.168	4167
637.649	4160
638.13	4124
638.611	4147
639.091	4151
639.572	4136
640.053	4115
640.534	4150
641.015	4142
641.496	4064
641.977	4143
642.458	4106
642.939	4107
643.42	4124
643.901	4127
644.382	4159
644.863	4138
645.345	4117
645.826	4122
646.307	4125
646.788	4194
647.27	4119
647.751	4128
648.233	4168
648.714	4067
649.196	4206
649.677	4192
650.159	4181
650.64	4140
651.122	4212
651.603	4139
652.085	4154
652.567	4167
653.049	4134
653.53	4134
654.012	4195
654.494	4113
654.976	4171
655.458	4173
655.94	4143
656.422	4197
656.904	4110
657.386	4057
657.868	4073
658.35	4051
658.833	4104
659.315	4123
659.797	4065
660.279	4056
660.762	4081
661.244	4045
661.726	3989
662.209	4003
662.691	4009
663.174	3926
663.656	3955
664.139	3940
664.621	3904
665.104	3880
665.587	3932
666.069	3956
666.552	3944
667.035	3879
667.517	3882
668	3910
668.483	3918
668.966	3866
669.449	3861
669.932	3869
670.415	3909
670.898	3876
671.381	3891
671.864	3887
672.347	3848
672.83	3870
673.313	3893
673.797	3872
674.28	3944
674.763	3934
675.247	3947
675.73	3923
676.213	3961
676.697	3985
677.18	3982
677.664	3994
678.147	3985
678.631	4017
679.114	4029
679.598	4012
680.082	4027
680.565	4002
681.049	3982
681.533	3984
682.017	4039
682.5	4007
682.984	4003
683.468	4006
683.952	3947
684.436	4027
684.92	3978
685.404	4006
685.888	4038
686.372	4013
686.856	4017
687.341	4053
687.825	4009
688.309	4031
688.793	4052
689.278	3988
689.762	4032
690.246	4019
690.731	4012
691.215	4039
691.7	3934
692.184	3972
692.669	3946
693.153	3949
693.638	3857
694.122	3854
694.607	3902
695.092	3839
695.577	3860
696.061	3793
696.546	3791
697.031	3754
697.516	3779
698.001	3780
698.486	3758
698.971	3799
699.456	3730
699.941	3721
700.426	3731
700.911	3792
701.396	3773
701.881	3795
702.366	3752
702.852	3727
703.337	3741
703.822	3743
704.308	3771
704.793	3814
705.278	3813
705.764	3811
706.249	3792
706.735	3780
707.22	3820
707.706	3770
708.191	3821
708.677	3806
709.163	3753
709.648	3748
710.134	3797
710.62	3738
711.106	3745
711.592	3794
712.077	3783
712.563	3701
713.049	3703
713.535	3770
714.021	3746
714.507	3718
714.993	3680
715.479	3730
715.966	3688
716.452	3681
716.938	3686
717.424	3573
717.91	3648
718.397	3641
718.883	3616
719.369	3619
719.856	3598
720.342	3666
720.829	3609
721.315	3638
721.802	3604
722.288	3635
722.775	3495
723.262	3402
723.748	3533
724.235	3488
724.722	3525
725.208	3431
725.695	3417
726.182	3402
726.669	3359
727.156	3385
727.643	3343
728.13	3341
728.617	3310
729.104	3328
729.591	3299
730.078	3349
730.565	3363
731.052	3321
731.539	3316
732.027	3294
732.514	3239
733.001	3275
733.488	3253
733.976	3246
734.463	3230
734.951	3237
735.438	3276
735.926	3242
736.413	3264
736.901	3232
737.388	3241
737.876	3237
738.364	3208
738.851	3227
739.339	3224
739.827	3265
740.314	3150
740.802	3176
741.29	3189
741.778	3144
742.266	3152
742.754	3158
743.242	3172
743.73	3113
744.218	3094
744.706	3052
745.194	3073
745.682	3043
746.17	3059
746.659	3056
747.147	2991
747.635	3010
748.123	3004
748.612	2963
749.1	2937
749.589	2976
750.077	2972
750.566	2971
751.054	2994
751.543	2988
752.031	2907
752.52	2903
753.008	2843
753.497	2856
753.986	2848
754.474	2824
754.963	2849
755.452	2792
755.941	2776
756.43	2781
756.919	2762
757.408	2744
757.896	2750
758.385	2743
758.875	2705
759.364	2712
759.853	2696
760.342	2640
760.831	2693
761.32	2657
761.809	2622
762.299	2638
762.788	2645
763.277	2629
763.767	2582
764.256	2571
764.745	2552
765.235	2592
765.724	2527
766.214	2565
766.703	2512
767.193	2463
767.683	2466
768.172	2419
768.662	2431
769.152	2410
769.641	2408
770.131	2367
770.621	2414
771.111	2381
771.601	2374
772.09	2366
772.58	2345
773.07	2354
773.56	2349
774.05	2299
774.54	2276
775.031	2267
775.521	2251
776.011	2248
776.501	2268
776.991	2225
777.482	2242
777.972	2176
778.462	2176
778.953	2183
779.443	2169
779.933	2164
780.424	2150
780.914	2166
781.405	2177
781.895	2168
782.386	2164
782.877	2143
783.367	2099
783.858	2073
784.349	2086
784.839	2074
785.33	2078
785.821	2063
786.312	2054
786.803	2064
787.293	2053
787.784	2020
788.275	1989
788.766	1960
789.257	1990
789.748	1949
790.24	1928
790.731	1922
791.222	1885
791.713	1874
792.204	1875
792.696	1823
793.187	1844
793.678	1833
794.169	1781
794.661	1805
795.152	1788
795.644	1777
796.135	1780
796.627	1791
797.118	1755
797.61	1733
798.101	1715
798.593	1736
799.085	1705
799.576	1708
800.068	1691
800.56	1701
801.052	1656
801.544	1651
802.035	1646
802.527	1619
803.019	1601
803.511	1588
804.003	1570
804.495	1572
804.987	1551
805.479	1522
805.971	1529
806.464	1535
806.956	1495
807.448	1492
807.94	1488
808.433	1475
808.925	1468
809.417	1447
809.91	1441
810.402	1400
810.894	1412
811.387	1421
811.879	1395
812.372	1400
812.865	1389
813.357	1386
813.85	1384
814.342	1375
814.835	1380
815.328	1365
815.821	1353
816.313	1353
816.806	1358
817.299	1342
817.792	1361
818.285	1340
818.778	1350
819.271	1346
819.764	1331
820.257	1334
820.75	1342
821.243	1337
821.736	1326
822.229	1334
822.722	1326
823.216	1357
