Data from lamp4helium_zwak_Subt2__79__479.txt Node

Date: Wed Apr 09 11:14:41 CEST 2025
User: fys-lab-0081
Spectrometer: S04999
Trigger mode: 0
Resolution mode: 1024 pixels
Integration Time (sec): 1.000000E-1
Scans to average: 1
Nonlinearity correction enabled: false
Boxcar width: 0
Baseline correction enabled: true
XAxis mode: Wavelengths
Number of Pixels in Spectrum: 1024
>>>>>Begin Spectral Data<<<<<
336.42	2
336.877	1
337.334	-1
337.792	2
338.249	4
338.706	-1
339.164	6
339.621	2
340.079	6
340.536	3
340.994	-1
341.452	4
341.909	9
342.367	3
342.825	1
343.283	5
343.741	5
344.198	3
344.656	-2
345.114	3
345.572	5
346.03	3
346.488	3
346.947	4
347.405	8
347.863	1
348.321	2
348.779	5
349.238	4
349.696	4
350.154	3
350.613	4
351.071	6
351.53	7
351.988	10
352.447	4
352.905	1
353.364	4
353.823	10
354.282	3
354.74	-2
355.199	4
355.658	8
356.117	3
356.576	7
357.035	1
357.494	6
357.953	6
358.412	12
358.871	7
359.33	3
359.789	0
360.249	8
360.708	9
361.167	7
361.626	5
362.086	6
362.545	5
363.005	9
363.464	7
363.924	9
364.383	8
364.843	12
365.303	11
365.762	13
366.222	12
366.682	7
367.142	9
367.601	10
368.061	11
368.521	10
368.981	11
369.441	18
369.901	14
370.361	12
370.821	13
371.282	14
371.742	17
372.202	15
372.662	17
373.123	12
373.583	12
374.043	17
374.504	12
374.964	14
375.425	16
375.885	17
376.346	20
376.806	19
377.267	17
377.728	24
378.188	24
378.649	18
379.11	16
379.571	16
380.032	25
380.493	21
380.954	26
381.414	17
381.876	23
382.337	25
382.798	27
383.259	26
383.72	27
384.181	26
384.642	27
385.104	32
385.565	35
386.026	36
386.488	33
386.949	34
387.411	37
387.872	40
388.334	42
388.795	39
389.257	41
389.719	39
390.181	40
390.642	38
391.104	40
391.566	44
392.028	45
392.49	51
392.952	51
393.414	49
393.876	53
394.338	51
394.8	51
395.262	47
395.724	54
396.186	55
396.648	59
397.111	58
397.573	60
398.035	56
398.498	58
398.96	60
399.423	60
399.885	59
400.348	62
400.81	67
401.273	66
401.736	60
402.198	76
402.661	74
403.124	69
403.587	82
404.049	79.5
404.512	77
404.975	79
405.438	80
405.901	82
406.364	83
406.827	83
407.29	83
407.754	82
408.217	85
408.68	88
409.143	90
409.607	97
410.07	91
410.533	90
410.997	94
411.46	97
411.924	99
412.387	98
412.851	99
413.314	98
413.778	101
414.242	101
414.705	110
415.169	112
415.633	111
416.097	109
416.561	113
417.024	111
417.488	113
417.952	113
418.416	110
418.88	109
419.344	111
419.809	118
420.273	116
420.737	113
421.201	121
421.665	122
422.13	123
422.594	131
423.059	130
423.523	129
423.987	135
424.452	139
424.916	143
425.381	142
425.846	144
426.31	151
426.775	158
427.24	156
427.704	152
428.169	154
428.634	155
429.099	157
429.564	158
430.029	158
430.494	154
430.959	157
431.424	158
431.889	162
432.354	166
432.819	160
433.284	172
433.75	171
434.215	181
434.68	180
435.146	181
435.611	190
436.077	193
436.542	192
437.008	204
437.473	206
437.939	206
438.404	210
438.87	216
439.336	211
439.801	211
440.267	217
440.733	221
441.199	221
441.665	227
442.131	231
442.596	222
443.062	233
443.529	242
443.995	247
444.461	250
444.927	259
445.393	262
445.859	271
446.325	278
446.792	295
447.258	293
447.724	304
448.191	316
448.657	316
449.124	323
449.59	318
450.057	344
450.523	343
450.99	350
451.457	347
451.923	356
452.39	353
452.857	368
453.324	358
453.791	367
454.257	371
454.724	371
455.191	372
455.658	374
456.125	389
456.592	382
457.059	389
457.527	386
457.994	399
458.461	408
458.928	418
459.396	414
459.863	424
460.33	423
460.798	427
461.265	434
461.732	433
462.2	443
462.668	441
463.135	445
463.603	429
464.07	454
464.538	436
465.006	449
465.474	442
465.941	443
466.409	447
466.877	439
467.345	451
467.813	443
468.281	454
468.749	455
469.217	457
469.685	469
470.153	482
470.621	479
471.09	479
471.558	501
472.026	505
472.494	516
472.963	521
473.431	534
473.9	542
474.368	558
474.837	570
475.305	579
475.774	589
476.242	601
476.711	598
477.18	622
477.648	615
478.117	616
478.586	626
479.055	624
479.524	626
479.993	626
480.462	629
480.93	627
481.399	630
481.869	640
482.338	628
482.807	644
483.276	641
483.745	640
484.214	656
484.684	672
485.153	673
485.622	678
486.092	697
486.561	683
487.031	712
487.5	718
487.97	731
488.439	754
488.909	762
489.378	794
489.848	798
490.318	814
490.787	850
491.257	854
491.727	859
492.197	871
492.667	875
493.137	882
493.607	895
494.077	896
494.547	888
495.017	887
495.487	908
495.957	935
496.427	907
496.897	908
497.368	925
497.838	914
498.308	923
498.779	937
499.249	940
499.719	946
500.19	966
500.66	972
501.131	978
501.602	995
502.072	998
502.543	1019
503.014	1056
503.484	1048
503.955	1086
504.426	1117
504.897	1125
505.368	1148
505.838	1172
506.309	1197
506.78	1234
507.251	1253
507.722	1277
508.194	1312
508.665	1332
509.136	1328
509.607	1368
510.078	1371
510.549	1378
511.021	1420
511.492	1422
511.964	1442
512.435	1464
512.906	1460
513.378	1472
513.849	1497
514.321	1496
514.793	1515
515.264	1538
515.736	1552
516.208	1590
516.679	1597
517.151	1620
517.623	1629
518.095	1645
518.567	1660
519.038	1706
519.51	1704
519.982	1710
520.454	1715
520.927	1746
521.399	1779
521.871	1796
522.343	1799
522.815	1823
523.287	1821
523.76	1842
524.232	1875
524.704	1874
525.177	1850
525.649	1852
526.122	1882
526.594	1846
527.067	1890
527.539	1918
528.012	1901
528.484	1904
528.957	1909
529.43	1903
529.903	1891
530.375	1958
530.848	1917
531.321	1943
531.794	1952
532.267	1988
532.74	1961
533.213	1952
533.686	1982
534.159	1983
534.632	2029
535.105	2041
535.578	2097
536.051	2099
536.525	2102
536.998	2097
537.471	2138
537.945	2118
538.418	2149
538.891	2142
539.365	2181
539.838	2197
540.312	2185
540.786	2195
541.259	2203
541.733	2234
542.206	2245
542.68	2209
543.154	2207
543.628	2216
544.101	2267
544.575	2234
545.049	2178
545.523	2218
545.997	2221
546.471	2249
546.945	2219
547.419	2256
547.893	2183
548.367	2232
548.842	2201
549.316	2226
549.79	2238
550.264	2218
550.739	2252
551.213	2246
551.687	2242
552.162	2260
552.636	2239
553.111	2246
553.585	2318
554.06	2290
554.534	2339
555.009	2317
555.484	2357
555.958	2391
556.433	2395
556.908	2426
557.383	2405
557.858	2467
558.333	2478
558.807	2459
559.282	2482
559.757	2555
560.232	2545
560.708	2500
561.183	2489
561.658	2533
562.133	2532
562.608	2509
563.083	2563
563.559	2509
564.034	2522
564.509	2516
564.985	2525
565.46	2500
565.936	2551
566.411	2553
566.887	2521
567.362	2552
567.838	2557
568.313	2589
568.789	2542
569.265	2529
569.74	2552
570.216	2540
570.692	2575
571.168	2572
571.644	2588
572.12	2581
572.596	2616
573.071	2632
573.547	2721
574.024	2727
574.5	2743
574.976	2744
575.452	2784
575.928	2803
576.404	2845
576.881	2948
577.357	2893
577.833	2901
578.31	2988
578.786	3014
579.262	3045
579.739	3009
580.215	3083
580.692	3080
581.169	3067
581.645	3077
582.122	3174
582.598	3169
583.075	3185
583.552	3201
584.029	3184
584.506	3136
584.982	3118
585.459	3202
585.936	3162
586.413	3196
586.89	3252
587.367	3211
587.844	3268
588.321	3239
588.799	3262
589.276	3235
589.753	3286
590.23	3322
590.707	3298
591.185	3307
591.662	3292
592.139	3333
592.617	3380
593.094	3359
593.572	3389
594.049	3429
594.527	3483
595.004	3484
595.482	3583
595.96	3556
596.437	3568
596.915	3664
597.393	3587
597.871	3664
598.349	3645
598.826	3711
599.304	3723
599.782	3775
600.26	3746
600.738	3826
601.216	3799
601.694	3825
602.173	3837
602.651	3861
603.129	3801
603.607	3843
604.085	3876
604.564	3872
605.042	3894
605.52	3857
605.999	3964
606.477	3856
606.956	3850
607.434	3897.5
607.913	3945
608.391	3933
608.87	3918
609.348	3846
609.827	3847
610.306	3887
610.785	3887
611.263	3886
611.742	3866
612.221	3813
612.7	3871
613.179	3912
613.658	3871
614.137	3921
614.616	3954
615.095	3881
615.574	3938
616.053	3973
616.532	3925
617.011	3936
617.491	3974
617.97	3964
618.449	4019
618.928	4037
619.408	4004
619.887	4043
620.367	4072
620.846	4120
621.326	4081
621.805	4168
622.285	4145
622.764	4188
623.244	4184
623.724	4211
624.203	4220
624.683	4161
625.163	4265
625.643	4248
626.123	4228
626.602	4321
627.082	4216
627.562	4209
628.042	4284
628.522	4232
629.002	4188
629.482	4228
629.963	4247
630.443	4230
630.923	4243
631.403	4275
631.883	4249
632.364	4245
632.844	4226
633.324	4257
633.805	4269
634.285	4216
634.766	4173
635.246	4173
635.727	4160
636.207	4164
636.688	4165
637.168	4172
637.649	4155
638.13	4125
638.611	4143
639.091	4153
639.572	4134
640.053	4127
640.534	4148
641.015	4137
641.496	4064
641.977	4151
642.458	4108
642.939	4116
643.42	4123
643.901	4122
644.382	4158
644.863	4143
645.345	4125
645.826	4115
646.307	4131
646.788	4190
647.27	4122
647.751	4137
648.233	4174
648.714	4072
649.196	4195
649.677	4182
650.159	4176
650.64	4145
651.122	4213
651.603	4139
652.085	4153
652.567	4166
653.049	4137
653.53	4137
654.012	4196
654.494	4108
654.976	4175
655.458	4171
655.94	4146
656.422	4205
656.904	4113
657.386	4052
657.868	4080
658.35	4055
658.833	4102
659.315	4120
659.797	4064
660.279	4052
660.762	4076
661.244	4053
661.726	3980
662.209	4005
662.691	4013
663.174	3932
663.656	3956
664.139	3944
664.621	3902
665.104	3880
665.587	3928
666.069	3942
666.552	3941
667.035	3880
667.517	3878
668	3911
668.483	3901
668.966	3859
669.449	3859
669.932	3870
670.415	3909
670.898	3885
671.381	3873
671.864	3888
672.347	3836
672.83	3862
673.313	3881
673.797	3868
674.28	3944
674.763	3941
675.247	3946
675.73	3918
676.213	3965
676.697	3984
677.18	3988
677.664	3989
678.147	3984
678.631	4017
679.114	4027
679.598	4014
680.082	4017
680.565	3997
681.049	3988
681.533	3984
682.017	4031
682.5	4018
682.984	4010
683.468	4014
683.952	3948
684.436	4029
684.92	3985
685.404	4013
685.888	4040
686.372	4015
686.856	4019
687.341	4059
687.825	4010
688.309	4032
688.793	4047
689.278	3991
689.762	4034
690.246	4010
690.731	4024
691.215	4038
691.7	3946
692.184	3967
692.669	3951
693.153	3954
693.638	3864
694.122	3851
694.607	3891
695.092	3827
695.577	3866
696.061	3789
696.546	3795
697.031	3752
697.516	3788
698.001	3789
698.486	3756
698.971	3812
699.456	3725
699.941	3731
700.426	3727
700.911	3788
701.396	3772
701.881	3791
702.366	3758
702.852	3733
703.337	3743
703.822	3747
704.308	3777
704.793	3808
705.278	3810
705.764	3823
706.249	3780
706.735	3788
707.22	3823
707.706	3770
708.191	3815
708.677	3808
709.163	3747
709.648	3760
710.134	3790
710.62	3737
711.106	3741
711.592	3788
712.077	3781
712.563	3703
713.049	3703
713.535	3771
714.021	3738
714.507	3727
714.993	3689
715.479	3731
715.966	3684
716.452	3685
716.938	3694
717.424	3568
717.91	3651
718.397	3634
718.883	3612
719.369	3627
719.856	3594
720.342	3664
720.829	3611
721.315	3632
721.802	3612
722.288	3644
722.775	3496
723.262	3407
723.748	3535
724.235	3496
724.722	3527
725.208	3437
725.695	3419
726.182	3404
726.669	3354
727.156	3383
727.643	3354
728.13	3347
728.617	3299
729.104	3328
729.591	3299
730.078	3351
730.565	3361
731.052	3323
731.539	3327
732.027	3305
732.514	3236
733.001	3270
733.488	3258
733.976	3252
734.463	3237
734.951	3239
735.438	3281
735.926	3240
736.413	3264
736.901	3223
737.388	3239
737.876	3229
738.364	3210
738.851	3233
739.339	3229
739.827	3251
740.314	3156
740.802	3177
741.29	3191
741.778	3144
742.266	3158
742.754	3161
743.242	3174
743.73	3100
744.218	3086
744.706	3052
745.194	3072
745.682	3049
746.17	3056
746.659	3060
747.147	2990
747.635	3020
748.123	3004
748.612	2961
749.1	2938
749.589	2967
750.077	2981
750.566	2974
751.054	2986
751.543	2990
752.031	2909
752.52	2902
753.008	2849
753.497	2846
753.986	2847
754.474	2821
754.963	2844
755.452	2787
755.941	2779
756.43	2780
756.919	2764
757.408	2741
757.896	2750
758.385	2745
758.875	2710
759.364	2713
759.853	2694
760.342	2644
760.831	2692
761.32	2662
761.809	2620
762.299	2638
762.788	2644
763.277	2632
763.767	2579
764.256	2571
764.745	2547
765.235	2597
765.724	2532
766.214	2565
766.703	2509
767.193	2459
767.683	2471
768.172	2412
768.662	2430
769.152	2409
769.641	2408
770.131	2362
770.621	2409
771.111	2374
771.601	2370
772.09	2369
772.58	2343
773.07	2353
773.56	2348
774.05	2289
774.54	2272
775.031	2263
775.521	2251
776.011	2244
776.501	2272
776.991	2224
777.482	2232
777.972	2181
778.462	2173
778.953	2180
779.443	2165
779.933	2169
780.424	2153
780.914	2169
781.405	2172
781.895	2167
782.386	2163
782.877	2145
783.367	2098
783.858	2084
784.349	2082
784.839	2075
785.33	2072
785.821	2068
786.312	2052
786.803	2061
787.293	2050
787.784	2011
788.275	1992
788.766	1963
789.257	1990
789.748	1953
790.24	1929
790.731	1922
791.222	1881
791.713	1868
792.204	1872
792.696	1826
793.187	1847
793.678	1832
794.169	1773
794.661	1808
795.152	1793
795.644	1772
796.135	1771
796.627	1787
797.118	1759
797.61	1742
798.101	1714
798.593	1737
799.085	1703
799.576	1714
800.068	1698
800.56	1709
801.052	1651
801.544	1650
802.035	1638
802.527	1623
803.019	1607
803.511	1585
804.003	1575
804.495	1573
804.987	1553
805.479	1519
805.971	1527
806.464	1529
806.956	1497
807.448	1492
807.94	1489
808.433	1478
808.925	1471
809.417	1451
809.91	1437
810.402	1408
810.894	1413
811.387	1413
811.879	1386
812.372	1398
812.865	1385
813.357	1389
813.85	1380
814.342	1371
814.835	1379
815.328	1365
815.821	1346
816.313	1345
816.806	1354
817.299	1342
817.792	1364
818.285	1333
818.778	1342
819.271	1347
819.764	1329
820.257	1332
820.75	1341
821.243	1342
821.736	1329
822.229	1336
822.722	1324
823.216	1358
