Data from lamp4helium_zwak_Subt2__21__421.txt Node

Date: Wed Apr 09 11:14:33 CEST 2025
User: fys-lab-0081
Spectrometer: S04999
Trigger mode: 0
Resolution mode: 1024 pixels
Integration Time (sec): 1.000000E-1
Scans to average: 1
Nonlinearity correction enabled: false
Boxcar width: 0
Baseline correction enabled: true
XAxis mode: Wavelengths
Number of Pixels in Spectrum: 1024
>>>>>Begin Spectral Data<<<<<
336.42	1
336.877	-2
337.334	1
337.792	2
338.249	3
338.706	-1
339.164	2
339.621	1
340.079	7
340.536	5
340.994	-1
341.452	6
341.909	7
342.367	-2
342.825	1
343.283	5
343.741	-1
344.198	5
344.656	2
345.114	-2
345.572	5
346.03	3
346.488	0
346.947	1
347.405	3
347.863	6
348.321	-2
348.779	7
349.238	4
349.696	4
350.154	-1
350.613	-1
351.071	4
351.53	11
351.988	7
352.447	4
352.905	1
353.364	2
353.823	6
354.282	2
354.74	2
355.199	6
355.658	10
356.117	3
356.576	7
357.035	0
357.494	5
357.953	4
358.412	5
358.871	10
359.33	8
359.789	3
360.249	9
360.708	6
361.167	9
361.626	8
362.086	5
362.545	7
363.005	6
363.464	11
363.924	10
364.383	7
364.843	8
365.303	12
365.762	17
366.222	11
366.682	7
367.142	9
367.601	9
368.061	8
368.521	8
368.981	9
369.441	20
369.901	17
370.361	13
370.821	11
371.282	10
371.742	14
372.202	16
372.662	15
373.123	12
373.583	18
374.043	17
374.504	10
374.964	13
375.425	17
375.885	15
376.346	21
376.806	21
377.267	13
377.728	19
378.188	25
378.649	17
379.11	21
379.571	16
380.032	23
380.493	25
380.954	24
381.414	22
381.876	23
382.337	21
382.798	24
383.259	31
383.72	26
384.181	28
384.642	29
385.104	29
385.565	27
386.026	40
386.488	33
386.949	34
387.411	33
387.872	38
388.334	42
388.795	42
389.257	43
389.719	37
390.181	43
390.642	41
391.104	44
391.566	45
392.028	47
392.49	54
392.952	51
393.414	51
393.876	56
394.338	52
394.8	49
395.262	46
395.724	55
396.186	56
396.648	58
397.111	60
397.573	63
398.035	57
398.498	58
398.96	64
399.423	58
399.885	63
400.348	68
400.81	68
401.273	61
401.736	60
402.198	72
402.661	78
403.124	68
403.587	79
404.049	80.5
404.512	82
404.975	79
405.438	82
405.901	85
406.364	86
406.827	83
407.29	80
407.754	84
408.217	82
408.68	86
409.143	91
409.607	91
410.07	91
410.533	88
410.997	90
411.46	94
411.924	98
412.387	103
412.851	99
413.314	99
413.778	103
414.242	104
414.705	112
415.169	110
415.633	107
416.097	107
416.561	111
417.024	112
417.488	111
417.952	117
418.416	107
418.88	106
419.344	109
419.809	114
420.273	116
420.737	115
421.201	115
421.665	126
422.13	126
422.594	125
423.059	130
423.523	136
423.987	132
424.452	135
424.916	135
425.381	148
425.846	142
426.31	148
426.775	149
427.24	150
427.704	149
428.169	157
428.634	158
429.099	155
429.564	157
430.029	155
430.494	155
430.959	155
431.424	155
431.889	164
432.354	165
432.819	160
433.284	171
433.75	173
434.215	181
434.68	182
435.146	183
435.611	187
436.077	193
436.542	194
437.008	205
437.473	201
437.939	205
438.404	209
438.87	217
439.336	216
439.801	209
440.267	214
440.733	221
441.199	222
441.665	225
442.131	229
442.596	224
443.062	235
443.529	248
443.995	248
444.461	250
444.927	262
445.393	262
445.859	273
446.325	278
446.792	297
447.258	296
447.724	304
448.191	315
448.657	321
449.124	325
449.59	317
450.057	344
450.523	342
450.99	350
451.457	346
451.923	355
452.39	354
452.857	373
453.324	364
453.791	372
454.257	373
454.724	375
455.191	373
455.658	376
456.125	390
456.592	380
457.059	385
457.527	392
457.994	407
458.461	406
458.928	413
459.396	416
459.863	425
460.33	423
460.798	425
461.265	435
461.732	433
462.2	443
462.668	441
463.135	446
463.603	430
464.07	455
464.538	442
465.006	450
465.474	440
465.941	445
466.409	449
466.877	439
467.345	453
467.813	449
468.281	457
468.749	459
469.217	460
469.685	468
470.153	477
470.621	476
471.09	478
471.558	504
472.026	506
472.494	515
472.963	521
473.431	538
473.9	544
474.368	561
474.837	565
475.305	580
475.774	589
476.242	600
476.711	602
477.18	619
477.648	613
478.117	623
478.586	620
479.055	625
479.524	633
479.993	628
480.462	634
480.93	627
481.399	629
481.869	638
482.338	633
482.807	644
483.276	635
483.745	644
484.214	660
484.684	669
485.153	675
485.622	679
486.092	697
486.561	683
487.031	711
487.5	719
487.97	728
488.439	754
488.909	769
489.378	795
489.848	800
490.318	814
490.787	855
491.257	857
491.727	857
492.197	876
492.667	879
493.137	881
493.607	891
494.077	907
494.547	891
495.017	892
495.487	911
495.957	932
496.427	910
496.897	911
497.368	930
497.838	918
498.308	927
498.779	942
499.249	945
499.719	956
500.19	969
500.66	968
501.131	983
501.602	993
502.072	1001
502.543	1017
503.014	1053
503.484	1057
503.955	1083
504.426	1118
504.897	1125
505.368	1150
505.838	1178
506.309	1190
506.78	1232
507.251	1261
507.722	1282
508.194	1319
508.665	1331
509.136	1326
509.607	1373
510.078	1377
510.549	1386
511.021	1419
511.492	1425
511.964	1450
512.435	1470
512.906	1465
513.378	1475
513.849	1501
514.321	1505
514.793	1518
515.264	1540
515.736	1557
516.208	1589
516.679	1601
517.151	1620
517.623	1631
518.095	1653
518.567	1663
519.038	1698
519.51	1707
519.982	1715
520.454	1728
520.927	1750
521.399	1789
521.871	1799
522.343	1806
522.815	1824
523.287	1834
523.76	1841
524.232	1870
524.704	1878
525.177	1856
525.649	1861
526.122	1883
526.594	1841
527.067	1896
527.539	1922
528.012	1900
528.484	1896
528.957	1913
529.43	1905
529.903	1901
530.375	1963
530.848	1923
531.321	1949
531.794	1952
532.267	1993
532.74	1963
533.213	1949
533.686	1988
534.159	1988
534.632	2031
535.105	2046
535.578	2101
536.051	2100
536.525	2105
536.998	2100
537.471	2141
537.945	2120
538.418	2152
538.891	2154
539.365	2186
539.838	2206
540.312	2196
540.786	2202
541.259	2205
541.733	2242
542.206	2247
542.68	2213
543.154	2212
543.628	2227
544.101	2270
544.575	2238
545.049	2176
545.523	2225
545.997	2233
546.471	2244
546.945	2224
547.419	2256
547.893	2193
548.367	2241
548.842	2210
549.316	2234
549.79	2247
550.264	2224
550.739	2249
551.213	2248
551.687	2238
552.162	2261
552.636	2251
553.111	2248
553.585	2323
554.06	2302
554.534	2331
555.009	2320
555.484	2357
555.958	2398
556.433	2400
556.908	2437
557.383	2415
557.858	2476
558.333	2483
558.807	2469
559.282	2486
559.757	2555
560.232	2554
560.708	2502
561.183	2494
561.658	2535
562.133	2536
562.608	2501
563.083	2567
563.559	2507
564.034	2526
564.509	2520
564.985	2523
565.46	2509
565.936	2564
566.411	2558
566.887	2527
567.362	2551
567.838	2561
568.313	2594
568.789	2539
569.265	2532
569.74	2556
570.216	2537
570.692	2582
571.168	2583
571.644	2585
572.12	2587
572.596	2616
573.071	2635
573.547	2719
574.024	2737
574.5	2742
574.976	2744
575.452	2788
575.928	2814
576.404	2848
576.881	2948
577.357	2893
577.833	2898
578.31	2992
578.786	3020
579.262	3050
579.739	3004
580.215	3091
580.692	3090
581.169	3069
581.645	3065
582.122	3170
582.598	3177
583.075	3189
583.552	3203
584.029	3182
584.506	3145
584.982	3125
585.459	3204
585.936	3164
586.413	3198
586.89	3257
587.367	3224
587.844	3272
588.321	3242
588.799	3261
589.276	3241
589.753	3299
590.23	3320
590.707	3317
591.185	3304
591.662	3320
592.139	3343
592.617	3388
593.094	3360
593.572	3393
594.049	3445
594.527	3473
595.004	3484
595.482	3582
595.96	3576
596.437	3580
596.915	3665
597.393	3595
597.871	3669
598.349	3652
598.826	3712
599.304	3719
599.782	3781
600.26	3740
600.738	3828
601.216	3809
601.694	3824
602.173	3839
602.651	3866
603.129	3808
603.607	3850
604.085	3880
604.564	3871
605.042	3897
605.52	3867
605.999	3963
606.477	3859
606.956	3863
607.434	3910
607.913	3957
608.391	3948
608.87	3927
609.348	3855
609.827	3852
610.306	3887
610.785	3877
611.263	3890
611.742	3879
612.221	3821
612.7	3879
613.179	3916
613.658	3879
614.137	3927
614.616	3959
615.095	3888
615.574	3946
616.053	3972
616.532	3936
617.011	3946
617.491	3976
617.97	3974
618.449	4022
618.928	4041
619.408	4019
619.887	4053
620.367	4091
620.846	4130
621.326	4081
621.805	4172
622.285	4159
622.764	4194
623.244	4192
623.724	4216
624.203	4227
624.683	4158
625.163	4268
625.643	4265
626.123	4228
626.602	4327
627.082	4230
627.562	4211
628.042	4292
628.522	4249
629.002	4200
629.482	4247
629.963	4250
630.443	4235
630.923	4247
631.403	4275
631.883	4249
632.364	4261
632.844	4225
633.324	4261
633.805	4272
634.285	4223
634.766	4184
635.246	4180
635.727	4169
636.207	4176
636.688	4177
637.168	4181
637.649	4165
638.13	4125
638.611	4159
639.091	4167
639.572	4142
640.053	4127
640.534	4154
641.015	4136
641.496	4070
641.977	4148
642.458	4107
642.939	4126
643.42	4129
643.901	4136
644.382	4172
644.863	4150
645.345	4127
645.826	4120
646.307	4135
646.788	4204
647.27	4134
647.751	4144
648.233	4169
648.714	4078
649.196	4204
649.677	4190
650.159	4192
650.64	4144
651.122	4220
651.603	4141
652.085	4155
652.567	4167
653.049	4146
653.53	4148
654.012	4201
654.494	4114
654.976	4173
655.458	4175
655.94	4152
656.422	4199
656.904	4120
657.386	4069
657.868	4080
658.35	4058
658.833	4106
659.315	4122
659.797	4071
660.279	4062
660.762	4076
661.244	4056
661.726	3999
662.209	4005
662.691	4022
663.174	3929
663.656	3959
664.139	3948
664.621	3899
665.104	3883
665.587	3944
666.069	3952
666.552	3945
667.035	3881
667.517	3884
668	3920
668.483	3922
668.966	3877
669.449	3868
669.932	3877
670.415	3915
670.898	3889
671.381	3882
671.864	3899
672.347	3845
672.83	3867
673.313	3885
673.797	3875
674.28	3959
674.763	3947
675.247	3956
675.73	3923
676.213	3963
676.697	3993
677.18	3998
677.664	3997
678.147	3991
678.631	4029
679.114	4041
679.598	4015
680.082	4030
680.565	4010
681.049	3986
681.533	3984
682.017	4043
682.5	4015
682.984	4005
683.468	4013
683.952	3958
684.436	4038
684.92	3989
685.404	4017
685.888	4050
686.372	4021
686.856	4026
687.341	4063
687.825	4009
688.309	4038
688.793	4057
689.278	4000
689.762	4036
690.246	4012
690.731	4020
691.215	4036
691.7	3945
692.184	3975
692.669	3948
693.153	3951
693.638	3870
694.122	3870
694.607	3905
695.092	3847
695.577	3875
696.061	3803
696.546	3797
697.031	3767
697.516	3791
698.001	3787
698.486	3750
698.971	3810
699.456	3728
699.941	3734
700.426	3736
700.911	3795
701.396	3767
701.881	3796
702.366	3761
702.852	3736
703.337	3744
703.822	3748
704.308	3775
704.793	3820
705.278	3816
705.764	3824
706.249	3788
706.735	3781
707.22	3828
707.706	3782
708.191	3820
708.677	3815
709.163	3762
709.648	3754
710.134	3792
710.62	3749
711.106	3748
711.592	3796
712.077	3777
712.563	3707
713.049	3710
713.535	3780
714.021	3755
714.507	3735
714.993	3695
715.479	3731
715.966	3693
716.452	3691
716.938	3689
717.424	3576
717.91	3651
718.397	3637
718.883	3616
719.369	3626
719.856	3601
720.342	3666
720.829	3612
721.315	3637
721.802	3617
722.288	3639
722.775	3504
723.262	3400
723.748	3532
724.235	3495
724.722	3531
725.208	3436
725.695	3415
726.182	3402
726.669	3369
727.156	3390
727.643	3349
728.13	3344
728.617	3311
729.104	3328
729.591	3302
730.078	3348
730.565	3366
731.052	3327
731.539	3341
732.027	3299
732.514	3251
733.001	3278
733.488	3247
733.976	3255
734.463	3232
734.951	3246
735.438	3278
735.926	3247
736.413	3271
736.901	3234
737.388	3247
737.876	3241
738.364	3218
738.851	3239
739.339	3227
739.827	3260
740.314	3151
740.802	3184
741.29	3188
741.778	3148
742.266	3151
742.754	3159
743.242	3180
743.73	3110
744.218	3101
744.706	3052
745.194	3074
745.682	3042
746.17	3062
746.659	3053
747.147	2992
747.635	3010
748.123	3007
748.612	2971
749.1	2938
749.589	2976
750.077	2980
750.566	2976
751.054	2989
751.543	2990
752.031	2912
752.52	2905
753.008	2849
753.497	2851
753.986	2843
754.474	2827
754.963	2848
755.452	2789
755.941	2777
756.43	2778
756.919	2773
757.408	2743
757.896	2759
758.385	2751
758.875	2709
759.364	2719
759.853	2693
760.342	2641
760.831	2694
761.32	2666
761.809	2633
762.299	2642
762.788	2651
763.277	2634
763.767	2586
764.256	2567
764.745	2550
765.235	2601
765.724	2533
766.214	2569
766.703	2515
767.193	2463
767.683	2473
768.172	2422
768.662	2435
769.152	2409
769.641	2415
770.131	2366
770.621	2416
771.111	2373
771.601	2374
772.09	2370
772.58	2342
773.07	2360
773.56	2351
774.05	2300
774.54	2273
775.031	2262
775.521	2247
776.011	2258
776.501	2269
776.991	2222
777.482	2250
777.972	2181
778.462	2177
778.953	2184
779.443	2178
779.933	2174
780.424	2160
780.914	2171
781.405	2182
781.895	2171
782.386	2166
782.877	2142
783.367	2100
783.858	2082
784.349	2088
784.839	2072
785.33	2074
785.821	2061
786.312	2050
786.803	2063
787.293	2053
787.784	2018
788.275	1992
788.766	1962
789.257	1989
789.748	1958
790.24	1929
790.731	1926
791.222	1885
791.713	1873
792.204	1876
792.696	1833
793.187	1852
793.678	1831
794.169	1780
794.661	1815
795.152	1794
795.644	1778
796.135	1779
796.627	1789
797.118	1760
797.61	1738
798.101	1714
798.593	1744
799.085	1716
799.576	1720
800.068	1696
800.56	1699
801.052	1665
801.544	1653
802.035	1644
802.527	1619
803.019	1609
803.511	1588
804.003	1571
804.495	1575
804.987	1553
805.479	1521
805.971	1535
806.464	1530
806.956	1491
807.448	1497
807.94	1490
808.433	1484
808.925	1468
809.417	1451
809.91	1444
810.402	1402
810.894	1410
811.387	1413
811.879	1393
812.372	1405
812.865	1384
813.357	1387
813.85	1382
814.342	1378
814.835	1377
815.328	1365
815.821	1353
816.313	1352
816.806	1356
817.299	1349
817.792	1365
818.285	1340
818.778	1354
819.271	1346
819.764	1328
820.257	1335
820.75	1332
821.243	1340
821.736	1325
822.229	1341
822.722	1330
823.216	1357
