Data from lamp4bck_dubbel_Subt2__93__1093.txt Node

Date: Wed Apr 09 12:21:25 CEST 2025
User: fys-lab-0081
Spectrometer: S04999
Trigger mode: 0
Resolution mode: 1024 pixels
Integration Time (sec): 1.000000E-1
Scans to average: 1
Nonlinearity correction enabled: false
Boxcar width: 0
Baseline correction enabled: true
XAxis mode: Wavelengths
Number of Pixels in Spectrum: 1024
>>>>>Begin Spectral Data<<<<<
336.42	1
336.877	9
337.334	7
337.792	0
338.249	5
338.706	5
339.164	7
339.621	4
340.079	6
340.536	7
340.994	5
341.452	8
341.909	10
342.367	0
342.825	5
343.283	5
343.741	0
344.198	4
344.656	3
345.114	6
345.572	7
346.03	-2
346.488	5
346.947	-1
347.405	5
347.863	2
348.321	4
348.779	8
349.238	3
349.696	5
350.154	3
350.613	-1
351.071	3
351.53	10
351.988	7
352.447	5
352.905	2
353.364	4
353.823	6
354.282	4
354.74	-1
355.199	8
355.658	7
356.117	4
356.576	7
357.035	3
357.494	4
357.953	4
358.412	12
358.871	4
359.33	5
359.789	4
360.249	7
360.708	9
361.167	9
361.626	6
362.086	5
362.545	5
363.005	8
363.464	11
363.924	8
364.383	4
364.843	7
365.303	12
365.762	11
366.222	11
366.682	11
367.142	10
367.601	9
368.061	11
368.521	11
368.981	8
369.441	15
369.901	12
370.361	9
370.821	9
371.282	12
371.742	13
372.202	13
372.662	15
373.123	11
373.583	13
374.043	17
374.504	13
374.964	11
375.425	13
375.885	13
376.346	18
376.806	20
377.267	16
377.728	19
378.188	16
378.649	17
379.11	20
379.571	15
380.032	20
380.493	21
380.954	23
381.414	18
381.876	20
382.337	17
382.798	21
383.259	27
383.72	21
384.181	20
384.642	19
385.104	25
385.565	29
386.026	30
386.488	29
386.949	29
387.411	32
387.872	30
388.334	35
388.795	33
389.257	33
389.719	33
390.181	34
390.642	31
391.104	33
391.566	39
392.028	38
392.49	44
392.952	43
393.414	43
393.876	43
394.338	43
394.8	45
395.262	38
395.724	49
396.186	49
396.648	49
397.111	49
397.573	52
398.035	46
398.498	49
398.96	50
399.423	50
399.885	45
400.348	56
400.81	52
401.273	51
401.736	53
402.198	59
402.661	64
403.124	57
403.587	64
404.049	65
404.512	66
404.975	64
405.438	70
405.901	74
406.364	71
406.827	68
407.29	69
407.754	65
408.217	70
408.68	73
409.143	76
409.607	75
410.07	75
410.533	71
410.997	76
411.46	77
411.924	78
412.387	87
412.851	82
413.314	82
413.778	80
414.242	83
414.705	90
415.169	88
415.633	89
416.097	86
416.561	92
417.024	97
417.488	91
417.952	92
418.416	90
418.88	88
419.344	90
419.809	93
420.273	91
420.737	93
421.201	99
421.665	97
422.13	100
422.594	99
423.059	105
423.523	100
423.987	98
424.452	111
424.916	108
425.381	117
425.846	116
426.31	126
426.775	121
427.24	126
427.704	124
428.169	124
428.634	130
429.099	125
429.564	122
430.029	120
430.494	121
430.959	123
431.424	123
431.889	130
432.354	135
432.819	124
433.284	136
433.75	134
434.215	141
434.68	138
435.146	141
435.611	146
436.077	152
436.542	155
437.008	162
437.473	164
437.939	162
438.404	173
438.87	175
439.336	168
439.801	170
440.267	175
440.733	180
441.199	176
441.665	178
442.131	177
442.596	177
443.062	184
443.529	198
443.995	192
444.461	194
444.927	202
445.393	196
445.859	208
446.325	212
446.792	227
447.258	228
447.724	239
448.191	250
448.657	242
449.124	249
449.59	248
450.057	269
450.523	267
450.99	277
451.457	275
451.923	280
452.39	275
452.857	282
453.324	283
453.791	279
454.257	289
454.724	290
455.191	288
455.658	286
456.125	298
456.592	292
457.059	299
457.527	297
457.994	306
458.461	311
458.928	317
459.396	313
459.863	320
460.33	324
460.798	329
461.265	337
461.732	334
462.2	343
462.668	340
463.135	346
463.603	339
464.07	353
464.538	342
465.006	351
465.474	347
465.941	343
466.409	345
466.877	338
467.345	344
467.813	336
468.281	347
468.749	350
469.217	346
469.685	355
470.153	362
470.621	357
471.09	360
471.558	376
472.026	377
472.494	385
472.963	385
473.431	395
473.9	408
474.368	418
474.837	422
475.305	428
475.774	433
476.242	450
476.711	454
477.18	467
477.648	458
478.117	471
478.586	469
479.055	466
479.524	477
479.993	473
480.462	473
480.93	470
481.399	476
481.869	483
482.338	467
482.807	482
483.276	482
483.745	476
484.214	486
484.684	492
485.153	491
485.622	495
486.092	506
486.561	497
487.031	516
487.5	521
487.97	522
488.439	531
488.909	546
489.378	569
489.848	565
490.318	585
490.787	617
491.257	621
491.727	631
492.197	644
492.667	642
493.137	652
493.607	654
494.077	661
494.547	651
495.017	652
495.487	664
495.957	678
496.427	664
496.897	660
497.368	676
497.838	669
498.308	673
498.779	678
499.249	680
499.719	687
500.19	695
500.66	696
501.131	702
501.602	713
502.072	705
502.543	731
503.014	746
503.484	737
503.955	752
504.426	776
504.897	779
505.368	792
505.838	811
506.309	818
506.78	855
507.251	873
507.722	888
508.194	914
508.665	939
509.136	926
509.607	963
510.078	978
510.549	994
511.021	1016
511.492	1014
511.964	1034
512.435	1052
512.906	1041
513.378	1046
513.849	1074
514.321	1066
514.793	1070
515.264	1086
515.736	1095
516.208	1107
516.679	1110
517.151	1132
517.623	1143
518.095	1146
518.567	1161
519.038	1196
519.51	1193
519.982	1203
520.454	1227
520.927	1246
521.399	1256
521.871	1266
522.343	1280
522.815	1307
523.287	1301
523.76	1306
524.232	1330
524.704	1336
525.177	1303
525.649	1311
526.122	1332
526.594	1304
527.067	1322
527.539	1338
528.012	1342
528.484	1345
528.957	1337
529.43	1332
529.903	1341
530.375	1373
530.848	1326
531.321	1349
531.794	1361
532.267	1387
532.74	1363
533.213	1375
533.686	1397
534.159	1382
534.632	1407
535.105	1419
535.578	1444
536.051	1443
536.525	1430
536.998	1429
537.471	1464
537.945	1428
538.418	1441
538.891	1448
539.365	1482
539.838	1495
540.312	1480
540.786	1491
541.259	1504
541.733	1536
542.206	1524
542.68	1511
543.154	1529
543.628	1536
544.101	1559
544.575	1560
545.049	1538
545.523	1576
545.997	1564
546.471	1575
546.945	1571
547.419	1595
547.893	1510
548.367	1535
548.842	1520
549.316	1528
549.79	1533
550.264	1515
550.739	1524
551.213	1531
551.687	1514
552.162	1526
552.636	1520
553.111	1515
553.585	1555
554.06	1524
554.534	1566
555.009	1571
555.484	1602
555.958	1607
556.433	1621
556.908	1660
557.383	1644
557.858	1669
558.333	1677
558.807	1662
559.282	1682
559.757	1713
560.232	1699
560.708	1670
561.183	1668
561.658	1677
562.133	1667
562.608	1654
563.083	1714
563.559	1671
564.034	1673
564.509	1670
564.985	1702
565.46	1689
565.936	1716
566.411	1702
566.887	1701
567.362	1733
567.838	1728
568.313	1745
568.789	1727
569.265	1737
569.74	1745
570.216	1731
570.692	1741
571.168	1734
571.644	1752
572.12	1739
572.596	1737
573.071	1719
573.547	1766
574.024	1784
574.5	1773
574.976	1779
575.452	1806
575.928	1833
576.404	1835
576.881	1880
577.357	1856
577.833	1879
578.31	1931
578.786	1958
579.262	1987
579.739	1970
580.215	2055
580.692	2066
581.169	2031
581.645	2045
582.122	2118
582.598	2114
583.075	2113
583.552	2121
584.029	2118
584.506	2122
584.982	2102
585.459	2126
585.936	2069
586.413	2089
586.89	2141
587.367	2104
587.844	2115
588.321	2085
588.799	2097
589.276	2096
589.753	2120
590.23	2134
590.707	2113
591.185	2119
591.662	2122
592.139	2143
592.617	2171
593.094	2174
593.572	2202
594.049	2233
594.527	2253
595.004	2243
595.482	2312
595.96	2323
596.437	2337
596.915	2387
597.393	2360
597.871	2418
598.349	2398
598.826	2437
599.304	2423
599.782	2452
600.26	2408
600.738	2463
601.216	2434
601.694	2440
602.173	2441
602.651	2469
603.129	2458
603.607	2482
604.085	2477
604.564	2459
605.042	2464
605.52	2460
605.999	2539
606.477	2482
606.956	2481
607.434	2514.5
607.913	2548
608.391	2561
608.87	2556
609.348	2522
609.827	2543
610.306	2587
610.785	2609
611.263	2611
611.742	2590
612.221	2560
612.7	2613
613.179	2627
613.658	2574
614.137	2584
614.616	2597
615.095	2541
615.574	2578
616.053	2574
616.532	2529
617.011	2541
617.491	2543
617.97	2550
618.449	2575
618.928	2599
619.408	2569
619.887	2601
620.367	2624
620.846	2654
621.326	2641
621.805	2682
622.285	2687
622.764	2733
623.244	2762
623.724	2778
624.203	2801
624.683	2767
625.163	2839
625.643	2857
626.123	2845
626.602	2890
627.082	2824
627.562	2834
628.042	2930
628.522	2902
629.002	2871
629.482	2869
629.963	2868
630.443	2848
630.923	2853
631.403	2854
631.883	2813
632.364	2820
632.844	2804
633.324	2833
633.805	2840
634.285	2802
634.766	2767
635.246	2783
635.727	2795
636.207	2803
636.688	2801
637.168	2789
637.649	2756
638.13	2747
638.611	2784
639.091	2786
639.572	2784
640.053	2764
640.534	2807
641.015	2830
641.496	2784
641.977	2839
642.458	2808
642.939	2800
643.42	2822
643.901	2843
644.382	2871
644.863	2849
645.345	2834
645.826	2838
646.307	2848
646.788	2888
647.27	2843
647.751	2828
648.233	2846
648.714	2765
649.196	2839
649.677	2827
650.159	2823
650.64	2774
651.122	2804
651.603	2760
652.085	2814
652.567	2828
653.049	2795
653.53	2785
654.012	2811
654.494	2763
654.976	2818
655.458	2820
655.94	2819
656.422	2873
656.904	2844
657.386	2830
657.868	2850
658.35	2840
658.833	2871
659.315	2872
659.797	2834
660.279	2853
660.762	2888
661.244	2865
661.726	2818
662.209	2797
662.691	2796
663.174	2744
663.656	2765
664.139	2763
664.621	2716
665.104	2670
665.587	2693
666.069	2715
666.552	2716
667.035	2691
667.517	2684
668	2688
668.483	2671
668.966	2663
669.449	2671
669.932	2668
670.415	2697
670.898	2659
671.381	2656
671.864	2663
672.347	2664
672.83	2697
673.313	2702
673.797	2680
674.28	2717
674.763	2704
675.247	2743
675.73	2751
676.213	2774
676.697	2795
677.18	2787
677.664	2801
678.147	2818
678.631	2838
679.114	2854
679.598	2826
680.082	2831
680.565	2818
681.049	2816
681.533	2829
682.017	2853
682.5	2851
682.984	2844
683.468	2824
683.952	2770
684.436	2825
684.92	2774
685.404	2788
685.888	2803
686.372	2764
686.856	2768
687.341	2827
687.825	2807
688.309	2829
688.793	2826
689.278	2775
689.762	2804
690.246	2798
690.731	2837
691.215	2855
691.7	2788
692.184	2817
692.669	2804
693.153	2823
693.638	2801
694.122	2816
694.607	2844
695.092	2786
695.577	2809
696.061	2753
696.546	2775
697.031	2764
697.516	2801
698.001	2786
698.486	2744
698.971	2759
699.456	2699
699.941	2724
700.426	2739
700.911	2761
701.396	2729
701.881	2732
702.366	2698
702.852	2677
703.337	2722
703.822	2735
704.308	2728
704.793	2725
705.278	2705
705.764	2697
706.249	2689
706.735	2712
707.22	2745
707.706	2702
708.191	2734
708.677	2715
709.163	2714
709.648	2746
710.134	2770
710.62	2734
711.106	2719
711.592	2734
712.077	2711
712.563	2655
713.049	2678
713.535	2747
714.021	2747
714.507	2728
714.993	2722
715.479	2761
715.966	2743
716.452	2770
716.938	2794
717.424	2719
717.91	2771
718.397	2734
718.883	2705
719.369	2717
719.856	2720
720.342	2778
720.829	2742
721.315	2744
721.802	2723
722.288	2733
722.775	2640
723.262	2581
723.748	2712
724.235	2682
724.722	2709
725.208	2635
725.695	2629
726.182	2619
726.669	2600
727.156	2644
727.643	2604
728.13	2594
728.617	2548
729.104	2539
729.591	2519
730.078	2554
730.565	2573
731.052	2545
731.539	2538
732.027	2509
732.514	2464
733.001	2494
733.488	2479
733.976	2498
734.463	2508
734.951	2512
735.438	2536
735.926	2501
736.413	2514
736.901	2509
737.388	2560
737.876	2561
738.364	2537
738.851	2545
739.339	2525
739.827	2548
740.314	2480
740.802	2532
741.29	2562
741.778	2541
742.266	2554
742.754	2545
743.242	2554
743.73	2507
744.218	2517
744.706	2513
745.194	2552
745.682	2518
746.17	2523
746.659	2497
747.147	2431
747.635	2453
748.123	2456
748.612	2443
749.1	2432
749.589	2441
750.077	2408
750.566	2385
751.054	2411
751.543	2422
752.031	2401
752.52	2428
753.008	2376
753.497	2372
753.986	2364
754.474	2340
754.963	2360
755.452	2353
755.941	2353
756.43	2355
756.919	2343
757.408	2305
757.896	2296
758.385	2292
758.875	2285
759.364	2281
759.853	2290
760.342	2269
760.831	2314
761.32	2289
761.809	2230
762.299	2255
762.788	2267
763.277	2279
763.767	2263
764.256	2269
764.745	2228
765.235	2253
765.724	2191
766.214	2226
766.703	2229
767.193	2225
767.683	2262
768.172	2240
768.662	2253
769.152	2238
769.641	2244
770.131	2200
770.621	2242
771.111	2234
771.601	2254
772.09	2238
772.58	2185
773.07	2171
773.56	2178
774.05	2139
774.54	2146
775.031	2150
775.521	2155
776.011	2150
776.501	2159
776.991	2100
777.482	2102
777.972	2052
778.462	2069
778.953	2110
779.443	2112
779.933	2098
780.424	2054
780.914	2062
781.405	2053
781.895	2037
782.386	2042
782.877	2042
783.367	2013
783.858	2011
784.349	1993
784.839	1962
785.33	1954
785.821	1932
786.312	1939
786.803	1950
787.293	1968
787.784	1954
788.275	1934
788.766	1901
789.257	1921
789.748	1876
790.24	1873
790.731	1896
791.222	1887
791.713	1906
792.204	1913
792.696	1861
793.187	1882
793.678	1860
794.169	1824
794.661	1875
795.152	1870
795.644	1878
796.135	1883
796.627	1872
797.118	1833
797.61	1813
798.101	1788
798.593	1822
799.085	1801
799.576	1819
800.068	1803
800.56	1802
801.052	1748
801.544	1736
802.035	1728
802.527	1705
803.019	1698
803.511	1700
804.003	1693
804.495	1705
804.987	1681
805.479	1623
805.971	1612
806.464	1609
806.956	1569
807.448	1577
807.94	1588
808.433	1592
808.925	1581
809.417	1562
809.91	1550
810.402	1511
810.894	1535
811.387	1554
811.879	1545
812.372	1563
812.865	1548
813.357	1543
813.85	1536
814.342	1522
814.835	1519
815.328	1527
815.821	1536
816.313	1556
816.806	1583
817.299	1571
817.792	1590
818.285	1571
818.778	1591
819.271	1586
819.764	1563
820.257	1592
820.75	1604
821.243	1618
821.736	1608
822.229	1619
822.722	1609
823.216	1623
