Data from lamp4bck_dubbel_Subt2__55__1055.txt Node

Date: Wed Apr 09 12:21:20 CEST 2025
User: fys-lab-0081
Spectrometer: S04999
Trigger mode: 0
Resolution mode: 1024 pixels
Integration Time (sec): 1.000000E-1
Scans to average: 1
Nonlinearity correction enabled: false
Boxcar width: 0
Baseline correction enabled: true
XAxis mode: Wavelengths
Number of Pixels in Spectrum: 1024
>>>>>Begin Spectral Data<<<<<
336.42	-2
336.877	-1
337.334	4
337.792	1
338.249	4
338.706	0
339.164	4
339.621	5
340.079	5
340.536	7
340.994	3
341.452	7
341.909	10
342.367	2
342.825	2
343.283	7
343.741	3
344.198	6
344.656	-7
345.114	3
345.572	8
346.03	2
346.488	3
346.947	4
347.405	9
347.863	4
348.321	3
348.779	6
349.238	-1
349.696	8
350.154	3
350.613	4
351.071	2
351.53	7
351.988	6
352.447	7
352.905	2
353.364	5
353.823	3
354.282	1
354.74	0
355.199	6
355.658	8
356.117	4
356.576	2
357.035	6
357.494	3
357.953	7
358.412	9
358.871	8
359.33	4
359.789	3
360.249	6
360.708	5
361.167	10
361.626	7
362.086	6
362.545	6
363.005	2
363.464	8
363.924	9
364.383	9
364.843	9
365.303	12
365.762	10
366.222	8
366.682	8
367.142	10
367.601	12
368.061	9
368.521	9
368.981	8
369.441	16
369.901	14
370.361	13
370.821	11
371.282	9
371.742	14
372.202	16
372.662	16
373.123	11
373.583	12
374.043	14
374.504	9
374.964	11
375.425	14
375.885	10
376.346	22
376.806	19
377.267	14
377.728	18
378.188	24
378.649	15
379.11	16
379.571	14
380.032	17
380.493	19
380.954	23
381.414	15
381.876	20
382.337	20
382.798	20
383.259	23
383.72	24
384.181	22
384.642	24
385.104	27
385.565	28
386.026	30
386.488	32
386.949	32
387.411	30
387.872	32
388.334	38
388.795	34
389.257	35
389.719	35
390.181	31
390.642	29
391.104	34
391.566	37
392.028	38
392.49	43
392.952	44
393.414	42
393.876	40
394.338	44
394.8	46
395.262	42
395.724	46
396.186	46
396.648	47
397.111	48
397.573	52
398.035	47
398.498	49
398.96	51
399.423	52
399.885	54
400.348	53
400.81	53
401.273	53
401.736	51
402.198	64
402.661	62
403.124	53
403.587	64
404.049	65.5
404.512	67
404.975	61
405.438	62
405.901	72
406.364	71
406.827	66
407.29	65
407.754	69
408.217	73
408.68	72
409.143	74
409.607	75
410.07	74
410.533	72
410.997	75
411.46	76
411.924	82
412.387	86
412.851	79
413.314	80
413.778	79
414.242	85
414.705	92
415.169	90
415.633	85
416.097	83
416.561	92
417.024	87
417.488	90
417.952	96
418.416	87
418.88	83
419.344	88
419.809	93
420.273	91
420.737	90
421.201	94
421.665	95
422.13	97
422.594	104
423.059	100
423.523	103
423.987	105
424.452	112
424.916	111
425.381	112
425.846	115
426.31	124
426.775	125
427.24	122
427.704	124
428.169	122
428.634	126
429.099	122
429.564	120
430.029	125
430.494	126
430.959	126
431.424	123
431.889	129
432.354	134
432.819	125
433.284	135
433.75	133
434.215	136
434.68	138
435.146	143
435.611	142
436.077	153
436.542	154
437.008	157
437.473	161
437.939	161
438.404	167
438.87	173
439.336	168
439.801	172
440.267	175
440.733	176
441.199	174
441.665	174
442.131	180
442.596	172
443.062	182
443.529	186
443.995	191
444.461	186
444.927	200
445.393	192
445.859	206
446.325	210
446.792	221
447.258	222
447.724	237
448.191	244
448.657	247
449.124	245
449.59	245
450.057	265
450.523	268
450.99	267
451.457	274
451.923	275
452.39	274
452.857	280
453.324	272
453.791	284
454.257	290
454.724	284
455.191	283
455.658	288
456.125	296
456.592	287
457.059	299
457.527	294
457.994	309
458.461	307
458.928	312
459.396	313
459.863	321
460.33	323
460.798	327
461.265	332
461.732	326
462.2	336
462.668	337
463.135	346
463.603	334
464.07	351
464.538	336
465.006	349
465.474	345
465.941	338
466.409	339
466.877	336
467.345	336
467.813	335
468.281	342
468.749	345
469.217	343
469.685	353
470.153	357
470.621	349
471.09	359
471.558	371
472.026	369
472.494	382
472.963	385
473.431	394
473.9	408
474.368	411
474.837	414
475.305	425
475.774	432
476.242	448
476.711	454
477.18	463
477.648	457
478.117	466
478.586	471
479.055	463
479.524	466
479.993	471
480.462	467
480.93	468
481.399	475
481.869	475
482.338	464
482.807	481
483.276	475
483.745	472
484.214	483
484.684	489
485.153	486
485.622	490
486.092	504
486.561	490
487.031	513
487.5	521
487.97	517
488.439	525
488.909	539
489.378	562
489.848	563
490.318	574
490.787	610
491.257	615
491.727	618
492.197	636
492.667	639
493.137	637
493.607	646
494.077	658
494.547	645
495.017	641
495.487	659
495.957	672
496.427	656
496.897	655
497.368	669
497.838	662
498.308	669
498.779	673
499.249	669
499.719	678
500.19	691
500.66	688
501.131	692
501.602	710
502.072	709
502.543	721
503.014	740
503.484	730
503.955	742
504.426	766
504.897	768
505.368	783
505.838	800
506.309	811
506.78	848
507.251	870
507.722	876
508.194	904
508.665	928
509.136	923
509.607	949
510.078	971
510.549	982
511.021	1014
511.492	1005
511.964	1025
512.435	1038
512.906	1026
513.378	1035
513.849	1061
514.321	1057
514.793	1060
515.264	1079
515.736	1081
516.208	1098
516.679	1103
517.151	1117
517.623	1130
518.095	1136
518.567	1144
519.038	1177
519.51	1180
519.982	1188
520.454	1213
520.927	1235
521.399	1249
521.871	1256
522.343	1267
522.815	1294
523.287	1289
523.76	1294
524.232	1315
524.704	1325
525.177	1289
525.649	1291
526.122	1318
526.594	1288
527.067	1315
527.539	1320
528.012	1325
528.484	1323
528.957	1319
529.43	1322
529.903	1327
530.375	1360
530.848	1315
531.321	1342
531.794	1352
532.267	1375
532.74	1350
533.213	1356
533.686	1379
534.159	1368
534.632	1387
535.105	1400
535.578	1430
536.051	1429
536.525	1418
536.998	1418
537.471	1448
537.945	1417
538.418	1425
538.891	1432
539.365	1469
539.838	1470
540.312	1463
540.786	1475
541.259	1498
541.733	1515
542.206	1512
542.68	1494
543.154	1510
543.628	1519
544.101	1548
544.575	1541
545.049	1524
545.523	1556
545.997	1542
546.471	1561
546.945	1553
547.419	1579
547.893	1490
548.367	1517
548.842	1499
549.316	1513
549.79	1514
550.264	1492
550.739	1503
551.213	1514
551.687	1499
552.162	1507
552.636	1502
553.111	1508
553.585	1534
554.06	1511
554.534	1548
555.009	1555
555.484	1577
555.958	1589
556.433	1597
556.908	1636
557.383	1622
557.858	1655
558.333	1656
558.807	1634
559.282	1665
559.757	1691
560.232	1679
560.708	1650
561.183	1645
561.658	1663
562.133	1649
562.608	1626
563.083	1693
563.559	1660
564.034	1660
564.509	1665
564.985	1683
565.46	1676
565.936	1697
566.411	1697
566.887	1682
567.362	1708
567.838	1710
568.313	1717
568.789	1706
569.265	1717
569.74	1735
570.216	1701
570.692	1720
571.168	1713
571.644	1733
572.12	1711
572.596	1717
573.071	1706
573.547	1745
574.024	1765
574.5	1759
574.976	1755
575.452	1786
575.928	1807
576.404	1812
576.881	1864
577.357	1832
577.833	1854
578.31	1904
578.786	1936
579.262	1969
579.739	1950
580.215	2023
580.692	2031
581.169	2016
581.645	2019
582.122	2085
582.598	2082
583.075	2086
583.552	2096
584.029	2089
584.506	2101
584.982	2077
585.459	2097
585.936	2048
586.413	2068
586.89	2109
587.367	2083
587.844	2095
588.321	2061
588.799	2075
589.276	2068
589.753	2102
590.23	2105
590.707	2091
591.185	2092
591.662	2102
592.139	2116
592.617	2150
593.094	2145
593.572	2181
594.049	2207
594.527	2224
595.004	2217
595.482	2283
595.96	2294
596.437	2304
596.915	2361
597.393	2325
597.871	2384
598.349	2367
598.826	2411
599.304	2397
599.782	2434
600.26	2378
600.738	2427
601.216	2411
601.694	2412
602.173	2411
602.651	2438
603.129	2435
603.607	2449
604.085	2448
604.564	2422
605.042	2431
605.52	2432
605.999	2507
606.477	2453
606.956	2458
607.434	2487.5
607.913	2517
608.391	2528
608.87	2530
609.348	2494
609.827	2514
610.306	2553
610.785	2576
611.263	2572
611.742	2561
612.221	2528
612.7	2582
613.179	2596
613.658	2548
614.137	2555
614.616	2558
615.095	2513
615.574	2556
616.053	2546
616.532	2497
617.011	2502
617.491	2519
617.97	2524
618.449	2540
618.928	2563
619.408	2549
619.887	2567
620.367	2592
620.846	2619
621.326	2608
621.805	2643
622.285	2650
622.764	2703
623.244	2730
623.724	2741
624.203	2765
624.683	2726
625.163	2811
625.643	2822
626.123	2808
626.602	2853
627.082	2791
627.562	2800
628.042	2888
628.522	2862
629.002	2842
629.482	2840
629.963	2837
630.443	2815
630.923	2815
631.403	2831
631.883	2787
632.364	2782
632.844	2779
633.324	2800
633.805	2814
634.285	2767
634.766	2732
635.246	2734
635.727	2757
636.207	2764
636.688	2764
637.168	2747
637.649	2715
638.13	2711
638.611	2740
639.091	2750
639.572	2734
640.053	2722
640.534	2761
641.015	2792
641.496	2746
641.977	2800
642.458	2774
642.939	2767
643.42	2792
643.901	2807
644.382	2825
644.863	2810
645.345	2807
645.826	2803
646.307	2810
646.788	2854
647.27	2814
647.751	2808
648.233	2806
648.714	2733
649.196	2819
649.677	2797
650.159	2782
650.64	2734
651.122	2769
651.603	2735
652.085	2773
652.567	2788
653.049	2760
653.53	2744
654.012	2774
654.494	2724
654.976	2773
655.458	2788
655.94	2784
656.422	2832
656.904	2800
657.386	2792
657.868	2820
658.35	2813
658.833	2836
659.315	2838
659.797	2805
660.279	2820
660.762	2860
661.244	2820
661.726	2788
662.209	2769
662.691	2762
663.174	2712
663.656	2722
664.139	2730
664.621	2677
665.104	2639
665.587	2655
666.069	2682
666.552	2683
667.035	2657
667.517	2651
668	2652
668.483	2644
668.966	2639
669.449	2646
669.932	2650
670.415	2669
670.898	2631
671.381	2620
671.864	2636
672.347	2638
672.83	2653
673.313	2668
673.797	2640
674.28	2684
674.763	2682
675.247	2709
675.73	2705
676.213	2736
676.697	2757
677.18	2755
677.664	2766
678.147	2782
678.631	2795
679.114	2819
679.598	2798
680.082	2793
680.565	2774
681.049	2778
681.533	2783
682.017	2815
682.5	2809
682.984	2802
683.468	2783
683.952	2725
684.436	2783
684.92	2746
685.404	2754
685.888	2763
686.372	2724
686.856	2734
687.341	2786
687.825	2770
688.309	2801
688.793	2798
689.278	2737
689.762	2772
690.246	2765
690.731	2802
691.215	2828
691.7	2760
692.184	2782
692.669	2776
693.153	2784
693.638	2764
694.122	2789
694.607	2800
695.092	2757
695.577	2771
696.061	2715
696.546	2741
697.031	2737
697.516	2759
698.001	2755
698.486	2713
698.971	2733
699.456	2668
699.941	2689
700.426	2697
700.911	2726
701.396	2691
701.881	2691
702.366	2659
702.852	2654
703.337	2690
703.822	2693
704.308	2695
704.793	2687
705.278	2674
705.764	2660
706.249	2650
706.735	2673
707.22	2706
707.706	2667
708.191	2696
708.677	2682
709.163	2674
709.648	2713
710.134	2742
710.62	2695
711.106	2683
711.592	2698
712.077	2690
712.563	2627
713.049	2649
713.535	2715
714.021	2713
714.507	2705
714.993	2686
715.479	2726
715.966	2713
716.452	2739
716.938	2774
717.424	2695
717.91	2746
718.397	2698
718.883	2673
719.369	2692
719.856	2693
720.342	2742
720.829	2712
721.315	2722
721.802	2698
722.288	2703
722.775	2617
723.262	2555
723.748	2678
724.235	2652
724.722	2678
725.208	2607
725.695	2601
726.182	2591
726.669	2575
727.156	2608
727.643	2577
728.13	2565
728.617	2534
729.104	2523
729.591	2493
730.078	2532
730.565	2543
731.052	2516
731.539	2509
732.027	2485
732.514	2441
733.001	2467
733.488	2469
733.976	2479
734.463	2489
734.951	2484
735.438	2504
735.926	2479
736.413	2495
736.901	2486
737.388	2527
737.876	2529
738.364	2506
738.851	2511
739.339	2498
739.827	2517
740.314	2453
740.802	2495
741.29	2533
741.778	2510
742.266	2516
742.754	2505
743.242	2524
743.73	2480
744.218	2494
744.706	2484
745.194	2519
745.682	2498
746.17	2496
746.659	2473
747.147	2400
747.635	2425
748.123	2434
748.612	2416
749.1	2406
749.589	2418
750.077	2393
750.566	2370
751.054	2386
751.543	2402
752.031	2370
752.52	2406
753.008	2376
753.497	2356
753.986	2354
754.474	2327
754.963	2356
755.452	2340
755.941	2336
756.43	2343
756.919	2335
757.408	2298
757.896	2286
758.385	2278
758.875	2261
759.364	2272
759.853	2283
760.342	2252
760.831	2299
761.32	2269
761.809	2219
762.299	2236
762.788	2244
763.277	2254
763.767	2250
764.256	2256
764.745	2218
765.235	2232
765.724	2168
766.214	2208
766.703	2220
767.193	2212
767.683	2245
768.172	2217
768.662	2232
769.152	2222
769.641	2225
770.131	2186
770.621	2218
771.111	2215
771.601	2230
772.09	2213
772.58	2169
773.07	2160
773.56	2159
774.05	2117
774.54	2124
775.031	2141
775.521	2143
776.011	2134
776.501	2140
776.991	2079
777.482	2084
777.972	2040
778.462	2053
778.953	2093
779.443	2095
779.933	2083
780.424	2045
780.914	2041
781.405	2044
781.895	2017
782.386	2022
782.877	2023
783.367	2002
783.858	1991
784.349	1986
784.839	1954
785.33	1942
785.821	1928
786.312	1923
786.803	1939
787.293	1962
787.784	1948
788.275	1914
788.766	1890
789.257	1908
789.748	1871
790.24	1852
790.731	1881
791.222	1876
791.713	1888
792.204	1900
792.696	1849
793.187	1861
793.678	1845
794.169	1804
794.661	1866
795.152	1854
795.644	1855
796.135	1865
796.627	1857
797.118	1819
797.61	1789
798.101	1768
798.593	1800
799.085	1779
799.576	1800
800.068	1787
800.56	1790
801.052	1736
801.544	1716
802.035	1727
802.527	1701
803.019	1687
803.511	1683
804.003	1685
804.495	1696
804.987	1670
805.479	1614
805.971	1610
806.464	1614
806.956	1561
807.448	1574
807.94	1580
808.433	1588
808.925	1573
809.417	1558
809.91	1549
810.402	1512
810.894	1518
811.387	1546
811.879	1531
812.372	1551
812.865	1550
813.357	1535
813.85	1518
814.342	1502
814.835	1510
815.328	1522
815.821	1517
816.313	1540
816.806	1567
817.299	1562
817.792	1579
818.285	1562
818.778	1573
819.271	1577
819.764	1557
820.257	1582
820.75	1585
821.243	1607
821.736	1594
822.229	1602
822.722	1594
823.216	1618
