Data from lamp4bck_dubbel_Subt2__62__1062.txt Node

Date: Wed Apr 09 12:21:21 CEST 2025
User: fys-lab-0081
Spectrometer: S04999
Trigger mode: 0
Resolution mode: 1024 pixels
Integration Time (sec): 1.000000E-1
Scans to average: 1
Nonlinearity correction enabled: false
Boxcar width: 0
Baseline correction enabled: true
XAxis mode: Wavelengths
Number of Pixels in Spectrum: 1024
>>>>>Begin Spectral Data<<<<<
336.42	-1
336.877	4
337.334	1
337.792	3
338.249	5
338.706	2
339.164	1
339.621	6
340.079	5
340.536	4
340.994	7
341.452	9
341.909	9
342.367	4
342.825	3
343.283	7
343.741	2
344.198	5
344.656	4
345.114	-2
345.572	7
346.03	6
346.488	3
346.947	2
347.405	7
347.863	1
348.321	0
348.779	6
349.238	0
349.696	7
350.154	3
350.613	6
351.071	4
351.53	10
351.988	7
352.447	4
352.905	5
353.364	3
353.823	7
354.282	0
354.74	1
355.199	9
355.658	10
356.117	5
356.576	5
357.035	1
357.494	5
357.953	4
358.412	7
358.871	6
359.33	8
359.789	4
360.249	7
360.708	6
361.167	8
361.626	8
362.086	9
362.545	5
363.005	5
363.464	5
363.924	9
364.383	7
364.843	9
365.303	10
365.762	12
366.222	11
366.682	7
367.142	5
367.601	8
368.061	7
368.521	14
368.981	8
369.441	13
369.901	15
370.361	14
370.821	6
371.282	7
371.742	9
372.202	11
372.662	15
373.123	11
373.583	9
374.043	14
374.504	13
374.964	11
375.425	12
375.885	14
376.346	19
376.806	21
377.267	13
377.728	19
378.188	17
378.649	16
379.11	20
379.571	15
380.032	17
380.493	20
380.954	21
381.414	19
381.876	20
382.337	19
382.798	24
383.259	22
383.72	19
384.181	20
384.642	25
385.104	29
385.565	26
386.026	29
386.488	27
386.949	27
387.411	31
387.872	28
388.334	31
388.795	32
389.257	35
389.719	29
390.181	39
390.642	32
391.104	33
391.566	35
392.028	37
392.49	41
392.952	42
393.414	42
393.876	43
394.338	43
394.8	42
395.262	37
395.724	50
396.186	47
396.648	46
397.111	49
397.573	51
398.035	49
398.498	53
398.96	50
399.423	50
399.885	47
400.348	54
400.81	57
401.273	54
401.736	53
402.198	64
402.661	60
403.124	55
403.587	64
404.049	64.5
404.512	65
404.975	63
405.438	67
405.901	69
406.364	71
406.827	70
407.29	69
407.754	64
408.217	72
408.68	67
409.143	72
409.607	79
410.07	73
410.533	71
410.997	76
411.46	74
411.924	83
412.387	82
412.851	77
413.314	81
413.778	84
414.242	82
414.705	90
415.169	90
415.633	86
416.097	84
416.561	91
417.024	92
417.488	87
417.952	91
418.416	88
418.88	84
419.344	85
419.809	91
420.273	92
420.737	95
421.201	98
421.665	98
422.13	100
422.594	105
423.059	103
423.523	102
423.987	99
424.452	111
424.916	111
425.381	118
425.846	112
426.31	122
426.775	124
427.24	124
427.704	121
428.169	126
428.634	125
429.099	123
429.564	125
430.029	123
430.494	121
430.959	124
431.424	124
431.889	134
432.354	132
432.819	125
433.284	132
433.75	130
434.215	140
434.68	139
435.146	136
435.611	147
436.077	143
436.542	153
437.008	161
437.473	164
437.939	159
438.404	169
438.87	174
439.336	167
439.801	172
440.267	173
440.733	180
441.199	174
441.665	177
442.131	180
442.596	177
443.062	182
443.529	190
443.995	190
444.461	194
444.927	198
445.393	197
445.859	206
446.325	210
446.792	226
447.258	223
447.724	235
448.191	238
448.657	243
449.124	244
449.59	247
450.057	259
450.523	266
450.99	274
451.457	272
451.923	277
452.39	271
452.857	283
453.324	277
453.791	283
454.257	289
454.724	289
455.191	284
455.658	289
456.125	291
456.592	290
457.059	297
457.527	300
457.994	305
458.461	307
458.928	317
459.396	315
459.863	325
460.33	321
460.798	326
461.265	336
461.732	333
462.2	340
462.668	340
463.135	344
463.603	336
464.07	352
464.538	341
465.006	345
465.474	344
465.941	340
466.409	343
466.877	338
467.345	340
467.813	337
468.281	346
468.749	347
469.217	345
469.685	353
470.153	354
470.621	356
471.09	357
471.558	373
472.026	367
472.494	379
472.963	385
473.431	392
473.9	401
474.368	413
474.837	414
475.305	428
475.774	435
476.242	446
476.711	452
477.18	465
477.648	460
478.117	467
478.586	465
479.055	466
479.524	469
479.993	474
480.462	465
480.93	463
481.399	476
481.869	482
482.338	467
482.807	479
483.276	476
483.745	475
484.214	485
484.684	486
485.153	484
485.622	490
486.092	505
486.561	491
487.031	511
487.5	517
487.97	520
488.439	524
488.909	538
489.378	564
489.848	562
490.318	578
490.787	615
491.257	614
491.727	625
492.197	635
492.667	639
493.137	642
493.607	651
494.077	660
494.547	648
495.017	641
495.487	656
495.957	671
496.427	656
496.897	660
497.368	669
497.838	657
498.308	668
498.779	670
499.249	679
499.719	677
500.19	694
500.66	689
501.131	696
501.602	708
502.072	708
502.543	718
503.014	734
503.484	732
503.955	747
504.426	765
504.897	765
505.368	795
505.838	806
506.309	813
506.78	847
507.251	872
507.722	886
508.194	907
508.665	922
509.136	925
509.607	949
510.078	971
510.549	988
511.021	1012
511.492	1005
511.964	1023
512.435	1042
512.906	1030
513.378	1036
513.849	1061
514.321	1055
514.793	1063
515.264	1080
515.736	1082
516.208	1098
516.679	1100
517.151	1123
517.623	1128
518.095	1134
518.567	1145
519.038	1183
519.51	1183
519.982	1193
520.454	1212
520.927	1232
521.399	1250
521.871	1262
522.343	1277
522.815	1300
523.287	1293
523.76	1298
524.232	1319
524.704	1329
525.177	1299
525.649	1302
526.122	1329
526.594	1293
527.067	1314
527.539	1327
528.012	1328
528.484	1334
528.957	1328
529.43	1326
529.903	1333
530.375	1362
530.848	1319
531.321	1344
531.794	1354
532.267	1376
532.74	1354
533.213	1360
533.686	1393
534.159	1377
534.632	1400
535.105	1401
535.578	1434
536.051	1424
536.525	1418
536.998	1421
537.471	1447
537.945	1423
538.418	1432
538.891	1440
539.365	1474
539.838	1474
540.312	1464
540.786	1479
541.259	1495
541.733	1518
542.206	1513
542.68	1500
543.154	1515
543.628	1519
544.101	1554
544.575	1547
545.049	1526
545.523	1559
545.997	1544
546.471	1557
546.945	1558
547.419	1586
547.893	1495
548.367	1519
548.842	1507
549.316	1518
549.79	1522
550.264	1502
550.739	1511
551.213	1523
551.687	1511
552.162	1511
552.636	1508
553.111	1506
553.585	1541
554.06	1515
554.534	1549
555.009	1556
555.484	1588
555.958	1586
556.433	1606
556.908	1643
557.383	1628
557.858	1664
558.333	1665
558.807	1643
559.282	1666
559.757	1694
560.232	1682
560.708	1654
561.183	1650
561.658	1660
562.133	1653
562.608	1632
563.083	1694
563.559	1662
564.034	1665
564.509	1665
564.985	1682
565.46	1679
565.936	1697
566.411	1696
566.887	1684
567.362	1713
567.838	1716
568.313	1729
568.789	1713
569.265	1725
569.74	1734
570.216	1715
570.692	1729
571.168	1721
571.644	1736
572.12	1719
572.596	1722
573.071	1695
573.547	1747
574.024	1770
574.5	1764
574.976	1764
575.452	1795
575.928	1817
576.404	1820
576.881	1857
577.357	1844
577.833	1864
578.31	1917
578.786	1943
579.262	1967
579.739	1951
580.215	2032
580.692	2036
581.169	2000
581.645	2027
582.122	2098
582.598	2088
583.075	2089
583.552	2091
584.029	2094
584.506	2096
584.982	2087
585.459	2102
585.936	2051
586.413	2081
586.89	2118
587.367	2079
587.844	2091
588.321	2068
588.799	2082
589.276	2074
589.753	2111
590.23	2107
590.707	2099
591.185	2099
591.662	2103
592.139	2122
592.617	2145
593.094	2150
593.572	2179
594.049	2209
594.527	2224
595.004	2216
595.482	2283
595.96	2290
596.437	2305
596.915	2362
597.393	2334
597.871	2393
598.349	2369
598.826	2418
599.304	2401
599.782	2432
600.26	2393
600.738	2442
601.216	2423
601.694	2410
602.173	2414
602.651	2446
603.129	2443
603.607	2452
604.085	2457
604.564	2441
605.042	2445
605.52	2441
605.999	2515
606.477	2460
606.956	2461
607.434	2493
607.913	2525
608.391	2544
608.87	2540
609.348	2501
609.827	2522
610.306	2555
610.785	2580
611.263	2586
611.742	2561
612.221	2526
612.7	2590
613.179	2596
613.658	2544
614.137	2559
614.616	2572
615.095	2524
615.574	2550
616.053	2548
616.532	2506
617.011	2515
617.491	2524
617.97	2524
618.449	2548
618.928	2565
619.408	2546
619.887	2570
620.367	2589
620.846	2628
621.326	2608
621.805	2652
622.285	2653
622.764	2703
623.244	2734
623.724	2742
624.203	2765
624.683	2730
625.163	2813
625.643	2824
626.123	2810
626.602	2866
627.082	2790
627.562	2805
628.042	2886
628.522	2861
629.002	2850
629.482	2835
629.963	2839
630.443	2816
630.923	2814
631.403	2829
631.883	2790
632.364	2787
632.844	2782
633.324	2803
633.805	2821
634.285	2766
634.766	2734
635.246	2740
635.727	2753
636.207	2774
636.688	2770
637.168	2748
637.649	2727
638.13	2713
638.611	2746
639.091	2749
639.572	2738
640.053	2723
640.534	2765
641.015	2793
641.496	2754
641.977	2802
642.458	2764
642.939	2775
643.42	2789
643.901	2811
644.382	2833
644.863	2820
645.345	2796
645.826	2803
646.307	2809
646.788	2856
647.27	2796
647.751	2803
648.233	2805
648.714	2732
649.196	2811
649.677	2794
650.159	2784
650.64	2741
651.122	2760
651.603	2730
652.085	2774
652.567	2786
653.049	2763
653.53	2748
654.012	2770
654.494	2735
654.976	2776
655.458	2784
655.94	2790
656.422	2834
656.904	2817
657.386	2790
657.868	2811
658.35	2810
658.833	2833
659.315	2827
659.797	2793
660.279	2815
660.762	2853
661.244	2832
661.726	2779
662.209	2763
662.691	2764
663.174	2704
663.656	2721
664.139	2725
664.621	2679
665.104	2633
665.587	2652
666.069	2678
666.552	2679
667.035	2663
667.517	2639
668	2641
668.483	2643
668.966	2631
669.449	2638
669.932	2643
670.415	2664
670.898	2631
671.381	2616
671.864	2624
672.347	2628
672.83	2650
673.313	2662
673.797	2634
674.28	2679
674.763	2663
675.247	2699
675.73	2708
676.213	2732
676.697	2761
677.18	2754
677.664	2765
678.147	2774
678.631	2800
679.114	2821
679.598	2796
680.082	2792
680.565	2775
681.049	2771
681.533	2791
682.017	2817
682.5	2803
682.984	2800
683.468	2778
683.952	2729
684.436	2786
684.92	2744
685.404	2752
685.888	2771
686.372	2728
686.856	2723
687.341	2779
687.825	2769
688.309	2794
688.793	2785
689.278	2733
689.762	2756
690.246	2758
690.731	2795
691.215	2803
691.7	2738
692.184	2762
692.669	2767
693.153	2779
693.638	2751
694.122	2770
694.607	2794
695.092	2752
695.577	2763
696.061	2707
696.546	2725
697.031	2717
697.516	2751
698.001	2745
698.486	2697
698.971	2717
699.456	2658
699.941	2676
700.426	2690
700.911	2717
701.396	2681
701.881	2679
702.366	2652
702.852	2643
703.337	2676
703.822	2688
704.308	2682
704.793	2681
705.278	2659
705.764	2649
706.249	2643
706.735	2665
707.22	2699
707.706	2650
708.191	2685
708.677	2675
709.163	2670
709.648	2697
710.134	2726
710.62	2684
711.106	2672
711.592	2694
712.077	2672
712.563	2608
713.049	2630
713.535	2708
714.021	2695
714.507	2694
714.993	2671
715.479	2717
715.966	2694
716.452	2725
716.938	2750
717.424	2675
717.91	2731
718.397	2686
718.883	2662
719.369	2677
719.856	2676
720.342	2728
720.829	2705
721.315	2708
721.802	2681
722.288	2693
722.775	2609
723.262	2543
723.748	2669
724.235	2643
724.722	2663
725.208	2586
725.695	2587
726.182	2578
726.669	2563
727.156	2595
727.643	2565
728.13	2559
728.617	2519
729.104	2510
729.591	2481
730.078	2513
730.565	2540
731.052	2498
731.539	2501
732.027	2466
732.514	2428
733.001	2446
733.488	2449
733.976	2464
734.463	2470
734.951	2469
735.438	2489
735.926	2457
736.413	2473
736.901	2466
737.388	2502
737.876	2509
738.364	2487
738.851	2483
739.339	2474
739.827	2490
740.314	2433
740.802	2473
741.29	2517
741.778	2497
742.266	2504
742.754	2496
743.242	2507
743.73	2464
744.218	2474
744.706	2468
745.194	2506
745.682	2473
746.17	2480
746.659	2452
747.147	2382
747.635	2410
748.123	2416
748.612	2400
749.1	2390
749.589	2402
750.077	2384
750.566	2353
751.054	2355
751.543	2384
752.031	2363
752.52	2396
753.008	2343
753.497	2336
753.986	2328
754.474	2301
754.963	2332
755.452	2315
755.941	2315
756.43	2326
756.919	2312
757.408	2272
757.896	2269
758.385	2256
758.875	2246
759.364	2251
759.853	2255
760.342	2240
760.831	2281
761.32	2247
761.809	2206
762.299	2218
762.788	2231
763.277	2243
763.767	2227
764.256	2235
764.745	2195
765.235	2204
765.724	2148
766.214	2182
766.703	2192
767.193	2185
767.683	2222
768.172	2189
768.662	2212
769.152	2192
769.641	2199
770.131	2153
770.621	2201
771.111	2189
771.601	2214
772.09	2198
772.58	2144
773.07	2134
773.56	2138
774.05	2091
774.54	2106
775.031	2106
775.521	2107
776.011	2114
776.501	2120
776.991	2054
777.482	2063
777.972	2016
778.462	2033
778.953	2068
779.443	2072
779.933	2061
780.424	2018
780.914	2018
781.405	2021
781.895	1996
782.386	2000
782.877	2005
783.367	1982
783.858	1958
784.349	1961
784.839	1930
785.33	1913
785.821	1896
786.312	1897
786.803	1914
787.293	1935
787.784	1919
788.275	1887
788.766	1860
789.257	1881
789.748	1836
790.24	1831
790.731	1855
791.222	1853
791.713	1872
792.204	1877
792.696	1822
793.187	1838
793.678	1828
794.169	1790
794.661	1848
795.152	1842
795.644	1846
796.135	1850
796.627	1837
797.118	1804
797.61	1781
798.101	1753
798.593	1783
799.085	1758
799.576	1779
800.068	1767
800.56	1767
801.052	1717
801.544	1698
802.035	1702
802.527	1681
803.019	1669
803.511	1664
804.003	1669
804.495	1673
804.987	1650
805.479	1593
805.971	1591
806.464	1583
806.956	1545
807.448	1552
807.94	1561
808.433	1564
808.925	1551
809.417	1536
809.91	1522
810.402	1492
810.894	1504
811.387	1525
811.879	1519
812.372	1536
812.865	1525
813.357	1517
813.85	1504
814.342	1493
814.835	1489
815.328	1505
815.821	1495
816.313	1526
816.806	1545
817.299	1545
817.792	1563
818.285	1538
818.778	1552
819.271	1554
819.764	1535
820.257	1550
820.75	1559
821.243	1582
821.736	1574
822.229	1581
822.722	1573
823.216	1592
