Data from lamp4bck_dubbel_Subt2__66__1066.txt Node

Date: Wed Apr 09 12:21:21 CEST 2025
User: fys-lab-0081
Spectrometer: S04999
Trigger mode: 0
Resolution mode: 1024 pixels
Integration Time (sec): 1.000000E-1
Scans to average: 1
Nonlinearity correction enabled: false
Boxcar width: 0
Baseline correction enabled: true
XAxis mode: Wavelengths
Number of Pixels in Spectrum: 1024
>>>>>Begin Spectral Data<<<<<
336.42	-1
336.877	5
337.334	1
337.792	5
338.249	2
338.706	3
339.164	1
339.621	2
340.079	7
340.536	5
340.994	3
341.452	4
341.909	4
342.367	3
342.825	0
343.283	7
343.741	3
344.198	-2
344.656	3
345.114	3
345.572	5
346.03	2
346.488	2
346.947	4
347.405	1
347.863	6
348.321	2
348.779	7
349.238	4
349.696	3
350.154	-5
350.613	2
351.071	7
351.53	7
351.988	6
352.447	2
352.905	3
353.364	4
353.823	4
354.282	5
354.74	2
355.199	5
355.658	8
356.117	6
356.576	7
357.035	6
357.494	3
357.953	5
358.412	8
358.871	9
359.33	7
359.789	2
360.249	7
360.708	7
361.167	13
361.626	8
362.086	7
362.545	9
363.005	7
363.464	5
363.924	11
364.383	6
364.843	9
365.303	7
365.762	13
366.222	10
366.682	6
367.142	11
367.601	10
368.061	10
368.521	13
368.981	7
369.441	16
369.901	14
370.361	8
370.821	10
371.282	13
371.742	12
372.202	11
372.662	15
373.123	7
373.583	14
374.043	15
374.504	11
374.964	10
375.425	16
375.885	10
376.346	17
376.806	18
377.267	17
377.728	20
378.188	20
378.649	18
379.11	19
379.571	13
380.032	19
380.493	21
380.954	24
381.414	22
381.876	15
382.337	20
382.798	19
383.259	23
383.72	22
384.181	20
384.642	24
385.104	23
385.565	27
386.026	35
386.488	27
386.949	28
387.411	33
387.872	33
388.334	33
388.795	31
389.257	35
389.719	34
390.181	36
390.642	33
391.104	35
391.566	37
392.028	40
392.49	45
392.952	41
393.414	43
393.876	44
394.338	40
394.8	43
395.262	40
395.724	46
396.186	47
396.648	47
397.111	47
397.573	49
398.035	50
398.498	50
398.96	52
399.423	48
399.885	52
400.348	54
400.81	56
401.273	51
401.736	51
402.198	62
402.661	62
403.124	53
403.587	62
404.049	63
404.512	64
404.975	64
405.438	66
405.901	67
406.364	70
406.827	70
407.29	68
407.754	65
408.217	66
408.68	69
409.143	73
409.607	75
410.07	73
410.533	71
410.997	72
411.46	77
411.924	80
412.387	82
412.851	84
413.314	82
413.778	83
414.242	86
414.705	90
415.169	87
415.633	89
416.097	83
416.561	92
417.024	89
417.488	88
417.952	91
418.416	85
418.88	87
419.344	87
419.809	91
420.273	91
420.737	91
421.201	94
421.665	98
422.13	98
422.594	104
423.059	102
423.523	104
423.987	104
424.452	106
424.916	110
425.381	117
425.846	113
426.31	123
426.775	124
427.24	121
427.704	121
428.169	127
428.634	129
429.099	125
429.564	121
430.029	124
430.494	120
430.959	124
431.424	123
431.889	131
432.354	132
432.819	128
433.284	134
433.75	128
434.215	139
434.68	136
435.146	138
435.611	146
436.077	150
436.542	153
437.008	161
437.473	164
437.939	161
438.404	170
438.87	174
439.336	166
439.801	172
440.267	171
440.733	179
441.199	172
441.665	176
442.131	181
442.596	170
443.062	179
443.529	188
443.995	192
444.461	191
444.927	195
445.393	198
445.859	207
446.325	211
446.792	220
447.258	223
447.724	233
448.191	244
448.657	241
449.124	246
449.59	242
450.057	262
450.523	265
450.99	271
451.457	267
451.923	274
452.39	273
452.857	284
453.324	276
453.791	276
454.257	283
454.724	286
455.191	283
455.658	293
456.125	295
456.592	289
457.059	295
457.527	296
457.994	307
458.461	303
458.928	312
459.396	315
459.863	320
460.33	316
460.798	327
461.265	327
461.732	324
462.2	339
462.668	340
463.135	344
463.603	334
464.07	348
464.538	336
465.006	345
465.474	343
465.941	341
466.409	335
466.877	338
467.345	341
467.813	332
468.281	344
468.749	347
469.217	346
469.685	355
470.153	357
470.621	355
471.09	355
471.558	375
472.026	369
472.494	379
472.963	380
473.431	391
473.9	402
474.368	410
474.837	413
475.305	426
475.774	431
476.242	447
476.711	451
477.18	464
477.648	459
478.117	465
478.586	466
479.055	461
479.524	470
479.993	469
480.462	466
480.93	466
481.399	473
481.869	476
482.338	469
482.807	477
483.276	477
483.745	477
484.214	484
484.684	486
485.153	485
485.622	491
486.092	502
486.561	492
487.031	508
487.5	514
487.97	520
488.439	528
488.909	541
489.378	563
489.848	561
490.318	579
490.787	608
491.257	612
491.727	616
492.197	632
492.667	634
493.137	642
493.607	647
494.077	653
494.547	638
495.017	640
495.487	660
495.957	667
496.427	652
496.897	658
497.368	671
497.838	659
498.308	666
498.779	671
499.249	673
499.719	677
500.19	688
500.66	683
501.131	694
501.602	707
502.072	706
502.543	716
503.014	734
503.484	733
503.955	741
504.426	768
504.897	766
505.368	787
505.838	805
506.309	811
506.78	844
507.251	862
507.722	883
508.194	903
508.665	920
509.136	918
509.607	947
510.078	970
510.549	982
511.021	1004
511.492	999
511.964	1026
512.435	1035
512.906	1026
513.378	1038
513.849	1056
514.321	1060
514.793	1057
515.264	1066
515.736	1083
516.208	1094
516.679	1097
517.151	1117
517.623	1123
518.095	1138
518.567	1143
519.038	1180
519.51	1185
519.982	1189
520.454	1212
520.927	1231
521.399	1245
521.871	1255
522.343	1270
522.815	1295
523.287	1286
523.76	1290
524.232	1311
524.704	1318
525.177	1298
525.649	1289
526.122	1316
526.594	1290
527.067	1307
527.539	1318
528.012	1328
528.484	1319
528.957	1320
529.43	1316
529.903	1325
530.375	1356
530.848	1313
531.321	1341
531.794	1350
532.267	1374
532.74	1341
533.213	1353
533.686	1388
534.159	1371
534.632	1392
535.105	1396
535.578	1425
536.051	1423
536.525	1413
536.998	1412
537.471	1448
537.945	1420
538.418	1425
538.891	1431
539.365	1459
539.838	1468
540.312	1461
540.786	1472
541.259	1490
541.733	1513
542.206	1515
542.68	1493
543.154	1507
543.628	1519
544.101	1549
544.575	1542
545.049	1519
545.523	1555
545.997	1541
546.471	1551
546.945	1560
547.419	1574
547.893	1490
548.367	1509
548.842	1505
549.316	1508
549.79	1511
550.264	1498
550.739	1503
551.213	1515
551.687	1499
552.162	1508
552.636	1501
553.111	1500
553.585	1536
554.06	1510
554.534	1546
555.009	1549
555.484	1575
555.958	1581
556.433	1602
556.908	1635
557.383	1621
557.858	1652
558.333	1656
558.807	1643
559.282	1661
559.757	1695
560.232	1679
560.708	1643
561.183	1649
561.658	1656
562.133	1642
562.608	1624
563.083	1685
563.559	1655
564.034	1656
564.509	1661
564.985	1683
565.46	1678
565.936	1699
566.411	1696
566.887	1677
567.362	1710
567.838	1706
568.313	1722
568.789	1707
569.265	1718
569.74	1728
570.216	1702
570.692	1725
571.168	1711
571.644	1724
572.12	1709
572.596	1720
573.071	1694
573.547	1742
574.024	1766
574.5	1756
574.976	1754
575.452	1781
575.928	1803
576.404	1817
576.881	1868
577.357	1830
577.833	1854
578.31	1916
578.786	1933
579.262	1964
579.739	1948
580.215	2017
580.692	2028
581.169	2007
581.645	2021
582.122	2086
582.598	2085
583.075	2084
583.552	2091
584.029	2087
584.506	2094
584.982	2070
585.459	2108
585.936	2043
586.413	2068
586.89	2111
587.367	2083
587.844	2089
588.321	2057
588.799	2067
589.276	2066
589.753	2101
590.23	2105
590.707	2094
591.185	2092
591.662	2103
592.139	2116
592.617	2143
593.094	2144
593.572	2174
594.049	2208
594.527	2222
595.004	2217
595.482	2277
595.96	2292
596.437	2301
596.915	2359
597.393	2329
597.871	2388
598.349	2371
598.826	2415
599.304	2395
599.782	2428
600.26	2382
600.738	2437
601.216	2411
601.694	2405
602.173	2416
602.651	2445
603.129	2438
603.607	2449
604.085	2445
604.564	2429
605.042	2433
605.52	2433
605.999	2514
606.477	2452
606.956	2454
607.434	2490
607.913	2526
608.391	2538
608.87	2528
609.348	2497
609.827	2518
610.306	2551
610.785	2576
611.263	2574
611.742	2558
612.221	2523
612.7	2581
613.179	2594
613.658	2545
614.137	2556
614.616	2563
615.095	2515
615.574	2541
616.053	2550
616.532	2496
617.011	2505
617.491	2523
617.97	2518
618.449	2548
618.928	2551
619.408	2541
619.887	2566
620.367	2590
620.846	2626
621.326	2611
621.805	2648
622.285	2646
622.764	2709
623.244	2726
623.724	2742
624.203	2773
624.683	2735
625.163	2811
625.643	2830
626.123	2811
626.602	2853
627.082	2793
627.562	2802
628.042	2888
628.522	2863
629.002	2843
629.482	2844
629.963	2830
630.443	2816
630.923	2819
631.403	2824
631.883	2790
632.364	2791
632.844	2773
633.324	2809
633.805	2807
634.285	2769
634.766	2739
635.246	2737
635.727	2754
636.207	2763
636.688	2767
637.168	2750
637.649	2712
638.13	2705
638.611	2734
639.091	2740
639.572	2747
640.053	2724
640.534	2757
641.015	2786
641.496	2752
641.977	2804
642.458	2770
642.939	2773
643.42	2789
643.901	2808
644.382	2833
644.863	2814
645.345	2802
645.826	2796
646.307	2799
646.788	2854
647.27	2811
647.751	2803
648.233	2807
648.714	2737
649.196	2812
649.677	2798
650.159	2787
650.64	2745
651.122	2769
651.603	2734
652.085	2774
652.567	2789
653.049	2759
653.53	2750
654.012	2778
654.494	2730
654.976	2783
655.458	2789
655.94	2784
656.422	2839
656.904	2815
657.386	2789
657.868	2819
658.35	2821
658.833	2840
659.315	2834
659.797	2806
660.279	2816
660.762	2856
661.244	2830
661.726	2790
662.209	2769
662.691	2764
663.174	2704
663.656	2726
664.139	2729
664.621	2677
665.104	2637
665.587	2657
666.069	2677
666.552	2680
667.035	2658
667.517	2644
668	2651
668.483	2647
668.966	2632
669.449	2645
669.932	2647
670.415	2668
670.898	2631
671.381	2622
671.864	2635
672.347	2631
672.83	2652
673.313	2672
673.797	2645
674.28	2685
674.763	2676
675.247	2695
675.73	2703
676.213	2739
676.697	2757
677.18	2756
677.664	2758
678.147	2779
678.631	2799
679.114	2822
679.598	2796
680.082	2787
680.565	2780
681.049	2776
681.533	2785
682.017	2817
682.5	2806
682.984	2810
683.468	2785
683.952	2725
684.436	2777
684.92	2745
685.404	2753
685.888	2775
686.372	2735
686.856	2738
687.341	2789
687.825	2776
688.309	2794
688.793	2788
689.278	2741
689.762	2762
690.246	2759
690.731	2800
691.215	2820
691.7	2753
692.184	2772
692.669	2772
693.153	2777
693.638	2753
694.122	2777
694.607	2798
695.092	2748
695.577	2770
696.061	2719
696.546	2731
697.031	2729
697.516	2766
698.001	2753
698.486	2703
698.971	2723
699.456	2666
699.941	2685
700.426	2697
700.911	2724
701.396	2690
701.881	2681
702.366	2652
702.852	2647
703.337	2686
703.822	2689
704.308	2688
704.793	2681
705.278	2667
705.764	2663
706.249	2643
706.735	2678
707.22	2704
707.706	2664
708.191	2697
708.677	2680
709.163	2667
709.648	2704
710.134	2726
710.62	2691
711.106	2679
711.592	2693
712.077	2682
712.563	2613
713.049	2640
713.535	2714
714.021	2697
714.507	2701
714.993	2676
715.479	2729
715.966	2708
716.452	2737
716.938	2762
717.424	2685
717.91	2743
718.397	2702
718.883	2670
719.369	2688
719.856	2686
720.342	2738
720.829	2714
721.315	2712
721.802	2690
722.288	2702
722.775	2611
723.262	2547
723.748	2676
724.235	2650
724.722	2673
725.208	2599
725.695	2594
726.182	2587
726.669	2569
727.156	2609
727.643	2570
728.13	2563
728.617	2529
729.104	2516
729.591	2498
730.078	2533
730.565	2541
731.052	2512
731.539	2523
732.027	2481
732.514	2445
733.001	2467
733.488	2468
733.976	2484
734.463	2483
734.951	2483
735.438	2509
735.926	2476
736.413	2488
736.901	2479
737.388	2516
737.876	2521
738.364	2500
738.851	2505
739.339	2492
739.827	2503
740.314	2441
740.802	2488
741.29	2519
741.778	2508
742.266	2511
742.754	2506
743.242	2530
743.73	2473
744.218	2490
744.706	2477
745.194	2510
745.682	2484
746.17	2490
746.659	2465
747.147	2398
747.635	2415
748.123	2419
748.612	2419
749.1	2401
749.589	2422
750.077	2393
750.566	2367
751.054	2381
751.543	2397
752.031	2377
752.52	2404
753.008	2354
753.497	2348
753.986	2346
754.474	2321
754.963	2339
755.452	2327
755.941	2333
756.43	2339
756.919	2326
757.408	2284
757.896	2281
758.385	2268
758.875	2261
759.364	2266
759.853	2270
760.342	2243
760.831	2294
761.32	2260
761.809	2210
762.299	2224
762.788	2241
763.277	2250
763.767	2225
764.256	2247
764.745	2206
765.235	2228
765.724	2158
766.214	2188
766.703	2201
767.193	2192
767.683	2232
768.172	2204
768.662	2230
769.152	2207
769.641	2217
770.131	2167
770.621	2207
771.111	2203
771.601	2229
772.09	2201
772.58	2155
773.07	2150
773.56	2154
774.05	2102
774.54	2115
775.031	2129
775.521	2123
776.011	2129
776.501	2141
776.991	2080
777.482	2080
777.972	2032
778.462	2054
778.953	2088
779.443	2090
779.933	2075
780.424	2038
780.914	2044
781.405	2038
781.895	2010
782.386	2011
782.877	2018
783.367	1994
783.858	1978
784.349	1982
784.839	1935
785.33	1930
785.821	1917
786.312	1908
786.803	1928
787.293	1942
787.784	1929
788.275	1906
788.766	1875
789.257	1893
789.748	1844
790.24	1843
790.731	1868
791.222	1853
791.713	1873
792.204	1890
792.696	1836
793.187	1851
793.678	1829
794.169	1800
794.661	1855
795.152	1846
795.644	1858
796.135	1854
796.627	1856
797.118	1810
797.61	1780
798.101	1763
798.593	1792
799.085	1772
799.576	1793
800.068	1776
800.56	1779
801.052	1728
801.544	1714
802.035	1710
802.527	1692
803.019	1686
803.511	1682
804.003	1690
804.495	1687
804.987	1666
805.479	1613
805.971	1596
806.464	1604
806.956	1556
807.448	1568
807.94	1580
808.433	1583
808.925	1567
809.417	1551
809.91	1540
810.402	1499
810.894	1521
811.387	1536
811.879	1525
812.372	1547
812.865	1539
813.357	1537
813.85	1510
814.342	1494
814.835	1499
815.328	1514
815.821	1512
816.313	1527
816.806	1555
817.299	1555
817.792	1576
818.285	1550
818.778	1568
819.271	1569
819.764	1550
820.257	1564
820.75	1577
821.243	1595
821.736	1586
822.229	1596
822.722	1584
823.216	1612
