Data from lamp4bck_dubbel_Subt2__32__1032.txt Node

Date: Wed Apr 09 12:21:17 CEST 2025
User: fys-lab-0081
Spectrometer: S04999
Trigger mode: 0
Resolution mode: 1024 pixels
Integration Time (sec): 1.000000E-1
Scans to average: 1
Nonlinearity correction enabled: false
Boxcar width: 0
Baseline correction enabled: true
XAxis mode: Wavelengths
Number of Pixels in Spectrum: 1024
>>>>>Begin Spectral Data<<<<<
336.42	2
336.877	1
337.334	5
337.792	7
338.249	4
338.706	3
339.164	4
339.621	3
340.079	5
340.536	6
340.994	6
341.452	6
341.909	7
342.367	6
342.825	0
343.283	4
343.741	3
344.198	4
344.656	3
345.114	1
345.572	7
346.03	4
346.488	2
346.947	4
347.405	6
347.863	1
348.321	2
348.779	10
349.238	2
349.696	8
350.154	1
350.613	1
351.071	4
351.53	10
351.988	1
352.447	5
352.905	0
353.364	8
353.823	6
354.282	4
354.74	4
355.199	6
355.658	12
356.117	6
356.576	6
357.035	5
357.494	5
357.953	5
358.412	10
358.871	7
359.33	5
359.789	3
360.249	7
360.708	6
361.167	6
361.626	7
362.086	4
362.545	9
363.005	6
363.464	6
363.924	7
364.383	5
364.843	9
365.303	13
365.762	13
366.222	9
366.682	9
367.142	8
367.601	7
368.061	11
368.521	13
368.981	12
369.441	15
369.901	15
370.361	9
370.821	10
371.282	11
371.742	14
372.202	12
372.662	13
373.123	9
373.583	14
374.043	15
374.504	8
374.964	16
375.425	16
375.885	14
376.346	15
376.806	21
377.267	18
377.728	19
378.188	21
378.649	14
379.11	20
379.571	16
380.032	21
380.493	17
380.954	23
381.414	19
381.876	20
382.337	17
382.798	23
383.259	25
383.72	23
384.181	25
384.642	23
385.104	24
385.565	28
386.026	32
386.488	34
386.949	26
387.411	27
387.872	34
388.334	35
388.795	33
389.257	34
389.719	33
390.181	38
390.642	34
391.104	36
391.566	37
392.028	33
392.49	41
392.952	42
393.414	40
393.876	45
394.338	43
394.8	44
395.262	38
395.724	46
396.186	44
396.648	44
397.111	53
397.573	53
398.035	48
398.498	49
398.96	49
399.423	50
399.885	49
400.348	53
400.81	53
401.273	53
401.736	52
402.198	60
402.661	63
403.124	54
403.587	66
404.049	65.5
404.512	65
404.975	66
405.438	66
405.901	72
406.364	69
406.827	69
407.29	66
407.754	68
408.217	74
408.68	69
409.143	74
409.607	73
410.07	71
410.533	70
410.997	75
411.46	76
411.924	81
412.387	82
412.851	77
413.314	81
413.778	82
414.242	79
414.705	90
415.169	90
415.633	89
416.097	82
416.561	95
417.024	93
417.488	94
417.952	93
418.416	91
418.88	87
419.344	87
419.809	94
420.273	94
420.737	93
421.201	101
421.665	95
422.13	98
422.594	100
423.059	103
423.523	107
423.987	99
424.452	107
424.916	109
425.381	114
425.846	115
426.31	121
426.775	123
427.24	126
427.704	122
428.169	123
428.634	130
429.099	129
429.564	127
430.029	122
430.494	122
430.959	119
431.424	123
431.889	129
432.354	134
432.819	121
433.284	135
433.75	137
434.215	140
434.68	139
435.146	139
435.611	147
436.077	153
436.542	152
437.008	160
437.473	164
437.939	160
438.404	167
438.87	175
439.336	170
439.801	170
440.267	172
440.733	176
441.199	177
441.665	176
442.131	186
442.596	175
443.062	180
443.529	190
443.995	192
444.461	190
444.927	201
445.393	196
445.859	205
446.325	211
446.792	222
447.258	225
447.724	232
448.191	246
448.657	242
449.124	249
449.59	248
450.057	267
450.523	268
450.99	273
451.457	271
451.923	275
452.39	272
452.857	287
453.324	279
453.791	281
454.257	289
454.724	289
455.191	282
455.658	286
456.125	295
456.592	293
457.059	299
457.527	298
457.994	308
458.461	312
458.928	314
459.396	317
459.863	325
460.33	321
460.798	324
461.265	332
461.732	328
462.2	339
462.668	335
463.135	346
463.603	333
464.07	353
464.538	334
465.006	347
465.474	342
465.941	338
466.409	340
466.877	335
467.345	335
467.813	332
468.281	347
468.749	351
469.217	343
469.685	351
470.153	357
470.621	360
471.09	351
471.558	366
472.026	372
472.494	378
472.963	388
473.431	394
473.9	400
474.368	419
474.837	413
475.305	428
475.774	434
476.242	450
476.711	453
477.18	470
477.648	465
478.117	470
478.586	469
479.055	460
479.524	471
479.993	467
480.462	463
480.93	469
481.399	472
481.869	470
482.338	466
482.807	477
483.276	479
483.745	477
484.214	486
484.684	491
485.153	487
485.622	490
486.092	501
486.561	493
487.031	511
487.5	514
487.97	518
488.439	522
488.909	538
489.378	558
489.848	557
490.318	578
490.787	612
491.257	614
491.727	624
492.197	637
492.667	638
493.137	642
493.607	648
494.077	659
494.547	646
495.017	643
495.487	662
495.957	670
496.427	658
496.897	652
497.368	673
497.838	659
498.308	664
498.779	668
499.249	674
499.719	674
500.19	689
500.66	687
501.131	696
501.602	704
502.072	707
502.543	721
503.014	732
503.484	735
503.955	751
504.426	772
504.897	773
505.368	795
505.838	806
506.309	813
506.78	846
507.251	865
507.722	877
508.194	908
508.665	922
509.136	918
509.607	951
510.078	970
510.549	978
511.021	1004
511.492	999
511.964	1017
512.435	1037
512.906	1031
513.378	1040
513.849	1068
514.321	1058
514.793	1065
515.264	1082
515.736	1088
516.208	1102
516.679	1103
517.151	1124
517.623	1130
518.095	1131
518.567	1144
519.038	1171
519.51	1180
519.982	1197
520.454	1206
520.927	1230
521.399	1244
521.871	1257
522.343	1269
522.815	1299
523.287	1294
523.76	1295
524.232	1323
524.704	1330
525.177	1301
525.649	1306
526.122	1328
526.594	1294
527.067	1322
527.539	1324
528.012	1331
528.484	1324
528.957	1325
529.43	1321
529.903	1325
530.375	1363
530.848	1318
531.321	1328
531.794	1350
532.267	1373
532.74	1342
533.213	1355
533.686	1379
534.159	1372
534.632	1395
535.105	1398
535.578	1434
536.051	1436
536.525	1424
536.998	1430
537.471	1457
537.945	1436
538.418	1435
538.891	1439
539.365	1476
539.838	1477
540.312	1470
540.786	1475
541.259	1486
541.733	1507
542.206	1501
542.68	1486
543.154	1501
543.628	1512
544.101	1537
544.575	1535
545.049	1513
545.523	1555
545.997	1549
546.471	1552
546.945	1556
547.419	1585
547.893	1510
548.367	1532
548.842	1516
549.316	1527
549.79	1532
550.264	1510
550.739	1526
551.213	1528
551.687	1502
552.162	1511
552.636	1506
553.111	1501
553.585	1534
554.06	1501
554.534	1533
555.009	1545
555.484	1571
555.958	1576
556.433	1593
556.908	1624
557.383	1625
557.858	1652
558.333	1659
558.807	1646
559.282	1674
559.757	1705
560.232	1692
560.708	1661
561.183	1663
561.658	1675
562.133	1658
562.608	1645
563.083	1702
563.559	1664
564.034	1665
564.509	1669
564.985	1682
565.46	1667
565.936	1692
566.411	1676
566.887	1661
567.362	1691
567.838	1693
568.313	1702
568.789	1682
569.265	1697
569.74	1720
570.216	1695
570.692	1719
571.168	1711
571.644	1728
572.12	1710
572.596	1718
573.071	1709
573.547	1757
574.024	1788
574.5	1787
574.976	1778
575.452	1802
575.928	1826
576.404	1829
576.881	1880
577.357	1847
577.833	1858
578.31	1913
578.786	1928
579.262	1950
579.739	1935
580.215	2011
580.692	2016
581.169	1985
581.645	1995
582.122	2069
582.598	2069
583.075	2073
583.552	2083
584.029	2088
584.506	2098
584.982	2086
585.459	2116
585.936	2067
586.413	2097
586.89	2146
587.367	2120
587.844	2123
588.321	2097
588.799	2109
589.276	2096
589.753	2127
590.23	2117
590.707	2103
591.185	2103
591.662	2101
592.139	2119
592.617	2146
593.094	2136
593.572	2160
594.049	2183
594.527	2201
595.004	2195
595.482	2265
595.96	2282
596.437	2286
596.915	2342
597.393	2317
597.871	2388
598.349	2371
598.826	2420
599.304	2413
599.782	2456
600.26	2413
600.738	2461
601.216	2448
601.694	2449
602.173	2456
602.651	2474
603.129	2468
603.607	2475
604.085	2472
604.564	2455
605.042	2453
605.52	2438
605.999	2510
606.477	2446
606.956	2445
607.434	2469
607.913	2493
608.391	2511
608.87	2506
609.348	2467
609.827	2482
610.306	2534
610.785	2556
611.263	2561
611.742	2544
612.221	2519
612.7	2579
613.179	2606
613.658	2559
614.137	2568
614.616	2578
615.095	2541
615.574	2573
616.053	2579
616.532	2532
617.011	2541
617.491	2549
617.97	2547
618.449	2579
618.928	2592
619.408	2557
619.887	2579
620.367	2601
620.846	2627
621.326	2610
621.805	2644
622.285	2646
622.764	2684
623.244	2702
623.724	2710
624.203	2735
624.683	2700
625.163	2782
625.643	2793
626.123	2781
626.602	2830
627.082	2771
627.562	2782
628.042	2883
628.522	2862
629.002	2841
629.482	2852
629.963	2853
630.443	2846
630.923	2845
631.403	2866
631.883	2833
632.364	2828
632.844	2809
633.324	2833
633.805	2841
634.285	2787
634.766	2761
635.246	2763
635.727	2773
636.207	2773
636.688	2758
637.168	2741
637.649	2708
638.13	2685
638.611	2721
639.091	2726
639.572	2711
640.053	2690
640.534	2728
641.015	2755
641.496	2720
641.977	2763
642.458	2736
642.939	2741
643.42	2762
643.901	2792
644.382	2814
644.863	2813
645.345	2805
645.826	2803
646.307	2826
646.788	2879
647.27	2835
647.751	2831
648.233	2835
648.714	2766
649.196	2841
649.677	2822
650.159	2816
650.64	2766
651.122	2793
651.603	2744
652.085	2781
652.567	2788
653.049	2748
653.53	2740
654.012	2767
654.494	2716
654.976	2758
655.458	2759
655.94	2766
656.422	2801
656.904	2778
657.386	2766
657.868	2791
658.35	2785
658.833	2811
659.315	2813
659.797	2788
660.279	2808
660.762	2845
661.244	2830
661.726	2777
662.209	2765
662.691	2776
663.174	2725
663.656	2750
664.139	2764
664.621	2711
665.104	2679
665.587	2689
666.069	2711
666.552	2700
667.035	2681
667.517	2676
668	2671
668.483	2671
668.966	2650
669.449	2643
669.932	2648
670.415	2666
670.898	2622
671.381	2612
671.864	2617
672.347	2616
672.83	2633
673.313	2646
673.797	2609
674.28	2651
674.763	2645
675.247	2666
675.73	2665
676.213	2698
676.697	2721
677.18	2724
677.664	2739
678.147	2765
678.631	2783
679.114	2809
679.598	2795
680.082	2792
680.565	2779
681.049	2771
681.533	2789
682.017	2819
682.5	2825
682.984	2820
683.468	2784
683.952	2731
684.436	2785
684.92	2754
685.404	2760
685.888	2772
686.372	2739
686.856	2739
687.341	2784
687.825	2758
688.309	2785
688.793	2768
689.278	2711
689.762	2741
690.246	2743
690.731	2770
691.215	2785
691.7	2714
692.184	2738
692.669	2734
693.153	2745
693.638	2724
694.122	2737
694.607	2768
695.092	2723
695.577	2739
696.061	2691
696.546	2709
697.031	2703
697.516	2739
698.001	2730
698.486	2697
698.971	2713
699.456	2651
699.941	2677
700.426	2695
700.911	2726
701.396	2685
701.881	2690
702.366	2661
702.852	2658
703.337	2690
703.822	2705
704.308	2707
704.793	2693
705.278	2678
705.764	2674
706.249	2653
706.735	2681
707.22	2714
707.706	2670
708.191	2694
708.677	2674
709.163	2662
709.648	2693
710.134	2723
710.62	2682
711.106	2655
711.592	2672
712.077	2658
712.563	2596
713.049	2619
713.535	2684
714.021	2681
714.507	2667
714.993	2654
715.479	2693
715.966	2681
716.452	2703
716.938	2738
717.424	2663
717.91	2716
718.397	2675
718.883	2650
719.369	2667
719.856	2668
720.342	2724
720.829	2694
721.315	2690
721.802	2672
722.288	2689
722.775	2606
723.262	2552
723.748	2666
724.235	2650
724.722	2670
725.208	2593
725.695	2585
726.182	2584
726.669	2570
727.156	2606
727.643	2574
728.13	2564
728.617	2537
729.104	2522
729.591	2504
730.078	2540
730.565	2544
731.052	2516
731.539	2505
732.027	2474
732.514	2432
733.001	2459
733.488	2453
733.976	2476
734.463	2468
734.951	2471
735.438	2490
735.926	2456
736.413	2469
736.901	2463
737.388	2504
737.876	2504
738.364	2484
738.851	2483
739.339	2465
739.827	2491
740.314	2413
740.802	2462
741.29	2508
741.778	2495
742.266	2498
742.754	2494
743.242	2508
743.73	2464
744.218	2474
744.706	2467
745.194	2509
745.682	2480
746.17	2484
746.659	2454
747.147	2392
747.635	2408
748.123	2423
748.612	2414
749.1	2400
749.589	2421
750.077	2387
750.566	2375
751.054	2394
751.543	2395
752.031	2376
752.52	2405
753.008	2365
753.497	2358
753.986	2352
754.474	2331
754.963	2345
755.452	2327
755.941	2328
756.43	2322
756.919	2322
757.408	2290
757.896	2283
758.385	2273
758.875	2258
759.364	2263
759.853	2265
760.342	2237
760.831	2274
761.32	2243
761.809	2187
762.299	2200
762.788	2219
763.277	2223
763.767	2206
764.256	2216
764.745	2178
765.235	2204
765.724	2139
766.214	2177
766.703	2184
767.193	2175
767.683	2218
768.172	2191
768.662	2209
769.152	2200
769.641	2205
770.131	2162
770.621	2208
771.111	2193
771.601	2218
772.09	2203
772.58	2164
773.07	2159
773.56	2161
774.05	2128
774.54	2128
775.031	2139
775.521	2135
776.011	2134
776.501	2148
776.991	2093
777.482	2094
777.972	2044
778.462	2062
778.953	2090
779.443	2100
779.933	2087
780.424	2042
780.914	2035
781.405	2034
781.895	2006
782.386	2014
782.877	2014
783.367	1980
783.858	1975
784.349	1969
784.839	1929
785.33	1916
785.821	1897
786.312	1895
786.803	1906
787.293	1919
787.784	1902
788.275	1875
788.766	1842
789.257	1863
789.748	1816
790.24	1809
790.731	1839
791.222	1839
791.713	1853
792.204	1860
792.696	1815
793.187	1829
793.678	1816
794.169	1783
794.661	1837
795.152	1840
795.644	1844
796.135	1857
796.627	1851
797.118	1811
797.61	1790
798.101	1771
798.593	1808
799.085	1791
799.576	1812
800.068	1803
800.56	1804
801.052	1742
801.544	1733
802.035	1731
802.527	1709
803.019	1698
803.511	1690
804.003	1692
804.495	1698
804.987	1678
805.479	1621
805.971	1612
806.464	1604
806.956	1566
807.448	1570
807.94	1576
808.433	1571
808.925	1561
809.417	1539
809.91	1529
810.402	1491
810.894	1506
811.387	1532
811.879	1512
812.372	1534
812.865	1519
813.357	1504
813.85	1492
814.342	1484
814.835	1485
815.328	1489
815.821	1488
816.313	1514
816.806	1534
817.299	1528
817.792	1554
818.285	1534
818.778	1553
819.271	1555
819.764	1533
820.257	1557
820.75	1567
821.243	1587
821.736	1583
822.229	1596
822.722	1587
823.216	1616
