Data from lamp4bck_dubbel_Subt2__36__1036.txt Node

Date: Wed Apr 09 12:21:18 CEST 2025
User: fys-lab-0081
Spectrometer: S04999
Trigger mode: 0
Resolution mode: 1024 pixels
Integration Time (sec): 1.000000E-1
Scans to average: 1
Nonlinearity correction enabled: false
Boxcar width: 0
Baseline correction enabled: true
XAxis mode: Wavelengths
Number of Pixels in Spectrum: 1024
>>>>>Begin Spectral Data<<<<<
336.42	2
336.877	1
337.334	1
337.792	3
338.249	2
338.706	6
339.164	6
339.621	1
340.079	7
340.536	5
340.994	5
341.452	3
341.909	7
342.367	3
342.825	-2
343.283	6
343.741	0
344.198	5
344.656	0
345.114	0
345.572	7
346.03	3
346.488	4
346.947	3
347.405	5
347.863	3
348.321	2
348.779	9
349.238	2
349.696	8
350.154	1
350.613	3
351.071	6
351.53	8
351.988	9
352.447	5
352.905	0
353.364	2
353.823	5
354.282	3
354.74	0
355.199	6
355.658	7
356.117	2
356.576	6
357.035	3
357.494	6
357.953	2
358.412	9
358.871	3
359.33	5
359.789	4
360.249	9
360.708	8
361.167	8
361.626	7
362.086	5
362.545	9
363.005	11
363.464	11
363.924	7
364.383	5
364.843	9
365.303	14
365.762	13
366.222	5
366.682	8
367.142	14
367.601	12
368.061	8
368.521	11
368.981	8
369.441	15
369.901	13
370.361	9
370.821	9
371.282	12
371.742	12
372.202	11
372.662	15
373.123	10
373.583	16
374.043	13
374.504	9
374.964	14
375.425	15
375.885	9
376.346	14
376.806	20
377.267	14
377.728	19
378.188	19
378.649	16
379.11	22
379.571	16
380.032	18
380.493	18
380.954	22
381.414	22
381.876	18
382.337	20
382.798	21
383.259	27
383.72	24
384.181	21
384.642	24
385.104	26
385.565	32
386.026	32
386.488	32
386.949	31
387.411	33
387.872	31
388.334	40
388.795	34
389.257	36
389.719	34
390.181	38
390.642	32
391.104	35
391.566	40
392.028	41
392.49	44
392.952	46
393.414	42
393.876	44
394.338	38
394.8	43
395.262	42
395.724	43
396.186	46
396.648	44
397.111	51
397.573	52
398.035	47
398.498	55
398.96	54
399.423	52
399.885	52
400.348	52
400.81	51
401.273	56
401.736	51
402.198	59
402.661	61
403.124	55
403.587	59
404.049	61.5
404.512	64
404.975	67
405.438	70
405.901	69
406.364	67
406.827	68
407.29	66
407.754	66
408.217	71
408.68	69
409.143	70
409.607	73
410.07	71
410.533	73
410.997	75
411.46	75
411.924	83
412.387	79
412.851	81
413.314	84
413.778	81
414.242	84
414.705	90
415.169	88
415.633	87
416.097	88
416.561	95
417.024	91
417.488	92
417.952	94
418.416	93
418.88	84
419.344	90
419.809	96
420.273	92
420.737	93
421.201	95
421.665	95
422.13	97
422.594	101
423.059	102
423.523	104
423.987	102
424.452	109
424.916	114
425.381	116
425.846	113
426.31	124
426.775	122
427.24	122
427.704	124
428.169	123
428.634	128
429.099	126
429.564	127
430.029	128
430.494	126
430.959	127
431.424	126
431.889	134
432.354	134
432.819	127
433.284	141
433.75	134
434.215	141
434.68	142
435.146	141
435.611	148
436.077	153
436.542	155
437.008	160
437.473	164
437.939	160
438.404	172
438.87	174
439.336	167
439.801	178
440.267	174
440.733	177
441.199	176
441.665	182
442.131	185
442.596	175
443.062	183
443.529	193
443.995	192
444.461	189
444.927	202
445.393	195
445.859	206
446.325	213
446.792	227
447.258	225
447.724	235
448.191	243
448.657	248
449.124	245
449.59	248
450.057	267
450.523	270
450.99	275
451.457	275
451.923	285
452.39	271
452.857	284
453.324	276
453.791	282
454.257	291
454.724	292
455.191	289
455.658	288
456.125	297
456.592	292
457.059	299
457.527	300
457.994	312
458.461	315
458.928	319
459.396	317
459.863	322
460.33	326
460.798	330
461.265	335
461.732	332
462.2	341
462.668	338
463.135	345
463.603	339
464.07	359
464.538	342
465.006	354
465.474	346
465.941	345
466.409	344
466.877	342
467.345	344
467.813	341
468.281	352
468.749	353
469.217	347
469.685	359
470.153	361
470.621	358
471.09	360
471.558	374
472.026	369
472.494	385
472.963	387
473.431	397
473.9	405
474.368	418
474.837	423
475.305	432
475.774	437
476.242	456
476.711	458
477.18	471
477.648	463
478.117	473
478.586	472
479.055	465
479.524	476
479.993	475
480.462	469
480.93	473
481.399	482
481.869	483
482.338	467
482.807	484
483.276	483
483.745	479
484.214	492
484.684	496
485.153	489
485.622	496
486.092	504
486.561	498
487.031	517
487.5	525
487.97	522
488.439	530
488.909	544
489.378	565
489.848	568
490.318	583
490.787	617
491.257	620
491.727	624
492.197	645
492.667	640
493.137	647
493.607	659
494.077	669
494.547	651
495.017	645
495.487	664
495.957	681
496.427	663
496.897	662
497.368	670
497.838	662
498.308	673
498.779	673
499.249	678
499.719	680
500.19	697
500.66	698
501.131	701
501.602	709
502.072	712
502.543	730
503.014	743
503.484	740
503.955	758
504.426	778
504.897	781
505.368	795
505.838	812
506.309	820
506.78	857
507.251	880
507.722	892
508.194	911
508.665	935
509.136	930
509.607	960
510.078	977
510.549	988
511.021	1015
511.492	1006
511.964	1035
512.435	1046
512.906	1037
513.378	1048
513.849	1076
514.321	1074
514.793	1070
515.264	1087
515.736	1098
516.208	1112
516.679	1115
517.151	1137
517.623	1140
518.095	1146
518.567	1159
519.038	1187
519.51	1191
519.982	1204
520.454	1224
520.927	1243
521.399	1255
521.871	1263
522.343	1281
522.815	1309
523.287	1310
523.76	1311
524.232	1339
524.704	1344
525.177	1313
525.649	1317
526.122	1340
526.594	1312
527.067	1332
527.539	1340
528.012	1341
528.484	1339
528.957	1336
529.43	1334
529.903	1341
530.375	1369
530.848	1325
531.321	1347
531.794	1361
532.267	1390
532.74	1360
533.213	1371
533.686	1395
534.159	1393
534.632	1409
535.105	1416
535.578	1448
536.051	1450
536.525	1448
536.998	1447
537.471	1475
537.945	1437
538.418	1451
538.891	1455
539.365	1488
539.838	1492
540.312	1486
540.786	1494
541.259	1503
541.733	1524
542.206	1518
542.68	1495
543.154	1521
543.628	1527
544.101	1556
544.575	1552
545.049	1528
545.523	1568
545.997	1560
546.471	1572
546.945	1569
547.419	1591
547.893	1524
548.367	1544
548.842	1531
549.316	1542
549.79	1543
550.264	1530
550.739	1548
551.213	1541
551.687	1521
552.162	1524
552.636	1523
553.111	1516
553.585	1542
554.06	1512
554.534	1553
555.009	1561
555.484	1586
555.958	1588
556.433	1608
556.908	1647
557.383	1632
557.858	1674
558.333	1669
558.807	1664
559.282	1689
559.757	1721
560.232	1702
560.708	1678
561.183	1681
561.658	1691
562.133	1680
562.608	1665
563.083	1721
563.559	1682
564.034	1676
564.509	1678
564.985	1688
565.46	1686
565.936	1707
566.411	1702
566.887	1685
567.362	1712
567.838	1708
568.313	1719
568.789	1707
569.265	1721
569.74	1737
570.216	1717
570.692	1732
571.168	1732
571.644	1750
572.12	1732
572.596	1741
573.071	1727
573.547	1785
574.024	1808
574.5	1792
574.976	1799
575.452	1831
575.928	1844
576.404	1850
576.881	1894
577.357	1858
577.833	1885
578.31	1927
578.786	1949
579.262	1972
579.739	1964
580.215	2036
580.692	2033
581.169	2010
581.645	2021
582.122	2091
582.598	2097
583.075	2099
583.552	2110
584.029	2107
584.506	2114
584.982	2106
585.459	2133
585.936	2087
586.413	2115
586.89	2169
587.367	2142
587.844	2136
588.321	2117
588.799	2127
589.276	2114
589.753	2143
590.23	2140
590.707	2123
591.185	2116
591.662	2120
592.139	2141
592.617	2155
593.094	2153
593.572	2181
594.049	2214
594.527	2220
595.004	2217
595.482	2279
595.96	2295
596.437	2315
596.915	2367
597.393	2345
597.871	2409
598.349	2398
598.826	2449
599.304	2433
599.782	2476
600.26	2434
600.738	2493
601.216	2477
601.694	2479
602.173	2482
602.651	2505
603.129	2497
603.607	2503
604.085	2505
604.564	2480
605.042	2483
605.52	2469
605.999	2540
606.477	2466
606.956	2463
607.434	2493.5
607.913	2524
608.391	2535
608.87	2526
609.348	2479
609.827	2514
610.306	2553
610.785	2578
611.263	2587
611.742	2573
612.221	2540
612.7	2606
613.179	2624
613.658	2584
614.137	2596
614.616	2612
615.095	2563
615.574	2608
616.053	2603
616.532	2566
617.011	2570
617.491	2579
617.97	2584
618.449	2605
618.928	2622
619.408	2590
619.887	2610
620.367	2627
620.846	2651
621.326	2637
621.805	2675
622.285	2666
622.764	2707
623.244	2722
623.724	2739
624.203	2757
624.683	2723
625.163	2807
625.643	2823
626.123	2810
626.602	2855
627.082	2786
627.562	2811
628.042	2902
628.522	2893
629.002	2874
629.482	2882
629.963	2878
630.443	2867
630.923	2879
631.403	2886
631.883	2850
632.364	2856
632.844	2842
633.324	2863
633.805	2870
634.285	2819
634.766	2787
635.246	2783
635.727	2800
636.207	2801
636.688	2793
637.168	2765
637.649	2724
638.13	2709
638.611	2739
639.091	2740
639.572	2736
640.053	2708
640.534	2753
641.015	2785
641.496	2738
641.977	2788
642.458	2769
642.939	2771
643.42	2798
643.901	2814
644.382	2845
644.863	2843
645.345	2827
645.826	2836
646.307	2855
646.788	2916
647.27	2863
647.751	2866
648.233	2866
648.714	2795
649.196	2871
649.677	2850
650.159	2847
650.64	2789
651.122	2819
651.603	2772
652.085	2801
652.567	2814
653.049	2784
653.53	2767
654.012	2788
654.494	2736
654.976	2777
655.458	2792
655.94	2787
656.422	2831
656.904	2799
657.386	2793
657.868	2821
658.35	2818
658.833	2838
659.315	2844
659.797	2816
660.279	2836
660.762	2876
661.244	2846
661.726	2810
662.209	2802
662.691	2799
663.174	2748
663.656	2765
664.139	2781
664.621	2735
665.104	2698
665.587	2722
666.069	2731
666.552	2735
667.035	2707
667.517	2698
668	2700
668.483	2686
668.966	2679
669.449	2674
669.932	2674
670.415	2689
670.898	2648
671.381	2635
671.864	2646
672.347	2633
672.83	2661
673.313	2662
673.797	2632
674.28	2672
674.763	2667
675.247	2684
675.73	2686
676.213	2725
676.697	2757
677.18	2761
677.664	2767
678.147	2787
678.631	2809
679.114	2833
679.598	2812
680.082	2813
680.565	2795
681.049	2793
681.533	2811
682.017	2842
682.5	2841
682.984	2838
683.468	2813
683.952	2770
684.436	2820
684.92	2781
685.404	2784
685.888	2806
686.372	2763
686.856	2762
687.341	2812
687.825	2781
688.309	2808
688.793	2796
689.278	2746
689.762	2765
690.246	2762
690.731	2800
691.215	2812
691.7	2742
692.184	2768
692.669	2761
693.153	2777
693.638	2749
694.122	2771
694.607	2789
695.092	2748
695.577	2760
696.061	2719
696.546	2735
697.031	2723
697.516	2750
698.001	2752
698.486	2710
698.971	2733
699.456	2675
699.941	2700
700.426	2717
700.911	2744
701.396	2712
701.881	2709
702.366	2676
702.852	2680
703.337	2725
703.822	2718
704.308	2723
704.793	2718
705.278	2706
705.764	2697
706.249	2684
706.735	2706
707.22	2737
707.706	2696
708.191	2717
708.677	2706
709.163	2684
709.648	2714
710.134	2747
710.62	2715
711.106	2694
711.592	2702
712.077	2688
712.563	2639
713.049	2650
713.535	2712
714.021	2704
714.507	2705
714.993	2685
715.479	2731
715.966	2715
716.452	2728
716.938	2758
717.424	2699
717.91	2750
718.397	2696
718.883	2675
719.369	2694
719.856	2698
720.342	2753
720.829	2710
721.315	2718
721.802	2698
722.288	2718
722.775	2627
723.262	2573
723.748	2689
724.235	2678
724.722	2696
725.208	2611
725.695	2615
726.182	2605
726.669	2593
727.156	2633
727.643	2595
728.13	2595
728.617	2555
729.104	2552
729.591	2524
730.078	2561
730.565	2577
731.052	2534
731.539	2526
732.027	2489
732.514	2464
733.001	2478
733.488	2486
733.976	2495
734.463	2500
734.951	2493
735.438	2518
735.926	2479
736.413	2493
736.901	2485
737.388	2527
737.876	2524
738.364	2511
738.851	2496
739.339	2479
739.827	2500
740.314	2440
740.802	2482
741.29	2529
741.778	2503
742.266	2515
742.754	2518
743.242	2520
743.73	2479
744.218	2498
744.706	2485
745.194	2527
745.682	2504
746.17	2504
746.659	2468
747.147	2408
747.635	2428
748.123	2443
748.612	2436
749.1	2420
749.589	2447
750.077	2411
750.566	2391
751.054	2404
751.543	2420
752.031	2396
752.52	2431
753.008	2387
753.497	2381
753.986	2375
754.474	2348
754.963	2365
755.452	2350
755.941	2352
756.43	2351
756.919	2345
757.408	2304
757.896	2295
758.385	2290
758.875	2282
759.364	2286
759.853	2290
760.342	2257
760.831	2292
761.32	2262
761.809	2208
762.299	2225
762.788	2237
763.277	2244
763.767	2227
764.256	2245
764.745	2204
765.235	2227
765.724	2154
766.214	2196
766.703	2205
767.193	2202
767.683	2238
768.172	2204
768.662	2228
769.152	2218
769.641	2222
770.131	2175
770.621	2220
771.111	2213
771.601	2232
772.09	2227
772.58	2180
773.07	2171
773.56	2177
774.05	2135
774.54	2147
775.031	2146
775.521	2157
776.011	2155
776.501	2168
776.991	2108
777.482	2107
777.972	2060
778.462	2078
778.953	2114
779.443	2116
779.933	2103
780.424	2061
780.914	2058
781.405	2042
781.895	2022
782.386	2032
782.877	2035
783.367	2013
783.858	1988
784.349	1984
784.839	1951
785.33	1935
785.821	1923
786.312	1911
786.803	1915
787.293	1933
787.784	1921
788.275	1891
788.766	1864
789.257	1880
789.748	1839
790.24	1829
790.731	1864
791.222	1856
791.713	1872
792.204	1879
792.696	1839
793.187	1846
793.678	1843
794.169	1805
794.661	1863
795.152	1861
795.644	1864
796.135	1879
796.627	1870
797.118	1833
797.61	1813
798.101	1788
798.593	1827
799.085	1810
799.576	1830
800.068	1820
800.56	1824
801.052	1763
801.544	1747
802.035	1755
802.527	1720
803.019	1715
803.511	1708
804.003	1709
804.495	1716
804.987	1692
805.479	1636
805.971	1622
806.464	1621
806.956	1577
807.448	1583
807.94	1590
808.433	1591
808.925	1572
809.417	1557
809.91	1539
810.402	1501
810.894	1516
811.387	1537
811.879	1526
812.372	1539
812.865	1529
813.357	1521
813.85	1506
814.342	1494
814.835	1498
815.328	1504
815.821	1500
816.313	1526
816.806	1551
817.299	1549
817.792	1572
818.285	1548
818.778	1570
819.271	1571
819.764	1554
820.257	1573
820.75	1588
821.243	1610
821.736	1595
822.229	1616
822.722	1602
823.216	1629
