Data from lamp4bck_dubbel_Subt2__7__1007.txt Node

Date: Wed Apr 09 12:21:14 CEST 2025
User: fys-lab-0081
Spectrometer: S04999
Trigger mode: 0
Resolution mode: 1024 pixels
Integration Time (sec): 1.000000E-1
Scans to average: 1
Nonlinearity correction enabled: false
Boxcar width: 0
Baseline correction enabled: true
XAxis mode: Wavelengths
Number of Pixels in Spectrum: 1024
>>>>>Begin Spectral Data<<<<<
336.42	-1
336.877	5
337.334	1
337.792	5
338.249	4
338.706	7
339.164	-1
339.621	5
340.079	7
340.536	2
340.994	2
341.452	5
341.909	10
342.367	2
342.825	-1
343.283	5
343.741	1
344.198	4
344.656	0
345.114	1
345.572	9
346.03	4
346.488	8
346.947	2
347.405	8
347.863	3
348.321	-1
348.779	7
349.238	3
349.696	7
350.154	0
350.613	3
351.071	3
351.53	9
351.988	5
352.447	8
352.905	4
353.364	5
353.823	7
354.282	6
354.74	-1
355.199	10
355.658	11
356.117	4
356.576	7
357.035	4
357.494	8
357.953	5
358.412	8
358.871	5
359.33	6
359.789	3
360.249	7
360.708	7
361.167	9
361.626	11
362.086	5
362.545	6
363.005	6
363.464	10
363.924	10
364.383	8
364.843	5
365.303	10
365.762	11
366.222	7
366.682	6
367.142	10
367.601	11
368.061	13
368.521	8
368.981	5
369.441	15
369.901	16
370.361	10
370.821	6
371.282	9
371.742	13
372.202	13
372.662	15
373.123	9
373.583	10
374.043	16
374.504	9
374.964	10
375.425	12
375.885	15
376.346	21
376.806	20
377.267	10
377.728	15
378.188	22
378.649	18
379.11	18
379.571	13
380.032	17
380.493	20
380.954	24
381.414	18
381.876	18
382.337	17
382.798	21
383.259	22
383.72	20
384.181	20
384.642	23
385.104	26
385.565	29
386.026	28
386.488	32
386.949	32
387.411	30
387.872	34
388.334	37
388.795	32
389.257	37
389.719	31
390.181	38
390.642	31
391.104	35
391.566	34
392.028	37
392.49	43
392.952	43
393.414	43
393.876	43
394.338	44
394.8	44
395.262	36
395.724	48
396.186	46
396.648	42
397.111	49
397.573	48
398.035	45
398.498	48
398.96	49
399.423	48
399.885	54
400.348	57
400.81	54
401.273	52
401.736	51
402.198	57
402.661	59
403.124	53
403.587	64
404.049	65
404.512	66
404.975	66
405.438	66
405.901	66
406.364	69
406.827	64
407.29	69
407.754	67
408.217	72
408.68	69
409.143	72
409.607	72
410.07	71
410.533	74
410.997	74
411.46	72
411.924	78
412.387	79
412.851	80
413.314	80
413.778	82
414.242	81
414.705	88
415.169	90
415.633	88
416.097	82
416.561	92
417.024	87
417.488	91
417.952	90
418.416	86
418.88	86
419.344	91
419.809	93
420.273	91
420.737	88
421.201	97
421.665	102
422.13	98
422.594	99
423.059	101
423.523	104
423.987	99
424.452	109
424.916	108
425.381	118
425.846	113
426.31	122
426.775	119
427.24	122
427.704	123
428.169	121
428.634	125
429.099	124
429.564	121
430.029	123
430.494	120
430.959	121
431.424	120
431.889	131
432.354	130
432.819	123
433.284	132
433.75	133
434.215	139
434.68	140
435.146	139
435.611	147
436.077	151
436.542	154
437.008	164
437.473	159
437.939	160
438.404	166
438.87	175
439.336	169
439.801	167
440.267	171
440.733	175
441.199	175
441.665	174
442.131	178
442.596	170
443.062	182
443.529	186
443.995	189
444.461	187
444.927	196
445.393	195
445.859	202
446.325	206
446.792	224
447.258	222
447.724	231
448.191	242
448.657	239
449.124	247
449.59	245
450.057	265
450.523	267
450.99	266
451.457	271
451.923	278
452.39	269
452.857	282
453.324	273
453.791	279
454.257	282
454.724	281
455.191	278
455.658	280
456.125	291
456.592	287
457.059	295
457.527	295
457.994	306
458.461	306
458.928	312
459.396	309
459.863	318
460.33	320
460.798	324
461.265	329
461.732	326
462.2	335
462.668	338
463.135	338
463.603	332
464.07	348
464.538	336
465.006	347
465.474	337
465.941	340
466.409	340
466.877	337
467.345	342
467.813	333
468.281	342
468.749	347
469.217	342
469.685	346
470.153	352
470.621	357
471.09	351
471.558	366
472.026	369
472.494	375
472.963	378
473.431	388
473.9	399
474.368	414
474.837	414
475.305	425
475.774	435
476.242	445
476.711	452
477.18	461
477.648	456
478.117	466
478.586	463
479.055	459
479.524	466
479.993	466
480.462	464
480.93	459
481.399	469
481.869	473
482.338	467
482.807	475
483.276	474
483.745	471
484.214	480
484.684	483
485.153	483
485.622	482
486.092	496
486.561	492
487.031	502
487.5	515
487.97	513
488.439	525
488.909	535
489.378	556
489.848	556
490.318	574
490.787	602
491.257	613
491.727	617
492.197	635
492.667	637
493.137	634
493.607	645
494.077	652
494.547	640
495.017	637
495.487	649
495.957	664
496.427	646
496.897	651
497.368	663
497.838	651
498.308	656
498.779	663
499.249	665
499.719	671
500.19	686
500.66	679
501.131	687
501.602	699
502.072	704
502.543	717
503.014	734
503.484	731
503.955	741
504.426	767
504.897	774
505.368	783
505.838	801
506.309	807
506.78	838
507.251	857
507.722	870
508.194	897
508.665	916
509.136	917
509.607	939
510.078	963
510.549	971
511.021	992
511.492	994
511.964	1013
512.435	1022
512.906	1020
513.378	1028
513.849	1050
514.321	1047
514.793	1052
515.264	1069
515.736	1074
516.208	1091
516.679	1091
517.151	1108
517.623	1119
518.095	1124
518.567	1131
519.038	1167
519.51	1170
519.982	1182
520.454	1196
520.927	1222
521.399	1228
521.871	1235
522.343	1251
522.815	1277
523.287	1275
523.76	1282
524.232	1302
524.704	1314
525.177	1290
525.649	1286
526.122	1318
526.594	1286
527.067	1306
527.539	1309
528.012	1319
528.484	1316
528.957	1316
529.43	1311
529.903	1313
530.375	1344
530.848	1305
531.321	1312
531.794	1331
532.267	1355
532.74	1326
533.213	1334
533.686	1365
534.159	1359
534.632	1377
535.105	1388
535.578	1419
536.051	1422
536.525	1417
536.998	1419
537.471	1444
537.945	1416
538.418	1430
538.891	1436
539.365	1468
539.838	1468
540.312	1459
540.786	1468
541.259	1477
541.733	1491
542.206	1488
542.68	1470
543.154	1489
543.628	1491
544.101	1521
544.575	1512
545.049	1493
545.523	1532
545.997	1523
546.471	1542
546.945	1545
547.419	1567
547.893	1498
548.367	1519
548.842	1503
549.316	1514
549.79	1516
550.264	1500
550.739	1507
551.213	1514
551.687	1494
552.162	1500
552.636	1494
553.111	1491
553.585	1520
554.06	1491
554.534	1528
555.009	1525
555.484	1560
555.958	1557
556.433	1574
556.908	1609
557.383	1603
557.858	1635
558.333	1639
558.807	1631
559.282	1653
559.757	1686
560.232	1675
560.708	1644
561.183	1653
561.658	1669
562.133	1650
562.608	1633
563.083	1687
563.559	1650
564.034	1651
564.509	1648
564.985	1666
565.46	1651
565.936	1670
566.411	1666
566.887	1654
567.362	1677
567.838	1676
568.313	1691
568.789	1668
569.265	1683
569.74	1697
570.216	1674
570.692	1692
571.168	1696
571.644	1710
572.12	1697
572.596	1709
573.071	1698
573.547	1746
574.024	1768
574.5	1766
574.976	1764
575.452	1794
575.928	1813
576.404	1817
576.881	1853
577.357	1831
577.833	1845
578.31	1890
578.786	1908
579.262	1930
579.739	1917
580.215	1984
580.692	1988
581.169	1963
581.645	1975
582.122	2052
582.598	2047
583.075	2044
583.552	2061
584.029	2066
584.506	2070
584.982	2061
585.459	2088
585.936	2042
586.413	2071
586.89	2117
587.367	2097
587.844	2103
588.321	2070
588.799	2085
589.276	2070
589.753	2103
590.23	2100
590.707	2085
591.185	2091
591.662	2085
592.139	2098
592.617	2120
593.094	2113
593.572	2138
594.049	2167
594.527	2175
595.004	2170
595.482	2238
595.96	2244
596.437	2269
596.915	2318
597.393	2295
597.871	2362
598.349	2346
598.826	2391
599.304	2383
599.782	2422
600.26	2380
600.738	2445
601.216	2439
601.694	2423
602.173	2430
602.651	2446
603.129	2442
603.607	2454
604.085	2446
604.564	2419
605.042	2415
605.52	2407
605.999	2476
606.477	2408
606.956	2403
607.434	2432
607.913	2461
608.391	2469
608.87	2459
609.348	2417
609.827	2446
610.306	2492
610.785	2518
611.263	2525
611.742	2504
612.221	2484
612.7	2543
613.179	2556
613.658	2510
614.137	2531
614.616	2547
615.095	2501
615.574	2538
616.053	2543
616.532	2503
617.011	2518
617.491	2524
617.97	2514
618.449	2534
618.928	2557
619.408	2529
619.887	2558
620.367	2573
620.846	2594
621.326	2579
621.805	2609
622.285	2610
622.764	2651
623.244	2669
623.724	2688
624.203	2696
624.683	2653
625.163	2731
625.643	2753
626.123	2747
626.602	2787
627.082	2721
627.562	2746
628.042	2841
628.522	2817
629.002	2806
629.482	2810
629.963	2809
630.443	2795
630.923	2805
631.403	2818
631.883	2773
632.364	2773
632.844	2766
633.324	2785
633.805	2793
634.285	2749
634.766	2718
635.246	2718
635.727	2734
636.207	2731
636.688	2725
637.168	2706
637.649	2666
638.13	2650
638.611	2675
639.091	2674
639.572	2664
640.053	2635
640.534	2672
641.015	2703
641.496	2665
641.977	2709
642.458	2679
642.939	2692
643.42	2718
643.901	2748
644.382	2782
644.863	2769
645.345	2767
645.826	2775
646.307	2787
646.788	2828
647.27	2787
647.751	2795
648.233	2790
648.714	2718
649.196	2787
649.677	2774
650.159	2764
650.64	2724
651.122	2751
651.603	2695
652.085	2744
652.567	2752
653.049	2716
653.53	2689
654.012	2724
654.494	2681
654.976	2714
655.458	2717
655.94	2714
656.422	2760
656.904	2732
657.386	2722
657.868	2746
658.35	2742
658.833	2762
659.315	2768
659.797	2737
660.279	2749
660.762	2791
661.244	2774
661.726	2732
662.209	2729
662.691	2727
663.174	2677
663.656	2699
664.139	2710
664.621	2667
665.104	2630
665.587	2644
666.069	2664
666.552	2664
667.035	2639
667.517	2625
668	2625
668.483	2607
668.966	2591
669.449	2595
669.932	2603
670.415	2620
670.898	2577
671.381	2570
671.864	2571
672.347	2564
672.83	2594
673.313	2597
673.797	2561
674.28	2595
674.763	2590
675.247	2614
675.73	2620
676.213	2653
676.697	2670
677.18	2670
677.664	2686
678.147	2712
678.631	2728
679.114	2750
679.598	2729
680.082	2734
680.565	2722
681.049	2724
681.533	2729
682.017	2766
682.5	2763
682.984	2760
683.468	2739
683.952	2697
684.436	2745
684.92	2709
685.404	2716
685.888	2741
686.372	2696
686.856	2693
687.341	2744
687.825	2716
688.309	2753
688.793	2737
689.278	2684
689.762	2710
690.246	2697
690.731	2734
691.215	2753
691.7	2678
692.184	2696
692.669	2703
693.153	2717
693.638	2691
694.122	2708
694.607	2731
695.092	2680
695.577	2697
696.061	2649
696.546	2666
697.031	2659
697.516	2691
698.001	2695
698.486	2648
698.971	2673
699.456	2612
699.941	2639
700.426	2654
700.911	2677
701.396	2636
701.881	2642
702.366	2620
702.852	2611
703.337	2641
703.822	2653
704.308	2651
704.793	2647
705.278	2638
705.764	2624
706.249	2607
706.735	2641
707.22	2664
707.706	2629
708.191	2654
708.677	2636
709.163	2618
709.648	2655
710.134	2671
710.62	2643
711.106	2620
711.592	2636
712.077	2620
712.563	2559
713.049	2574
713.535	2648
714.021	2638
714.507	2621
714.993	2599
715.479	2641
715.966	2624
716.452	2656
716.938	2680
717.424	2607
717.91	2659
718.397	2621
718.883	2593
719.369	2615
719.856	2626
720.342	2680
720.829	2651
721.315	2656
721.802	2626
722.288	2648
722.775	2568
723.262	2505
723.748	2632
724.235	2619
724.722	2646
725.208	2574
725.695	2569
726.182	2566
726.669	2553
727.156	2586
727.643	2556
728.13	2557
728.617	2507
729.104	2495
729.591	2468
730.078	2502
730.565	2514
731.052	2476
731.539	2468
732.027	2435
732.514	2391
733.001	2417
733.488	2417
733.976	2425
734.463	2429
734.951	2433
735.438	2459
735.926	2425
736.413	2433
736.901	2419
737.388	2474
737.876	2475
738.364	2450
738.851	2446
739.339	2432
739.827	2451
740.314	2392
740.802	2441
741.29	2469
741.778	2461
742.266	2456
742.754	2453
743.242	2467
743.73	2424
744.218	2445
744.706	2425
745.194	2475
745.682	2450
746.17	2450
746.659	2434
747.147	2363
747.635	2387
748.123	2388
748.612	2377
749.1	2372
749.589	2377
750.077	2352
750.566	2336
751.054	2358
751.543	2364
752.031	2344
752.52	2371
753.008	2332
753.497	2323
753.986	2313
754.474	2292
754.963	2313
755.452	2298
755.941	2295
756.43	2299
756.919	2289
757.408	2257
757.896	2242
758.385	2241
758.875	2231
759.364	2223
759.853	2232
760.342	2192
760.831	2239
761.32	2214
761.809	2163
762.299	2170
762.788	2188
763.277	2200
763.767	2182
764.256	2196
764.745	2155
765.235	2173
765.724	2116
766.214	2154
766.703	2157
767.193	2147
767.683	2186
768.172	2152
768.662	2174
769.152	2165
769.641	2180
770.131	2126
770.621	2178
771.111	2169
771.601	2189
772.09	2166
772.58	2128
773.07	2127
773.56	2126
774.05	2083
774.54	2092
775.031	2097
775.521	2101
776.011	2100
776.501	2112
776.991	2049
777.482	2055
777.972	2010
778.462	2021
778.953	2061
779.443	2054
779.933	2048
780.424	2000
780.914	2004
781.405	1988
781.895	1964
782.386	1979
782.877	1974
783.367	1951
783.858	1940
784.349	1935
784.839	1908
785.33	1887
785.821	1863
786.312	1862
786.803	1879
787.293	1888
787.784	1876
788.275	1853
788.766	1830
789.257	1842
789.748	1800
790.24	1793
790.731	1819
791.222	1816
791.713	1828
792.204	1846
792.696	1788
793.187	1804
793.678	1789
794.169	1758
794.661	1816
795.152	1805
795.644	1808
796.135	1825
796.627	1817
797.118	1780
797.61	1765
798.101	1748
798.593	1773
799.085	1757
799.576	1778
800.068	1766
800.56	1767
801.052	1708
801.544	1698
802.035	1696
802.527	1678
803.019	1667
803.511	1655
804.003	1655
804.495	1669
804.987	1642
805.479	1592
805.971	1575
806.464	1577
806.956	1539
807.448	1539
807.94	1544
808.433	1548
808.925	1542
809.417	1518
809.91	1508
810.402	1471
810.894	1488
811.387	1505
811.879	1499
812.372	1516
812.865	1501
813.357	1490
813.85	1477
814.342	1472
814.835	1470
815.328	1474
815.821	1473
816.313	1498
816.806	1513
817.299	1509
817.792	1532
818.285	1510
818.778	1531
819.271	1528
819.764	1511
820.257	1535
820.75	1544
821.243	1562
821.736	1557
822.229	1567
822.722	1561
823.216	1579
