Data from lamp4bck_dubbel_Subt2__26__1026.txt Node

Date: Wed Apr 09 12:21:17 CEST 2025
User: fys-lab-0081
Spectrometer: S04999
Trigger mode: 0
Resolution mode: 1024 pixels
Integration Time (sec): 1.000000E-1
Scans to average: 1
Nonlinearity correction enabled: false
Boxcar width: 0
Baseline correction enabled: true
XAxis mode: Wavelengths
Number of Pixels in Spectrum: 1024
>>>>>Begin Spectral Data<<<<<
336.42	1
336.877	5
337.334	3
337.792	4
338.249	5
338.706	3
339.164	5
339.621	1
340.079	7
340.536	2
340.994	1
341.452	6
341.909	8
342.367	3
342.825	2
343.283	9
343.741	0
344.198	4
344.656	0
345.114	1
345.572	7
346.03	3
346.488	3
346.947	3
347.405	3
347.863	1
348.321	3
348.779	8
349.238	5
349.696	4
350.154	0
350.613	2
351.071	5
351.53	9
351.988	5
352.447	5
352.905	0
353.364	1
353.823	6
354.282	0
354.74	-5
355.199	7
355.658	8
356.117	5
356.576	8
357.035	4
357.494	7
357.953	6
358.412	9
358.871	4
359.33	2
359.789	5
360.249	11
360.708	10
361.167	7
361.626	10
362.086	5
362.545	5
363.005	7
363.464	9
363.924	7
364.383	7
364.843	8
365.303	14
365.762	13
366.222	10
366.682	8
367.142	9
367.601	11
368.061	7
368.521	10
368.981	9
369.441	20
369.901	16
370.361	10
370.821	8
371.282	11
371.742	12
372.202	13
372.662	16
373.123	7
373.583	9
374.043	15
374.504	10
374.964	15
375.425	16
375.885	13
376.346	18
376.806	20
377.267	16
377.728	21
378.188	19
378.649	14
379.11	17
379.571	15
380.032	22
380.493	18
380.954	21
381.414	18
381.876	21
382.337	21
382.798	24
383.259	25
383.72	25
384.181	20
384.642	23
385.104	26
385.565	25
386.026	34
386.488	29
386.949	30
387.411	29
387.872	30
388.334	34
388.795	33
389.257	37
389.719	32
390.181	36
390.642	33
391.104	34
391.566	38
392.028	38
392.49	43
392.952	42
393.414	42
393.876	44
394.338	39
394.8	39
395.262	38
395.724	49
396.186	46
396.648	53
397.111	46
397.573	51
398.035	50
398.498	48
398.96	51
399.423	46
399.885	47
400.348	52
400.81	54
401.273	50
401.736	54
402.198	59
402.661	61
403.124	54
403.587	65
404.049	64.5
404.512	64
404.975	67
405.438	64
405.901	67
406.364	73
406.827	68
407.29	69
407.754	68
408.217	69
408.68	69
409.143	74
409.607	76
410.07	69
410.533	72
410.997	76
411.46	77
411.924	82
412.387	81
412.851	82
413.314	80
413.778	82
414.242	82
414.705	90
415.169	93
415.633	87
416.097	86
416.561	90
417.024	90
417.488	91
417.952	91
418.416	86
418.88	87
419.344	83
419.809	91
420.273	93
420.737	90
421.201	93
421.665	95
422.13	98
422.594	101
423.059	100
423.523	102
423.987	98
424.452	109
424.916	108
425.381	113
425.846	109
426.31	123
426.775	126
427.24	124
427.704	121
428.169	122
428.634	128
429.099	127
429.564	126
430.029	121
430.494	122
430.959	123
431.424	118
431.889	130
432.354	134
432.819	123
433.284	134
433.75	132
434.215	139
434.68	135
435.146	141
435.611	147
436.077	153
436.542	152
437.008	157
437.473	162
437.939	160
438.404	166
438.87	169
439.336	169
439.801	168
440.267	171
440.733	176
441.199	175
441.665	177
442.131	180
442.596	171
443.062	178
443.529	191
443.995	188
444.461	187
444.927	200
445.393	196
445.859	207
446.325	207
446.792	223
447.258	219
447.724	235
448.191	242
448.657	239
449.124	245
449.59	245
450.057	261
450.523	266
450.99	267
451.457	267
451.923	276
452.39	271
452.857	279
453.324	275
453.791	279
454.257	282
454.724	283
455.191	284
455.658	284
456.125	290
456.592	286
457.059	295
457.527	295
457.994	315
458.461	309
458.928	311
459.396	312
459.863	323
460.33	318
460.798	320
461.265	329
461.732	326
462.2	341
462.668	333
463.135	335
463.603	329
464.07	346
464.538	339
465.006	347
465.474	341
465.941	337
466.409	340
466.877	334
467.345	341
467.813	334
468.281	345
468.749	341
469.217	341
469.685	350
470.153	356
470.621	349
471.09	353
471.558	363
472.026	362
472.494	380
472.963	380
473.431	388
473.9	397
474.368	409
474.837	414
475.305	424
475.774	431
476.242	440
476.711	444
477.18	461
477.648	456
478.117	466
478.586	467
479.055	456
479.524	469
479.993	462
480.462	464
480.93	464
481.399	469
481.869	472
482.338	466
482.807	472
483.276	475
483.745	471
484.214	485
484.684	486
485.153	482
485.622	485
486.092	499
486.561	493
487.031	500
487.5	509
487.97	514
488.439	522
488.909	535
489.378	555
489.848	557
490.318	574
490.787	606
491.257	615
491.727	614
492.197	635
492.667	635
493.137	637
493.607	644
494.077	648
494.547	640
495.017	637
495.487	650
495.957	662
496.427	651
496.897	647
497.368	658
497.838	651
498.308	656
498.779	660
499.249	666
499.719	673
500.19	680
500.66	680
501.131	689
501.602	697
502.072	703
502.543	717
503.014	734
503.484	727
503.955	741
504.426	765
504.897	768
505.368	783
505.838	800
506.309	808
506.78	839
507.251	861
507.722	867
508.194	898
508.665	917
509.136	915
509.607	942
510.078	953
510.549	972
511.021	994
511.492	994
511.964	1007
512.435	1027
512.906	1020
513.378	1030
513.849	1052
514.321	1049
514.793	1050
515.264	1069
515.736	1076
516.208	1092
516.679	1092
517.151	1111
517.623	1113
518.095	1127
518.567	1130
519.038	1164
519.51	1173
519.982	1182
520.454	1190
520.927	1216
521.399	1230
521.871	1234
522.343	1253
522.815	1282
523.287	1279
523.76	1281
524.232	1311
524.704	1321
525.177	1291
525.649	1288
526.122	1313
526.594	1282
527.067	1306
527.539	1315
528.012	1318
528.484	1313
528.957	1312
529.43	1306
529.903	1309
530.375	1346
530.848	1303
531.321	1321
531.794	1336
532.267	1355
532.74	1331
533.213	1339
533.686	1372
534.159	1355
534.632	1377
535.105	1383
535.578	1417
536.051	1421
536.525	1410
536.998	1410
537.471	1446
537.945	1416
538.418	1423
538.891	1426
539.365	1460
539.838	1466
540.312	1454
540.786	1462
541.259	1469
541.733	1494
542.206	1487
542.68	1473
543.154	1495
543.628	1497
544.101	1521
544.575	1522
545.049	1496
545.523	1541
545.997	1530
546.471	1539
546.945	1543
547.419	1569
547.893	1493
548.367	1517
548.842	1501
549.316	1513
549.79	1511
550.264	1500
550.739	1510
551.213	1515
551.687	1490
552.162	1498
552.636	1492
553.111	1488
553.585	1517
554.06	1493
554.534	1528
555.009	1529
555.484	1557
555.958	1564
556.433	1577
556.908	1616
557.383	1600
557.858	1640
558.333	1641
558.807	1627
559.282	1651
559.757	1688
560.232	1676
560.708	1641
561.183	1645
561.658	1663
562.133	1647
562.608	1629
563.083	1690
563.559	1649
564.034	1650
564.509	1647
564.985	1660
565.46	1656
565.936	1674
566.411	1664
566.887	1658
567.362	1681
567.838	1674
568.313	1690
568.789	1674
569.265	1680
569.74	1699
570.216	1674
570.692	1696
571.168	1692
571.644	1708
572.12	1698
572.596	1706
573.071	1692
573.547	1748
574.024	1768
574.5	1757
574.976	1758
575.452	1791
575.928	1808
576.404	1812
576.881	1857
577.357	1825
577.833	1839
578.31	1883
578.786	1904
579.262	1936
579.739	1917
580.215	1991
580.692	1992
581.169	1969
581.645	1978
582.122	2052
582.598	2046
583.075	2044
583.552	2066
584.029	2072
584.506	2076
584.982	2061
585.459	2091
585.936	2044
586.413	2077
586.89	2121
587.367	2099
587.844	2106
588.321	2076
588.799	2085
589.276	2074
589.753	2102
590.23	2093
590.707	2079
591.185	2085
591.662	2081
592.139	2090
592.617	2116
593.094	2116
593.572	2134
594.049	2170
594.527	2177
595.004	2168
595.482	2232
595.96	2254
596.437	2276
596.915	2322
597.393	2295
597.871	2360
598.349	2350
598.826	2392
599.304	2387
599.782	2428
600.26	2388
600.738	2445
601.216	2417
601.694	2425
602.173	2431
602.651	2462
603.129	2446
603.607	2454
604.085	2445
604.564	2417
605.042	2426
605.52	2408
605.999	2479
606.477	2419
606.956	2413
607.434	2443
607.913	2473
608.391	2477
608.87	2470
609.348	2436
609.827	2459
610.306	2499
610.785	2523
611.263	2535
611.742	2515
612.221	2482
612.7	2541
613.179	2567
613.658	2526
614.137	2531
614.616	2542
615.095	2505
615.574	2546
616.053	2543
616.532	2507
617.011	2514
617.491	2516
617.97	2524
618.449	2544
618.928	2557
619.408	2528
619.887	2552
620.367	2572
620.846	2598
621.326	2577
621.805	2606
622.285	2612
622.764	2650
623.244	2665
623.724	2669
624.203	2698
624.683	2662
625.163	2748
625.643	2764
626.123	2747
626.602	2805
627.082	2732
627.562	2752
628.042	2840
628.522	2819
629.002	2807
629.482	2805
629.963	2816
630.443	2805
630.923	2813
631.403	2829
631.883	2792
632.364	2794
632.844	2787
633.324	2788
633.805	2798
634.285	2754
634.766	2720
635.246	2718
635.727	2732
636.207	2742
636.688	2724
637.168	2712
637.649	2672
638.13	2647
638.611	2682
639.091	2684
639.572	2670
640.053	2647
640.534	2686
641.015	2704
641.496	2683
641.977	2729
642.458	2699
642.939	2702
643.42	2736
643.901	2755
644.382	2777
644.863	2774
645.345	2769
645.826	2777
646.307	2791
646.788	2847
647.27	2799
647.751	2804
648.233	2811
648.714	2729
649.196	2805
649.677	2787
650.159	2774
650.64	2731
651.122	2757
651.603	2701
652.085	2751
652.567	2750
653.049	2725
653.53	2702
654.012	2727
654.494	2685
654.976	2714
655.458	2727
655.94	2723
656.422	2767
656.904	2746
657.386	2729
657.868	2759
658.35	2752
658.833	2777
659.315	2781
659.797	2758
660.279	2773
660.762	2810
661.244	2785
661.726	2754
662.209	2742
662.691	2735
663.174	2688
663.656	2722
664.139	2724
664.621	2673
665.104	2637
665.587	2651
666.069	2667
666.552	2668
667.035	2643
667.517	2629
668	2633
668.483	2628
668.966	2618
669.449	2613
669.932	2602
670.415	2628
670.898	2586
671.381	2577
671.864	2580
672.347	2573
672.83	2600
673.313	2604
673.797	2573
674.28	2616
674.763	2602
675.247	2625
675.73	2630
676.213	2657
676.697	2682
677.18	2685
677.664	2702
678.147	2721
678.631	2743
679.114	2763
679.598	2746
680.082	2744
680.565	2737
681.049	2723
681.533	2747
682.017	2784
682.5	2783
682.984	2776
683.468	2752
683.952	2696
684.436	2754
684.92	2719
685.404	2729
685.888	2743
686.372	2705
686.856	2700
687.341	2742
687.825	2722
688.309	2737
688.793	2739
689.278	2673
689.762	2705
690.246	2708
690.731	2737
691.215	2754
691.7	2683
692.184	2703
692.669	2709
693.153	2714
693.638	2692
694.122	2709
694.607	2731
695.092	2687
695.577	2701
696.061	2659
696.546	2667
697.031	2654
697.516	2697
698.001	2689
698.486	2651
698.971	2670
699.456	2616
699.941	2631
700.426	2647
700.911	2681
701.396	2644
701.881	2643
702.366	2624
702.852	2620
703.337	2654
703.822	2654
704.308	2665
704.793	2660
705.278	2626
705.764	2631
706.249	2615
706.735	2638
707.22	2669
707.706	2634
708.191	2656
708.677	2643
709.163	2623
709.648	2658
710.134	2688
710.62	2638
711.106	2624
711.592	2639
712.077	2628
712.563	2566
713.049	2588
713.535	2653
714.021	2640
714.507	2625
714.993	2616
715.479	2663
715.966	2646
716.452	2678
716.938	2702
717.424	2628
717.91	2681
718.397	2640
718.883	2612
719.369	2628
719.856	2634
720.342	2683
720.829	2651
721.315	2655
721.802	2626
722.288	2651
722.775	2566
723.262	2510
723.748	2627
724.235	2609
724.722	2626
725.208	2550
725.695	2551
726.182	2543
726.669	2532
727.156	2565
727.643	2531
728.13	2537
728.617	2500
729.104	2491
729.591	2470
730.078	2506
730.565	2517
731.052	2474
731.539	2474
732.027	2448
732.514	2400
733.001	2419
733.488	2416
733.976	2429
734.463	2434
734.951	2434
735.438	2457
735.926	2421
736.413	2426
736.901	2423
737.388	2467
737.876	2476
738.364	2448
738.851	2447
739.339	2429
739.827	2444
740.314	2383
740.802	2426
741.29	2470
741.778	2452
742.266	2457
742.754	2458
743.242	2471
743.73	2432
744.218	2435
744.706	2434
745.194	2472
745.682	2442
746.17	2445
746.659	2421
747.147	2352
747.635	2375
748.123	2380
748.612	2374
749.1	2367
749.589	2380
750.077	2360
750.566	2331
751.054	2354
751.543	2368
752.031	2337
752.52	2379
753.008	2333
753.497	2331
753.986	2317
754.474	2292
754.963	2309
755.452	2294
755.941	2295
756.43	2307
756.919	2289
757.408	2257
757.896	2249
758.385	2241
758.875	2228
759.364	2237
759.853	2241
760.342	2206
760.831	2252
761.32	2222
761.809	2163
762.299	2177
762.788	2186
763.277	2198
763.767	2179
764.256	2188
764.745	2155
765.235	2180
765.724	2117
766.214	2147
766.703	2157
767.193	2155
767.683	2187
768.172	2159
768.662	2185
769.152	2171
769.641	2180
770.131	2132
770.621	2174
771.111	2166
771.601	2187
772.09	2170
772.58	2131
773.07	2126
773.56	2128
774.05	2084
774.54	2093
775.031	2097
775.521	2101
776.011	2107
776.501	2114
776.991	2053
777.482	2057
777.972	2013
778.462	2032
778.953	2070
779.443	2067
779.933	2055
780.424	2011
780.914	2004
781.405	1999
781.895	1978
782.386	1982
782.877	1982
783.367	1958
783.858	1943
784.349	1936
784.839	1910
785.33	1891
785.821	1875
786.312	1863
786.803	1878
787.293	1899
787.784	1880
788.275	1851
788.766	1822
789.257	1842
789.748	1795
790.24	1789
790.731	1817
791.222	1814
791.713	1832
792.204	1838
792.696	1791
793.187	1807
793.678	1798
794.169	1763
794.661	1817
795.152	1814
795.644	1818
796.135	1830
796.627	1825
797.118	1781
797.61	1765
798.101	1749
798.593	1781
799.085	1767
799.576	1788
800.068	1769
800.56	1778
801.052	1716
801.544	1706
802.035	1707
802.527	1682
803.019	1676
803.511	1671
804.003	1672
804.495	1673
804.987	1646
805.479	1591
805.971	1587
806.464	1586
806.956	1539
807.448	1550
807.94	1549
808.433	1558
808.925	1541
809.417	1521
809.91	1515
810.402	1472
810.894	1483
811.387	1504
811.879	1490
812.372	1506
812.865	1498
813.357	1486
813.85	1471
814.342	1464
814.835	1466
815.328	1474
815.821	1473
816.313	1488
816.806	1515
817.299	1512
817.792	1537
818.285	1513
818.778	1530
819.271	1538
819.764	1514
820.257	1535
820.75	1547
821.243	1569
821.736	1556
822.229	1576
822.722	1563
823.216	1591
