Data from lamp4bck_dubbel_Subt2__86__1086.txt Node

Date: Wed Apr 09 12:21:24 CEST 2025
User: fys-lab-0081
Spectrometer: S04999
Trigger mode: 0
Resolution mode: 1024 pixels
Integration Time (sec): 1.000000E-1
Scans to average: 1
Nonlinearity correction enabled: false
Boxcar width: 0
Baseline correction enabled: true
XAxis mode: Wavelengths
Number of Pixels in Spectrum: 1024
>>>>>Begin Spectral Data<<<<<
336.42	4
336.877	4
337.334	2
337.792	4
338.249	7
338.706	5
339.164	3
339.621	3
340.079	4
340.536	3
340.994	7
341.452	5
341.909	10
342.367	4
342.825	0
343.283	8
343.741	2
344.198	4
344.656	1
345.114	0
345.572	5
346.03	1
346.488	4
346.947	5
347.405	6
347.863	2
348.321	5
348.779	9
349.238	5
349.696	4
350.154	4
350.613	4
351.071	6
351.53	9
351.988	5
352.447	0
352.905	0
353.364	8
353.823	8
354.282	8
354.74	-1
355.199	5
355.658	10
356.117	5
356.576	3
357.035	0
357.494	6
357.953	4
358.412	12
358.871	9
359.33	5
359.789	3
360.249	8
360.708	5
361.167	9
361.626	7
362.086	5
362.545	7
363.005	8
363.464	10
363.924	12
364.383	9
364.843	9
365.303	11
365.762	14
366.222	10
366.682	7
367.142	10
367.601	8
368.061	9
368.521	9
368.981	8
369.441	14
369.901	12
370.361	11
370.821	13
371.282	10
371.742	12
372.202	12
372.662	17
373.123	12
373.583	11
374.043	14
374.504	11
374.964	8
375.425	16
375.885	15
376.346	17
376.806	17
377.267	11
377.728	16
378.188	19
378.649	16
379.11	19
379.571	10
380.032	22
380.493	18
380.954	21
381.414	18
381.876	15
382.337	19
382.798	20
383.259	23
383.72	24
384.181	19
384.642	23
385.104	24
385.565	27
386.026	29
386.488	31
386.949	34
387.411	30
387.872	30
388.334	35
388.795	35
389.257	35
389.719	31
390.181	33
390.642	37
391.104	36
391.566	40
392.028	40
392.49	45
392.952	41
393.414	43
393.876	44
394.338	43
394.8	39
395.262	37
395.724	46
396.186	50
396.648	47
397.111	45
397.573	52
398.035	52
398.498	46
398.96	54
399.423	50
399.885	51
400.348	56
400.81	55
401.273	54
401.736	55
402.198	63
402.661	61
403.124	52
403.587	64
404.049	64
404.512	64
404.975	67
405.438	66
405.901	68
406.364	65
406.827	69
407.29	71
407.754	67
408.217	69
408.68	68
409.143	75
409.607	76
410.07	79
410.533	73
410.997	78
411.46	80
411.924	83
412.387	80
412.851	80
413.314	80
413.778	80
414.242	85
414.705	92
415.169	91
415.633	85
416.097	86
416.561	91
417.024	95
417.488	91
417.952	95
418.416	86
418.88	85
419.344	89
419.809	95
420.273	94
420.737	93
421.201	93
421.665	96
422.13	101
422.594	104
423.059	100
423.523	105
423.987	103
424.452	114
424.916	112
425.381	116
425.846	115
426.31	127
426.775	124
427.24	120
427.704	122
428.169	126
428.634	128
429.099	128
429.564	125
430.029	123
430.494	129
430.959	125
431.424	126
431.889	126
432.354	133
432.819	128
433.284	136
433.75	132
434.215	141
434.68	137
435.146	141
435.611	152
436.077	150
436.542	152
437.008	163
437.473	166
437.939	164
438.404	169
438.87	178
439.336	171
439.801	173
440.267	176
440.733	180
441.199	176
441.665	179
442.131	180
442.596	177
443.062	180
443.529	193
443.995	191
444.461	193
444.927	204
445.393	199
445.859	208
446.325	216
446.792	227
447.258	225
447.724	238
448.191	246
448.657	246
449.124	248
449.59	252
450.057	267
450.523	266
450.99	275
451.457	273
451.923	276
452.39	274
452.857	284
453.324	281
453.791	288
454.257	290
454.724	286
455.191	285
455.658	293
456.125	300
456.592	293
457.059	301
457.527	301
457.994	313
458.461	313
458.928	316
459.396	319
459.863	323
460.33	328
460.798	329
461.265	336
461.732	335
462.2	344
462.668	346
463.135	351
463.603	342
464.07	361
464.538	342
465.006	351
465.474	347
465.941	340
466.409	343
466.877	341
467.345	346
467.813	341
468.281	351
468.749	351
469.217	344
469.685	354
470.153	363
470.621	361
471.09	364
471.558	380
472.026	378
472.494	386
472.963	392
473.431	401
473.9	409
474.368	416
474.837	416
475.305	433
475.774	438
476.242	457
476.711	458
477.18	468
477.648	468
478.117	477
478.586	474
479.055	470
479.524	476
479.993	475
480.462	472
480.93	472
481.399	480
481.869	482
482.338	473
482.807	486
483.276	484
483.745	474
484.214	492
484.684	498
485.153	489
485.622	499
486.092	503
486.561	496
487.031	517
487.5	525
487.97	521
488.439	532
488.909	544
489.378	569
489.848	570
490.318	585
490.787	621
491.257	621
491.727	631
492.197	647
492.667	643
493.137	649
493.607	650
494.077	665
494.547	652
495.017	651
495.487	669
495.957	680
496.427	665
496.897	665
497.368	680
497.838	671
498.308	678
498.779	681
499.249	687
499.719	686
500.19	703
500.66	697
501.131	700
501.602	720
502.072	715
502.543	728
503.014	745
503.484	742
503.955	757
504.426	775
504.897	775
505.368	798
505.838	808
506.309	821
506.78	854
507.251	877
507.722	897
508.194	916
508.665	936
509.136	937
509.607	963
510.078	984
510.549	999
511.021	1021
511.492	1014
511.964	1037
512.435	1057
512.906	1040
513.378	1050
513.849	1075
514.321	1063
514.793	1069
515.264	1087
515.736	1101
516.208	1109
516.679	1112
517.151	1127
517.623	1142
518.095	1146
518.567	1163
519.038	1187
519.51	1197
519.982	1208
520.454	1226
520.927	1246
521.399	1263
521.871	1269
522.343	1286
522.815	1311
523.287	1303
523.76	1315
524.232	1328
524.704	1338
525.177	1310
525.649	1312
526.122	1333
526.594	1307
527.067	1328
527.539	1337
528.012	1336
528.484	1347
528.957	1336
529.43	1343
529.903	1340
530.375	1377
530.848	1335
531.321	1350
531.794	1366
532.267	1393
532.74	1367
533.213	1373
533.686	1402
534.159	1387
534.632	1411
535.105	1412
535.578	1441
536.051	1444
536.525	1431
536.998	1430
537.471	1467
537.945	1428
538.418	1442
538.891	1455
539.365	1481
539.838	1489
540.312	1478
540.786	1494
541.259	1505
541.733	1538
542.206	1532
542.68	1516
543.154	1535
543.628	1541
544.101	1565
544.575	1560
545.049	1538
545.523	1575
545.997	1568
546.471	1584
546.945	1577
547.419	1594
547.893	1517
548.367	1534
548.842	1524
549.316	1526
549.79	1533
550.264	1513
550.739	1529
551.213	1536
551.687	1521
552.162	1529
552.636	1523
553.111	1523
553.585	1553
554.06	1525
554.534	1569
555.009	1575
555.484	1601
555.958	1605
556.433	1621
556.908	1662
557.383	1644
557.858	1680
558.333	1675
558.807	1658
559.282	1678
559.757	1714
560.232	1696
560.708	1672
561.183	1670
561.658	1678
562.133	1669
562.608	1653
563.083	1712
563.559	1671
564.034	1674
564.509	1673
564.985	1700
565.46	1692
565.936	1716
566.411	1713
566.887	1698
567.362	1731
567.838	1720
568.313	1739
568.789	1725
569.265	1733
569.74	1744
570.216	1732
570.692	1748
571.168	1737
571.644	1752
572.12	1738
572.596	1741
573.071	1726
573.547	1766
574.024	1790
574.5	1778
574.976	1776
575.452	1801
575.928	1831
576.404	1842
576.881	1884
577.357	1855
577.833	1870
578.31	1933
578.786	1952
579.262	1984
579.739	1973
580.215	2043
580.692	2054
581.169	2032
581.645	2048
582.122	2109
582.598	2103
583.075	2109
583.552	2115
584.029	2116
584.506	2119
584.982	2091
585.459	2120
585.936	2071
586.413	2097
586.89	2131
587.367	2107
587.844	2110
588.321	2088
588.799	2097
589.276	2089
589.753	2127
590.23	2127
590.707	2116
591.185	2117
591.662	2121
592.139	2141
592.617	2173
593.094	2171
593.572	2199
594.049	2226
594.527	2250
595.004	2241
595.482	2305
595.96	2313
596.437	2332
596.915	2382
597.393	2345
597.871	2414
598.349	2394
598.826	2441
599.304	2421
599.782	2454
600.26	2409
600.738	2466
601.216	2438
601.694	2436
602.173	2436
602.651	2463
603.129	2469
603.607	2472
604.085	2472
604.564	2460
605.042	2463
605.52	2462
605.999	2536
606.477	2475
606.956	2485
607.434	2518.5
607.913	2552
608.391	2561
608.87	2554
609.348	2521
609.827	2548
610.306	2578
610.785	2603
611.263	2613
611.742	2588
612.221	2558
612.7	2612
613.179	2625
613.658	2575
614.137	2582
614.616	2588
615.095	2553
615.574	2575
616.053	2573
616.532	2531
617.011	2535
617.491	2550
617.97	2549
618.449	2574
618.928	2590
619.408	2572
619.887	2592
620.367	2624
620.846	2649
621.326	2640
621.805	2681
622.285	2681
622.764	2736
623.244	2759
623.724	2773
624.203	2789
624.683	2755
625.163	2846
625.643	2858
626.123	2836
626.602	2894
627.082	2814
627.562	2839
628.042	2910
628.522	2895
629.002	2868
629.482	2866
629.963	2862
630.443	2846
630.923	2852
631.403	2857
631.883	2822
632.364	2824
632.844	2805
633.324	2827
633.805	2839
634.285	2798
634.766	2752
635.246	2769
635.727	2787
636.207	2796
636.688	2791
637.168	2789
637.649	2745
638.13	2741
638.611	2771
639.091	2778
639.572	2778
640.053	2751
640.534	2795
641.015	2815
641.496	2781
641.977	2824
642.458	2788
642.939	2785
643.42	2816
643.901	2830
644.382	2857
644.863	2839
645.345	2823
645.826	2825
646.307	2826
646.788	2872
647.27	2831
647.751	2827
648.233	2842
648.714	2752
649.196	2835
649.677	2820
650.159	2820
650.64	2763
651.122	2801
651.603	2764
652.085	2801
652.567	2817
653.049	2788
653.53	2768
654.012	2807
654.494	2759
654.976	2805
655.458	2814
655.94	2811
656.422	2860
656.904	2829
657.386	2815
657.868	2840
658.35	2838
658.833	2865
659.315	2860
659.797	2828
660.279	2843
660.762	2872
661.244	2853
661.726	2804
662.209	2790
662.691	2792
663.174	2723
663.656	2752
664.139	2757
664.621	2704
665.104	2663
665.587	2686
666.069	2703
666.552	2706
667.035	2681
667.517	2669
668	2679
668.483	2665
668.966	2658
669.449	2658
669.932	2665
670.415	2687
670.898	2650
671.381	2641
671.864	2662
672.347	2659
672.83	2676
673.313	2693
673.797	2667
674.28	2702
674.763	2690
675.247	2727
675.73	2727
676.213	2767
676.697	2772
677.18	2776
677.664	2791
678.147	2801
678.631	2819
679.114	2845
679.598	2816
680.082	2816
680.565	2802
681.049	2790
681.533	2810
682.017	2836
682.5	2836
682.984	2830
683.468	2802
683.952	2751
684.436	2807
684.92	2777
685.404	2776
685.888	2800
686.372	2756
686.856	2759
687.341	2808
687.825	2789
688.309	2818
688.793	2812
689.278	2758
689.762	2793
690.246	2780
690.731	2824
691.215	2844
691.7	2773
692.184	2795
692.669	2796
693.153	2811
693.638	2780
694.122	2795
694.607	2824
695.092	2773
695.577	2791
696.061	2746
696.546	2746
697.031	2747
697.516	2779
698.001	2761
698.486	2724
698.971	2740
699.456	2684
699.941	2711
700.426	2713
700.911	2748
701.396	2699
701.881	2708
702.366	2681
702.852	2667
703.337	2703
703.822	2712
704.308	2707
704.793	2704
705.278	2680
705.764	2682
706.249	2671
706.735	2687
707.22	2728
707.706	2679
708.191	2709
708.677	2698
709.163	2691
709.648	2716
710.134	2753
710.62	2717
711.106	2697
711.592	2720
712.077	2702
712.563	2647
713.049	2668
713.535	2726
714.021	2728
714.507	2722
714.993	2699
715.479	2747
715.966	2734
716.452	2751
716.938	2781
717.424	2704
717.91	2770
718.397	2724
718.883	2690
719.369	2713
719.856	2705
720.342	2764
720.829	2734
721.315	2730
721.802	2707
722.288	2720
722.775	2627
723.262	2565
723.748	2682
724.235	2653
724.722	2682
725.208	2609
725.695	2604
726.182	2597
726.669	2579
727.156	2613
727.643	2582
728.13	2583
728.617	2543
729.104	2524
729.591	2507
730.078	2541
730.565	2557
731.052	2527
731.539	2528
732.027	2491
732.514	2448
733.001	2475
733.488	2471
733.976	2491
734.463	2491
734.951	2492
735.438	2520
735.926	2484
736.413	2497
736.901	2497
737.388	2532
737.876	2543
738.364	2524
738.851	2521
739.339	2509
739.827	2529
740.314	2461
740.802	2520
741.29	2544
741.778	2527
742.266	2526
742.754	2520
743.242	2537
743.73	2484
744.218	2502
744.706	2494
745.194	2525
745.682	2510
746.17	2503
746.659	2478
747.147	2407
747.635	2430
748.123	2435
748.612	2428
749.1	2414
749.589	2431
750.077	2397
750.566	2368
751.054	2396
751.543	2408
752.031	2381
752.52	2415
753.008	2368
753.497	2365
753.986	2354
754.474	2328
754.963	2358
755.452	2338
755.941	2340
756.43	2352
756.919	2341
757.408	2297
757.896	2293
758.385	2283
758.875	2276
759.364	2275
759.853	2286
760.342	2258
760.831	2303
761.32	2276
761.809	2219
762.299	2236
762.788	2246
763.277	2254
763.767	2246
764.256	2249
764.745	2216
765.235	2234
765.724	2170
766.214	2201
766.703	2216
767.193	2207
767.683	2244
768.172	2216
768.662	2232
769.152	2216
769.641	2223
770.131	2177
770.621	2208
771.111	2210
771.601	2228
772.09	2212
772.58	2165
773.07	2147
773.56	2152
774.05	2115
774.54	2120
775.031	2130
775.521	2130
776.011	2130
776.501	2138
776.991	2083
777.482	2087
777.972	2034
778.462	2055
778.953	2092
779.443	2091
779.933	2083
780.424	2039
780.914	2040
781.405	2038
781.895	2017
782.386	2025
782.877	2027
783.367	2004
783.858	1987
784.349	1982
784.839	1948
785.33	1943
785.821	1918
786.312	1914
786.803	1936
787.293	1957
787.784	1941
788.275	1916
788.766	1883
789.257	1900
789.748	1860
790.24	1849
790.731	1874
791.222	1875
791.713	1888
792.204	1898
792.696	1845
793.187	1857
793.678	1847
794.169	1812
794.661	1866
795.152	1853
795.644	1861
796.135	1874
796.627	1861
797.118	1814
797.61	1796
798.101	1768
798.593	1803
799.085	1782
799.576	1803
800.068	1783
800.56	1791
801.052	1724
801.544	1726
802.035	1721
802.527	1698
803.019	1695
803.511	1683
804.003	1684
804.495	1686
804.987	1672
805.479	1614
805.971	1606
806.464	1600
806.956	1558
807.448	1573
807.94	1577
808.433	1577
808.925	1575
809.417	1553
809.91	1544
810.402	1503
810.894	1525
811.387	1541
811.879	1534
812.372	1553
812.865	1545
813.357	1538
813.85	1520
814.342	1507
814.835	1504
815.328	1520
815.821	1519
816.313	1539
816.806	1565
817.299	1567
817.792	1584
818.285	1554
818.778	1573
819.271	1581
819.764	1565
820.257	1577
820.75	1593
821.243	1607
821.736	1602
822.229	1606
822.722	1599
823.216	1620
