Data from lamp4bck_dubbel_Subt2__40__1040.txt Node

Date: Wed Apr 09 12:21:18 CEST 2025
User: fys-lab-0081
Spectrometer: S04999
Trigger mode: 0
Resolution mode: 1024 pixels
Integration Time (sec): 1.000000E-1
Scans to average: 1
Nonlinearity correction enabled: false
Boxcar width: 0
Baseline correction enabled: true
XAxis mode: Wavelengths
Number of Pixels in Spectrum: 1024
>>>>>Begin Spectral Data<<<<<
336.42	-1
336.877	3
337.334	1
337.792	4
338.249	6
338.706	6
339.164	4
339.621	1
340.079	4
340.536	6
340.994	3
341.452	4
341.909	6
342.367	5
342.825	1
343.283	6
343.741	2
344.198	6
344.656	2
345.114	2
345.572	7
346.03	2
346.488	5
346.947	5
347.405	7
347.863	-2
348.321	3
348.779	7
349.238	3
349.696	7
350.154	2
350.613	4
351.071	10
351.53	6
351.988	8
352.447	4
352.905	-2
353.364	8
353.823	6
354.282	3
354.74	0
355.199	3
355.658	5
356.117	2
356.576	6
357.035	4
357.494	10
357.953	3
358.412	6
358.871	9
359.33	3
359.789	7
360.249	5
360.708	6
361.167	7
361.626	8
362.086	8
362.545	8
363.005	10
363.464	9
363.924	8
364.383	10
364.843	11
365.303	14
365.762	12
366.222	7
366.682	6
367.142	13
367.601	10
368.061	9
368.521	5
368.981	6
369.441	19
369.901	14
370.361	10
370.821	8
371.282	9
371.742	15
372.202	12
372.662	12
373.123	13
373.583	13
374.043	15
374.504	13
374.964	10
375.425	16
375.885	13
376.346	19
376.806	16
377.267	15
377.728	16
378.188	19
378.649	12
379.11	20
379.571	14
380.032	20
380.493	21
380.954	24
381.414	20
381.876	22
382.337	17
382.798	20
383.259	23
383.72	24
384.181	20
384.642	21
385.104	20
385.565	28
386.026	29
386.488	26
386.949	28
387.411	32
387.872	33
388.334	36
388.795	34
389.257	37
389.719	35
390.181	33
390.642	35
391.104	32
391.566	38
392.028	41
392.49	47
392.952	44
393.414	41
393.876	44
394.338	40
394.8	41
395.262	39
395.724	50
396.186	47
396.648	50
397.111	51
397.573	50
398.035	47
398.498	56
398.96	48
399.423	49
399.885	52
400.348	54
400.81	53
401.273	50
401.736	53
402.198	61
402.661	61
403.124	58
403.587	64
404.049	66
404.512	68
404.975	65
405.438	69
405.901	71
406.364	68
406.827	73
407.29	68
407.754	70
408.217	68
408.68	66
409.143	74
409.607	77
410.07	77
410.533	74
410.997	75
411.46	76
411.924	83
412.387	82
412.851	80
413.314	85
413.778	79
414.242	79
414.705	93
415.169	94
415.633	91
416.097	85
416.561	92
417.024	93
417.488	93
417.952	94
418.416	90
418.88	88
419.344	88
419.809	92
420.273	93
420.737	91
421.201	99
421.665	98
422.13	102
422.594	102
423.059	102
423.523	107
423.987	103
424.452	112
424.916	108
425.381	118
425.846	114
426.31	122
426.775	121
427.24	125
427.704	126
428.169	125
428.634	129
429.099	124
429.564	124
430.029	126
430.494	128
430.959	124
431.424	124
431.889	130
432.354	137
432.819	129
433.284	140
433.75	132
434.215	146
434.68	145
435.146	141
435.611	142
436.077	152
436.542	156
437.008	161
437.473	165
437.939	165
438.404	168
438.87	173
439.336	173
439.801	178
440.267	173
440.733	181
441.199	175
441.665	185
442.131	182
442.596	175
443.062	183
443.529	196
443.995	195
444.461	194
444.927	203
445.393	200
445.859	208
446.325	214
446.792	226
447.258	227
447.724	238
448.191	248
448.657	249
449.124	248
449.59	250
450.057	274
450.523	274
450.99	275
451.457	276
451.923	281
452.39	273
452.857	287
453.324	286
453.791	282
454.257	292
454.724	293
455.191	282
455.658	292
456.125	299
456.592	299
457.059	301
457.527	298
457.994	312
458.461	316
458.928	320
459.396	320
459.863	327
460.33	325
460.798	331
461.265	341
461.732	336
462.2	343
462.668	342
463.135	349
463.603	341
464.07	362
464.538	338
465.006	351
465.474	345
465.941	346
466.409	347
466.877	345
467.345	348
467.813	340
468.281	346
468.749	357
469.217	348
469.685	360
470.153	363
470.621	365
471.09	361
471.558	379
472.026	377
472.494	385
472.963	390
473.431	397
473.9	407
474.368	421
474.837	424
475.305	432
475.774	439
476.242	455
476.711	460
477.18	471
477.648	465
478.117	479
478.586	474
479.055	470
479.524	483
479.993	473
480.462	470
480.93	476
481.399	484
481.869	477
482.338	472
482.807	483
483.276	480
483.745	480
484.214	491
484.684	496
485.153	492
485.622	496
486.092	508
486.561	498
487.031	517
487.5	519
487.97	528
488.439	535
488.909	549
489.378	567
489.848	575
490.318	584
490.787	623
491.257	627
491.727	627
492.197	649
492.667	647
493.137	649
493.607	659
494.077	667
494.547	655
495.017	651
495.487	665
495.957	679
496.427	661
496.897	663
497.368	675
497.838	671
498.308	673
498.779	676
499.249	684
499.719	687
500.19	702
500.66	697
501.131	705
501.602	713
502.072	711
502.543	729
503.014	749
503.484	748
503.955	755
504.426	784
504.897	783
505.368	803
505.838	812
506.309	827
506.78	851
507.251	884
507.722	896
508.194	914
508.665	938
509.136	938
509.607	959
510.078	985
510.549	999
511.021	1014
511.492	1011
511.964	1035
512.435	1058
512.906	1047
513.378	1049
513.849	1080
514.321	1081
514.793	1078
515.264	1094
515.736	1105
516.208	1120
516.679	1125
517.151	1145
517.623	1151
518.095	1152
518.567	1160
519.038	1199
519.51	1199
519.982	1214
520.454	1229
520.927	1249
521.399	1263
521.871	1273
522.343	1288
522.815	1318
523.287	1317
523.76	1310
524.232	1343
524.704	1349
525.177	1322
525.649	1323
526.122	1354
526.594	1316
527.067	1333
527.539	1346
528.012	1350
528.484	1350
528.957	1342
529.43	1345
529.903	1345
530.375	1378
530.848	1338
531.321	1357
531.794	1374
532.267	1398
532.74	1369
533.213	1377
533.686	1408
534.159	1396
534.632	1420
535.105	1424
535.578	1457
536.051	1459
536.525	1451
536.998	1446
537.471	1478
537.945	1447
538.418	1458
538.891	1466
539.365	1498
539.838	1493
540.312	1490
540.786	1504
541.259	1504
541.733	1528
542.206	1528
542.68	1514
543.154	1526
543.628	1539
544.101	1568
544.575	1563
545.049	1541
545.523	1584
545.997	1563
546.471	1586
546.945	1582
547.419	1603
547.893	1531
548.367	1548
548.842	1538
549.316	1547
549.79	1554
550.264	1527
550.739	1546
551.213	1550
551.687	1538
552.162	1544
552.636	1532
553.111	1521
553.585	1555
554.06	1527
554.534	1570
555.009	1569
555.484	1600
555.958	1611
556.433	1623
556.908	1656
557.383	1648
557.858	1683
558.333	1691
558.807	1672
559.282	1698
559.757	1724
560.232	1712
560.708	1694
561.183	1690
561.658	1696
562.133	1685
562.608	1669
563.083	1725
563.559	1686
564.034	1683
564.509	1688
564.985	1710
565.46	1695
565.936	1716
566.411	1715
566.887	1701
567.362	1717
567.838	1727
568.313	1736
568.789	1723
569.265	1730
569.74	1751
570.216	1734
570.692	1748
571.168	1745
571.644	1760
572.12	1748
572.596	1739
573.071	1731
573.547	1780
574.024	1806
574.5	1809
574.976	1801
575.452	1831
575.928	1853
576.404	1861
576.881	1900
577.357	1865
577.833	1890
578.31	1944
578.786	1964
579.262	1989
579.739	1976
580.215	2041
580.692	2048
581.169	2025
581.645	2044
582.122	2110
582.598	2116
583.075	2121
583.552	2127
584.029	2133
584.506	2131
584.982	2120
585.459	2143
585.936	2098
586.413	2124
586.89	2175
587.367	2139
587.844	2150
588.321	2130
588.799	2128
589.276	2127
589.753	2154
590.23	2145
590.707	2123
591.185	2136
591.662	2135
592.139	2156
592.617	2178
593.094	2176
593.572	2199
594.049	2233
594.527	2246
595.004	2237
595.482	2311
595.96	2319
596.437	2332
596.915	2397
597.393	2356
597.871	2428
598.349	2413
598.826	2465
599.304	2457
599.782	2493
600.26	2455
600.738	2506
601.216	2490
601.694	2495
602.173	2490
602.651	2510
603.129	2508
603.607	2515
604.085	2510
604.564	2493
605.042	2487
605.52	2484
605.999	2548
606.477	2490
606.956	2485
607.434	2514.5
607.913	2544
608.391	2555
608.87	2547
609.348	2524
609.827	2541
610.306	2583
610.785	2609
611.263	2614
611.742	2599
612.221	2567
612.7	2627
613.179	2648
613.658	2599
614.137	2622
614.616	2629
615.095	2579
615.574	2608
616.053	2613
616.532	2569
617.011	2580
617.491	2588
617.97	2583
618.449	2610
618.928	2624
619.408	2600
619.887	2618
620.367	2646
620.846	2670
621.326	2653
621.805	2680
622.285	2677
622.764	2732
623.244	2756
623.724	2761
624.203	2790
624.683	2758
625.163	2838
625.643	2860
626.123	2849
626.602	2896
627.082	2828
627.562	2846
628.042	2931
628.522	2928
629.002	2907
629.482	2898
629.963	2912
630.443	2891
630.923	2899
631.403	2911
631.883	2877
632.364	2872
632.844	2852
633.324	2870
633.805	2881
634.285	2831
634.766	2794
635.246	2796
635.727	2812
636.207	2819
636.688	2814
637.168	2802
637.649	2759
638.13	2738
638.611	2771
639.091	2779
639.572	2767
640.053	2744
640.534	2789
641.015	2808
641.496	2787
641.977	2837
642.458	2803
642.939	2797
643.42	2824
643.901	2855
644.382	2874
644.863	2867
645.345	2856
645.826	2858
646.307	2872
646.788	2927
647.27	2881
647.751	2878
648.233	2886
648.714	2807
649.196	2885
649.677	2872
650.159	2859
650.64	2812
651.122	2837
651.603	2789
652.085	2834
652.567	2835
653.049	2807
653.53	2785
654.012	2820
654.494	2767
654.976	2805
655.458	2823
655.94	2818
656.422	2859
656.904	2833
657.386	2824
657.868	2856
658.35	2848
658.833	2878
659.315	2884
659.797	2860
660.279	2868
660.762	2911
661.244	2886
661.726	2833
662.209	2822
662.691	2825
663.174	2770
663.656	2797
664.139	2799
664.621	2761
665.104	2716
665.587	2734
666.069	2751
666.552	2754
667.035	2722
667.517	2720
668	2720
668.483	2713
668.966	2696
669.449	2700
669.932	2697
670.415	2717
670.898	2669
671.381	2658
671.864	2668
672.347	2666
672.83	2692
673.313	2697
673.797	2674
674.28	2704
674.763	2708
675.247	2721
675.73	2736
676.213	2768
676.697	2793
677.18	2787
677.664	2801
678.147	2822
678.631	2837
679.114	2861
679.598	2837
680.082	2840
680.565	2821
681.049	2819
681.533	2827
682.017	2864
682.5	2867
682.984	2861
683.468	2833
683.952	2781
684.436	2835
684.92	2796
685.404	2802
685.888	2824
686.372	2784
686.856	2772
687.341	2822
687.825	2802
688.309	2825
688.793	2809
689.278	2758
689.762	2791
690.246	2787
690.731	2829
691.215	2844
691.7	2773
692.184	2795
692.669	2796
693.153	2806
693.638	2780
694.122	2802
694.607	2825
695.092	2776
695.577	2796
696.061	2745
696.546	2767
697.031	2761
697.516	2791
698.001	2777
698.486	2741
698.971	2763
699.456	2704
699.941	2729
700.426	2744
700.911	2774
701.396	2730
701.881	2735
702.366	2694
702.852	2693
703.337	2744
703.822	2744
704.308	2747
704.793	2736
705.278	2727
705.764	2712
706.249	2701
706.735	2721
707.22	2757
707.706	2713
708.191	2740
708.677	2723
709.163	2717
709.648	2742
710.134	2778
710.62	2734
711.106	2717
711.592	2740
712.077	2720
712.563	2656
713.049	2676
713.535	2741
714.021	2738
714.507	2727
714.993	2718
715.479	2759
715.966	2750
716.452	2781
716.938	2802
717.424	2724
717.91	2788
718.397	2742
718.883	2708
719.369	2728
719.856	2728
720.342	2776
720.829	2746
721.315	2744
721.802	2717
722.288	2738
722.775	2647
723.262	2584
723.748	2708
724.235	2689
724.722	2708
725.208	2630
725.695	2614
726.182	2618
726.669	2597
727.156	2637
727.643	2600
728.13	2608
728.617	2573
729.104	2566
729.591	2545
730.078	2578
730.565	2592
731.052	2555
731.539	2550
732.027	2527
732.514	2480
733.001	2500
733.488	2498
733.976	2517
734.463	2522
734.951	2517
735.438	2537
735.926	2503
736.413	2516
736.901	2508
737.388	2561
737.876	2563
738.364	2539
738.851	2541
739.339	2523
739.827	2534
740.314	2469
740.802	2515
741.29	2550
741.778	2537
742.266	2546
742.754	2551
743.242	2556
743.73	2504
744.218	2518
744.706	2506
745.194	2551
745.682	2522
746.17	2518
746.659	2496
747.147	2427
747.635	2452
748.123	2464
748.612	2460
749.1	2448
749.589	2462
750.077	2433
750.566	2407
751.054	2425
751.543	2443
752.031	2417
752.52	2450
753.008	2407
753.497	2401
753.986	2387
754.474	2368
754.963	2380
755.452	2367
755.941	2371
756.43	2375
756.919	2364
757.408	2327
757.896	2316
758.385	2317
758.875	2297
759.364	2308
759.853	2308
760.342	2281
760.831	2320
761.32	2291
761.809	2236
762.299	2247
762.788	2265
763.277	2275
763.767	2264
764.256	2263
764.745	2229
765.235	2253
765.724	2182
766.214	2226
766.703	2229
767.193	2226
767.683	2255
768.172	2232
768.662	2253
769.152	2235
769.641	2240
770.131	2194
770.621	2233
771.111	2227
771.601	2243
772.09	2230
772.58	2190
773.07	2195
773.56	2193
774.05	2153
774.54	2160
775.031	2157
775.521	2164
776.011	2164
776.501	2176
776.991	2116
777.482	2118
777.972	2074
778.462	2096
778.953	2131
779.443	2135
779.933	2122
780.424	2082
780.914	2075
781.405	2063
781.895	2045
782.386	2051
782.877	2053
783.367	2025
783.858	2008
784.349	2004
784.839	1969
785.33	1951
785.821	1939
786.312	1927
786.803	1941
787.293	1962
787.784	1945
788.275	1913
788.766	1878
789.257	1908
789.748	1862
790.24	1845
790.731	1885
791.222	1871
791.713	1897
792.204	1914
792.696	1858
793.187	1871
793.678	1860
794.169	1830
794.661	1885
795.152	1883
795.644	1898
796.135	1901
796.627	1894
797.118	1853
797.61	1837
798.101	1811
798.593	1843
799.085	1830
799.576	1855
800.068	1838
800.56	1834
801.052	1778
801.544	1767
802.035	1766
802.527	1740
803.019	1730
803.511	1725
804.003	1731
804.495	1730
804.987	1710
805.479	1648
805.971	1640
806.464	1641
806.956	1597
807.448	1591
807.94	1602
808.433	1605
808.925	1590
809.417	1567
809.91	1554
810.402	1516
810.894	1529
811.387	1553
811.879	1542
812.372	1559
812.865	1543
813.357	1539
813.85	1528
814.342	1511
814.835	1513
815.328	1526
815.821	1530
816.313	1555
816.806	1578
817.299	1571
817.792	1597
818.285	1571
818.778	1596
819.271	1595
819.764	1581
820.257	1595
820.75	1608
821.243	1638
821.736	1626
822.229	1632
822.722	1628
823.216	1649
