Data from lamp4bck_dubbel_Subt2__59__1059.txt Node

Date: Wed Apr 09 12:21:21 CEST 2025
User: fys-lab-0081
Spectrometer: S04999
Trigger mode: 0
Resolution mode: 1024 pixels
Integration Time (sec): 1.000000E-1
Scans to average: 1
Nonlinearity correction enabled: false
Boxcar width: 0
Baseline correction enabled: true
XAxis mode: Wavelengths
Number of Pixels in Spectrum: 1024
>>>>>Begin Spectral Data<<<<<
336.42	1
336.877	4
337.334	5
337.792	8
338.249	6
338.706	-1
339.164	3
339.621	6
340.079	2
340.536	3
340.994	3
341.452	6
341.909	12
342.367	5
342.825	3
343.283	7
343.741	1
344.198	4
344.656	0
345.114	2
345.572	7
346.03	1
346.488	5
346.947	0
347.405	3
347.863	5
348.321	4
348.779	7
349.238	-1
349.696	1
350.154	6
350.613	6
351.071	4
351.53	7
351.988	8
352.447	6
352.905	-1
353.364	2
353.823	6
354.282	6
354.74	0
355.199	6
355.658	5
356.117	4
356.576	5
357.035	3
357.494	5
357.953	3
358.412	7
358.871	8
359.33	7
359.789	5
360.249	10
360.708	4
361.167	4
361.626	5
362.086	8
362.545	8
363.005	5
363.464	6
363.924	9
364.383	5
364.843	11
365.303	9
365.762	12
366.222	10
366.682	12
367.142	9
367.601	8
368.061	8
368.521	12
368.981	8
369.441	16
369.901	13
370.361	11
370.821	13
371.282	12
371.742	10
372.202	15
372.662	16
373.123	11
373.583	14
374.043	19
374.504	12
374.964	8
375.425	17
375.885	16
376.346	18
376.806	20
377.267	14
377.728	23
378.188	20
378.649	18
379.11	21
379.571	14
380.032	22
380.493	19
380.954	24
381.414	17
381.876	19
382.337	21
382.798	21
383.259	21
383.72	22
384.181	19
384.642	23
385.104	23
385.565	28
386.026	26
386.488	28
386.949	31
387.411	28
387.872	33
388.334	37
388.795	32
389.257	34
389.719	31
390.181	30
390.642	34
391.104	33
391.566	42
392.028	39
392.49	45
392.952	41
393.414	41
393.876	43
394.338	40
394.8	43
395.262	39
395.724	46
396.186	45
396.648	46
397.111	53
397.573	51
398.035	48
398.498	49
398.96	51
399.423	46
399.885	50
400.348	54
400.81	53
401.273	53
401.736	48
402.198	65
402.661	59
403.124	56
403.587	62
404.049	64
404.512	66
404.975	64
405.438	65
405.901	66
406.364	71
406.827	68
407.29	70
407.754	68
408.217	71
408.68	71
409.143	72
409.607	75
410.07	70
410.533	72
410.997	74
411.46	79
411.924	81
412.387	80
412.851	79
413.314	79
413.778	81
414.242	83
414.705	88
415.169	91
415.633	85
416.097	84
416.561	89
417.024	92
417.488	90
417.952	92
418.416	85
418.88	83
419.344	86
419.809	91
420.273	91
420.737	87
421.201	95
421.665	99
422.13	100
422.594	105
423.059	102
423.523	103
423.987	101
424.452	109
424.916	109
425.381	109
425.846	110
426.31	120
426.775	121
427.24	122
427.704	122
428.169	121
428.634	128
429.099	121
429.564	123
430.029	121
430.494	123
430.959	120
431.424	121
431.889	131
432.354	134
432.819	125
433.284	132
433.75	133
434.215	138
434.68	137
435.146	140
435.611	145
436.077	148
436.542	153
437.008	161
437.473	161
437.939	162
438.404	166
438.87	173
439.336	168
439.801	171
440.267	173
440.733	176
441.199	175
441.665	174
442.131	177
442.596	175
443.062	182
443.529	189
443.995	188
444.461	193
444.927	197
445.393	194
445.859	204
446.325	211
446.792	223
447.258	221
447.724	233
448.191	242
448.657	241
449.124	243
449.59	244
450.057	263
450.523	264
450.99	271
451.457	268
451.923	277
452.39	268
452.857	286
453.324	274
453.791	280
454.257	285
454.724	286
455.191	283
455.658	286
456.125	292
456.592	290
457.059	297
457.527	297
457.994	306
458.461	309
458.928	313
459.396	317
459.863	319
460.33	323
460.798	328
461.265	328
461.732	330
462.2	337
462.668	336
463.135	340
463.603	336
464.07	350
464.538	334
465.006	347
465.474	339
465.941	336
466.409	343
466.877	337
467.345	342
467.813	337
468.281	343
468.749	346
469.217	337
469.685	356
470.153	358
470.621	353
471.09	359
471.558	368
472.026	371
472.494	383
472.963	380
473.431	396
473.9	405
474.368	407
474.837	410
475.305	421
475.774	431
476.242	443
476.711	452
477.18	466
477.648	456
478.117	469
478.586	466
479.055	460
479.524	469
479.993	472
480.462	471
480.93	471
481.399	469
481.869	473
482.338	464
482.807	478
483.276	475
483.745	470
484.214	483
484.684	486
485.153	487
485.622	491
486.092	496
486.561	494
487.031	508
487.5	516
487.97	516
488.439	521
488.909	534
489.378	557
489.848	562
490.318	575
490.787	609
491.257	611
491.727	617
492.197	637
492.667	635
493.137	637
493.607	644
494.077	653
494.547	636
495.017	639
495.487	659
495.957	675
496.427	656
496.897	653
497.368	668
497.838	659
498.308	667
498.779	667
499.249	672
499.719	677
500.19	684
500.66	686
501.131	691
501.602	702
502.072	705
502.543	713
503.014	732
503.484	729
503.955	739
504.426	761
504.897	766
505.368	782
505.838	798
506.309	807
506.78	846
507.251	856
507.722	881
508.194	902
508.665	924
509.136	917
509.607	944
510.078	970
510.549	979
511.021	1002
511.492	1000
511.964	1019
512.435	1043
512.906	1027
513.378	1030
513.849	1055
514.321	1053
514.793	1058
515.264	1069
515.736	1081
516.208	1092
516.679	1097
517.151	1117
517.623	1128
518.095	1134
518.567	1142
519.038	1179
519.51	1183
519.982	1191
520.454	1208
520.927	1225
521.399	1249
521.871	1255
522.343	1264
522.815	1291
523.287	1284
523.76	1291
524.232	1316
524.704	1316
525.177	1289
525.649	1293
526.122	1312
526.594	1289
527.067	1305
527.539	1319
528.012	1330
528.484	1324
528.957	1318
529.43	1318
529.903	1322
530.375	1355
530.848	1315
531.321	1331
531.794	1344
532.267	1374
532.74	1345
533.213	1352
533.686	1378
534.159	1367
534.632	1391
535.105	1395
535.578	1423
536.051	1421
536.525	1410
536.998	1412
537.471	1441
537.945	1413
538.418	1424
538.891	1426
539.365	1463
539.838	1470
540.312	1455
540.786	1471
541.259	1483
541.733	1513
542.206	1513
542.68	1490
543.154	1503
543.628	1514
544.101	1538
544.575	1537
545.049	1521
545.523	1549
545.997	1540
546.471	1551
546.945	1552
547.419	1561
547.893	1485
548.367	1505
548.842	1497
549.316	1502
549.79	1507
550.264	1491
550.739	1507
551.213	1515
551.687	1495
552.162	1505
552.636	1503
553.111	1502
553.585	1533
554.06	1503
554.534	1538
555.009	1550
555.484	1578
555.958	1580
556.433	1593
556.908	1628
557.383	1622
557.858	1651
558.333	1654
558.807	1640
559.282	1657
559.757	1691
560.232	1676
560.708	1644
561.183	1647
561.658	1659
562.133	1638
562.608	1624
563.083	1683
563.559	1649
564.034	1651
564.509	1652
564.985	1679
565.46	1673
565.936	1696
566.411	1682
566.887	1676
567.362	1707
567.838	1702
568.313	1717
568.789	1696
569.265	1704
569.74	1721
570.216	1699
570.692	1714
571.168	1709
571.644	1726
572.12	1704
572.596	1712
573.071	1688
573.547	1742
574.024	1762
574.5	1757
574.976	1755
575.452	1779
575.928	1805
576.404	1808
576.881	1849
577.357	1827
577.833	1849
578.31	1900
578.786	1930
579.262	1954
579.739	1941
580.215	2018
580.692	2022
581.169	2005
581.645	2006
582.122	2075
582.598	2076
583.075	2080
583.552	2087
584.029	2082
584.506	2089
584.982	2065
585.459	2090
585.936	2035
586.413	2065
586.89	2104
587.367	2079
587.844	2084
588.321	2052
588.799	2070
589.276	2064
589.753	2101
590.23	2093
590.707	2081
591.185	2087
591.662	2094
592.139	2107
592.617	2140
593.094	2137
593.572	2172
594.049	2196
594.527	2207
595.004	2202
595.482	2267
595.96	2284
596.437	2297
596.915	2346
597.393	2320
597.871	2379
598.349	2355
598.826	2403
599.304	2378
599.782	2412
600.26	2375
600.738	2421
601.216	2401
601.694	2396
602.173	2400
602.651	2426
603.129	2425
603.607	2439
604.085	2436
604.564	2423
605.042	2419
605.52	2425
605.999	2502
606.477	2439
606.956	2445
607.434	2473
607.913	2501
608.391	2521
608.87	2511
609.348	2487
609.827	2500
610.306	2545
610.785	2561
611.263	2569
611.742	2545
612.221	2516
612.7	2572
613.179	2586
613.658	2534
614.137	2543
614.616	2549
615.095	2509
615.574	2529
616.053	2541
616.532	2489
617.011	2498
617.491	2509
617.97	2507
618.449	2532
618.928	2556
619.408	2522
619.887	2555
620.367	2573
620.846	2606
621.326	2598
621.805	2638
622.285	2642
622.764	2694
623.244	2714
623.724	2727
624.203	2748
624.683	2717
625.163	2797
625.643	2807
626.123	2792
626.602	2833
627.082	2767
627.562	2782
628.042	2873
628.522	2843
629.002	2819
629.482	2817
629.963	2816
630.443	2797
630.923	2801
631.403	2802
631.883	2774
632.364	2774
632.844	2751
633.324	2776
633.805	2795
634.285	2756
634.766	2719
635.246	2725
635.727	2738
636.207	2758
636.688	2742
637.168	2739
637.649	2701
638.13	2692
638.611	2723
639.091	2723
639.572	2717
640.053	2700
640.534	2745
641.015	2767
641.496	2730
641.977	2787
642.458	2748
642.939	2745
643.42	2768
643.901	2787
644.382	2808
644.863	2790
645.345	2778
645.826	2786
646.307	2786
646.788	2828
647.27	2794
647.751	2786
648.233	2790
648.714	2716
649.196	2795
649.677	2778
650.159	2771
650.64	2720
651.122	2753
651.603	2712
652.085	2754
652.567	2763
653.049	2741
653.53	2721
654.012	2754
654.494	2710
654.976	2754
655.458	2776
655.94	2766
656.422	2812
656.904	2791
657.386	2769
657.868	2803
658.35	2794
658.833	2819
659.315	2809
659.797	2785
660.279	2807
660.762	2833
661.244	2812
661.726	2762
662.209	2747
662.691	2741
663.174	2690
663.656	2709
664.139	2707
664.621	2658
665.104	2617
665.587	2635
666.069	2655
666.552	2660
667.035	2638
667.517	2624
668	2629
668.483	2623
668.966	2617
669.449	2611
669.932	2621
670.415	2645
670.898	2610
671.381	2600
671.864	2616
672.347	2609
672.83	2631
673.313	2648
673.797	2623
674.28	2654
674.763	2656
675.247	2685
675.73	2687
676.213	2716
676.697	2738
677.18	2731
677.664	2742
678.147	2755
678.631	2778
679.114	2791
679.598	2773
680.082	2769
680.565	2751
681.049	2741
681.533	2762
682.017	2787
682.5	2785
682.984	2779
683.468	2756
683.952	2709
684.436	2759
684.92	2731
685.404	2738
685.888	2749
686.372	2706
686.856	2707
687.341	2760
687.825	2754
688.309	2777
688.793	2764
689.278	2718
689.762	2746
690.246	2747
690.731	2769
691.215	2790
691.7	2719
692.184	2756
692.669	2747
693.153	2757
693.638	2745
694.122	2749
694.607	2781
695.092	2734
695.577	2746
696.061	2695
696.546	2711
697.031	2699
697.516	2737
698.001	2722
698.486	2683
698.971	2704
699.456	2638
699.941	2663
700.426	2679
700.911	2700
701.396	2662
701.881	2656
702.366	2636
702.852	2629
703.337	2667
703.822	2660
704.308	2661
704.793	2661
705.278	2645
705.764	2635
706.249	2618
706.735	2649
707.22	2675
707.706	2630
708.191	2669
708.677	2661
709.163	2647
709.648	2677
710.134	2705
710.62	2681
711.106	2659
711.592	2674
712.077	2654
712.563	2598
713.049	2608
713.535	2681
714.021	2675
714.507	2668
714.993	2658
715.479	2699
715.966	2676
716.452	2710
716.938	2727
717.424	2649
717.91	2711
718.397	2664
718.883	2644
719.369	2656
719.856	2663
720.342	2707
720.829	2683
721.315	2693
721.802	2664
722.288	2683
722.775	2597
723.262	2528
723.748	2643
724.235	2625
724.722	2646
725.208	2573
725.695	2566
726.182	2562
726.669	2550
727.156	2586
727.643	2545
728.13	2542
728.617	2501
729.104	2494
729.591	2466
730.078	2506
730.565	2515
731.052	2486
731.539	2486
732.027	2450
732.514	2419
733.001	2437
733.488	2433
733.976	2448
734.463	2454
734.951	2454
735.438	2481
735.926	2446
736.413	2462
736.901	2444
737.388	2490
737.876	2491
738.364	2476
738.851	2476
739.339	2463
739.827	2486
740.314	2422
740.802	2462
741.29	2498
741.778	2482
742.266	2493
742.754	2485
743.242	2494
743.73	2448
744.218	2456
744.706	2458
745.194	2493
745.682	2457
746.17	2463
746.659	2444
747.147	2372
747.635	2391
748.123	2402
748.612	2388
749.1	2375
749.589	2384
750.077	2361
750.566	2330
751.054	2352
751.543	2365
752.031	2346
752.52	2367
753.008	2320
753.497	2325
753.986	2315
754.474	2292
754.963	2310
755.452	2302
755.941	2311
756.43	2310
756.919	2298
757.408	2261
757.896	2251
758.385	2251
758.875	2237
759.364	2238
759.853	2242
760.342	2222
760.831	2264
761.32	2234
761.809	2191
762.299	2206
762.788	2224
763.277	2231
763.767	2212
764.256	2218
764.745	2177
765.235	2196
765.724	2138
766.214	2167
766.703	2178
767.193	2175
767.683	2208
768.172	2180
768.662	2199
769.152	2181
769.641	2192
770.131	2143
770.621	2187
771.111	2177
771.601	2208
772.09	2186
772.58	2131
773.07	2122
773.56	2125
774.05	2083
774.54	2084
775.031	2099
775.521	2102
776.011	2100
776.501	2104
776.991	2045
777.482	2051
777.972	2008
778.462	2027
778.953	2065
779.443	2058
779.933	2055
780.424	2013
780.914	2014
781.405	2007
781.895	1987
782.386	1986
782.877	1992
783.367	1967
783.858	1953
784.349	1942
784.839	1916
785.33	1909
785.821	1892
786.312	1887
786.803	1910
787.293	1923
787.784	1908
788.275	1882
788.766	1850
789.257	1876
789.748	1825
790.24	1822
790.731	1847
791.222	1841
791.713	1853
792.204	1866
792.696	1809
793.187	1824
793.678	1809
794.169	1776
794.661	1837
795.152	1823
795.644	1828
796.135	1843
796.627	1828
797.118	1792
797.61	1764
798.101	1734
798.593	1774
799.085	1752
799.576	1770
800.068	1757
800.56	1767
801.052	1703
801.544	1688
802.035	1691
802.527	1670
803.019	1664
803.511	1662
804.003	1662
804.495	1666
804.987	1643
805.479	1588
805.971	1581
806.464	1573
806.956	1531
807.448	1541
807.94	1550
808.433	1560
808.925	1547
809.417	1531
809.91	1517
810.402	1488
810.894	1493
811.387	1519
811.879	1510
812.372	1522
812.865	1516
813.357	1511
813.85	1498
814.342	1482
814.835	1484
815.328	1498
815.821	1491
816.313	1520
816.806	1542
817.299	1534
817.792	1551
818.285	1533
818.778	1551
819.271	1546
819.764	1532
820.257	1548
820.75	1561
821.243	1570
821.736	1567
822.229	1573
822.722	1562
823.216	1586
