Data from lamp4bck_dubbel_Subt2__58__1058.txt Node

Date: Wed Apr 09 12:21:21 CEST 2025
User: fys-lab-0081
Spectrometer: S04999
Trigger mode: 0
Resolution mode: 1024 pixels
Integration Time (sec): 1.000000E-1
Scans to average: 1
Nonlinearity correction enabled: false
Boxcar width: 0
Baseline correction enabled: true
XAxis mode: Wavelengths
Number of Pixels in Spectrum: 1024
>>>>>Begin Spectral Data<<<<<
336.42	2
336.877	4
337.334	1
337.792	4
338.249	5
338.706	2
339.164	4
339.621	0
340.079	1
340.536	6
340.994	4
341.452	8
341.909	8
342.367	-1
342.825	3
343.283	7
343.741	5
344.198	0
344.656	-1
345.114	5
345.572	4
346.03	2
346.488	3
346.947	2
347.405	6
347.863	1
348.321	3
348.779	9
349.238	3
349.696	8
350.154	2
350.613	5
351.071	8
351.53	7
351.988	10
352.447	4
352.905	3
353.364	3
353.823	6
354.282	8
354.74	0
355.199	8
355.658	10
356.117	4
356.576	8
357.035	1
357.494	3
357.953	8
358.412	7
358.871	7
359.33	5
359.789	6
360.249	8
360.708	7
361.167	9
361.626	8
362.086	7
362.545	9
363.005	5
363.464	6
363.924	9
364.383	5
364.843	9
365.303	11
365.762	10
366.222	9
366.682	10
367.142	11
367.601	10
368.061	9
368.521	6
368.981	10
369.441	17
369.901	13
370.361	12
370.821	9
371.282	11
371.742	11
372.202	12
372.662	16
373.123	8
373.583	14
374.043	18
374.504	9
374.964	10
375.425	13
375.885	11
376.346	17
376.806	21
377.267	13
377.728	18
378.188	20
378.649	17
379.11	18
379.571	10
380.032	17
380.493	21
380.954	24
381.414	21
381.876	18
382.337	19
382.798	25
383.259	24
383.72	25
384.181	18
384.642	20
385.104	23
385.565	25
386.026	31
386.488	28
386.949	28
387.411	30
387.872	29
388.334	34
388.795	35
389.257	34
389.719	35
390.181	38
390.642	31
391.104	33
391.566	41
392.028	43
392.49	41
392.952	44
393.414	47
393.876	48
394.338	38
394.8	40
395.262	40
395.724	45
396.186	45
396.648	48
397.111	48
397.573	51
398.035	47
398.498	49
398.96	50
399.423	50
399.885	51
400.348	56
400.81	50
401.273	50
401.736	53
402.198	59
402.661	58
403.124	57
403.587	66
404.049	66
404.512	66
404.975	63
405.438	66
405.901	69
406.364	71
406.827	67
407.29	70
407.754	70
408.217	70
408.68	67
409.143	73
409.607	74
410.07	73
410.533	75
410.997	75
411.46	78
411.924	75
412.387	85
412.851	79
413.314	81
413.778	81
414.242	84
414.705	88
415.169	90
415.633	84
416.097	86
416.561	91
417.024	91
417.488	87
417.952	91
418.416	89
418.88	86
419.344	87
419.809	90
420.273	91
420.737	88
421.201	95
421.665	92
422.13	96
422.594	104
423.059	103
423.523	103
423.987	99
424.452	111
424.916	113
425.381	109
425.846	113
426.31	123
426.775	121
427.24	123
427.704	121
428.169	123
428.634	125
429.099	129
429.564	125
430.029	121
430.494	129
430.959	125
431.424	120
431.889	130
432.354	131
432.819	125
433.284	138
433.75	129
434.215	135
434.68	140
435.146	138
435.611	142
436.077	149
436.542	151
437.008	162
437.473	165
437.939	163
438.404	164
438.87	175
439.336	168
439.801	173
440.267	170
440.733	176
441.199	173
441.665	180
442.131	180
442.596	174
443.062	178
443.529	188
443.995	190
444.461	189
444.927	198
445.393	197
445.859	203
446.325	215
446.792	220
447.258	225
447.724	236
448.191	246
448.657	241
449.124	243
449.59	246
450.057	264
450.523	266
450.99	266
451.457	268
451.923	278
452.39	274
452.857	280
453.324	274
453.791	283
454.257	286
454.724	285
455.191	280
455.658	284
456.125	295
456.592	287
457.059	295
457.527	295
457.994	305
458.461	304
458.928	318
459.396	309
459.863	319
460.33	321
460.798	327
461.265	332
461.732	325
462.2	340
462.668	336
463.135	340
463.603	337
464.07	351
464.538	334
465.006	345
465.474	342
465.941	337
466.409	338
466.877	337
467.345	338
467.813	334
468.281	339
468.749	347
469.217	342
469.685	355
470.153	359
470.621	354
471.09	355
471.558	372
472.026	368
472.494	380
472.963	382
473.431	393
473.9	404
474.368	408
474.837	411
475.305	420
475.774	429
476.242	444
476.711	453
477.18	466
477.648	460
478.117	465
478.586	470
479.055	464
479.524	469
479.993	463
480.462	466
480.93	464
481.399	473
481.869	473
482.338	467
482.807	474
483.276	471
483.745	472
484.214	484
484.684	486
485.153	486
485.622	486
486.092	501
486.561	488
487.031	507
487.5	520
487.97	514
488.439	524
488.909	537
489.378	558
489.848	564
490.318	577
490.787	611
491.257	614
491.727	621
492.197	639
492.667	638
493.137	639
493.607	646
494.077	652
494.547	640
495.017	640
495.487	660
495.957	669
496.427	652
496.897	657
497.368	670
497.838	658
498.308	661
498.779	665
499.249	675
499.719	677
500.19	688
500.66	691
501.131	694
501.602	707
502.072	704
502.543	719
503.014	734
503.484	732
503.955	746
504.426	768
504.897	764
505.368	787
505.838	798
506.309	808
506.78	842
507.251	868
507.722	880
508.194	905
508.665	918
509.136	919
509.607	946
510.078	966
510.549	981
511.021	1006
511.492	1002
511.964	1024
512.435	1039
512.906	1026
513.378	1038
513.849	1057
514.321	1052
514.793	1060
515.264	1073
515.736	1085
516.208	1095
516.679	1097
517.151	1115
517.623	1130
518.095	1131
518.567	1140
519.038	1177
519.51	1176
519.982	1192
520.454	1217
520.927	1230
521.399	1242
521.871	1255
522.343	1267
522.815	1295
523.287	1282
523.76	1289
524.232	1310
524.704	1320
525.177	1292
525.649	1291
526.122	1317
526.594	1285
527.067	1307
527.539	1324
528.012	1321
528.484	1327
528.957	1317
529.43	1318
529.903	1319
530.375	1363
530.848	1313
531.321	1332
531.794	1347
532.267	1378
532.74	1344
533.213	1353
533.686	1385
534.159	1368
534.632	1391
535.105	1400
535.578	1427
536.051	1422
536.525	1416
536.998	1411
537.471	1449
537.945	1419
538.418	1417
538.891	1425
539.365	1456
539.838	1466
540.312	1463
540.786	1467
541.259	1493
541.733	1505
542.206	1510
542.68	1490
543.154	1507
543.628	1517
544.101	1545
544.575	1542
545.049	1514
545.523	1556
545.997	1539
546.471	1550
546.945	1549
547.419	1574
547.893	1486
548.367	1513
548.842	1494
549.316	1511
549.79	1511
550.264	1493
550.739	1511
551.213	1518
551.687	1500
552.162	1503
552.636	1501
553.111	1501
553.585	1538
554.06	1500
554.534	1547
555.009	1554
555.484	1579
555.958	1585
556.433	1598
556.908	1630
557.383	1623
557.858	1655
558.333	1648
558.807	1639
559.282	1664
559.757	1692
560.232	1675
560.708	1642
561.183	1652
561.658	1652
562.133	1642
562.608	1629
563.083	1689
563.559	1650
564.034	1652
564.509	1656
564.985	1676
565.46	1672
565.936	1695
566.411	1694
566.887	1675
567.362	1708
567.838	1703
568.313	1715
568.789	1702
569.265	1712
569.74	1721
570.216	1711
570.692	1712
571.168	1709
571.644	1729
572.12	1703
572.596	1713
573.071	1687
573.547	1740
574.024	1762
574.5	1759
574.976	1753
575.452	1780
575.928	1805
576.404	1808
576.881	1856
577.357	1827
577.833	1851
578.31	1906
578.786	1925
579.262	1959
579.739	1948
580.215	2020
580.692	2029
581.169	2005
581.645	2018
582.122	2086
582.598	2075
583.075	2081
583.552	2089
584.029	2091
584.506	2089
584.982	2076
585.459	2095
585.936	2041
586.413	2070
586.89	2107
587.367	2082
587.844	2089
588.321	2053
588.799	2069
589.276	2066
589.753	2094
590.23	2103
590.707	2084
591.185	2087
591.662	2096
592.139	2121
592.617	2135
593.094	2143
593.572	2168
594.049	2205
594.527	2213
595.004	2211
595.482	2273
595.96	2285
596.437	2292
596.915	2350
597.393	2321
597.871	2383
598.349	2362
598.826	2405
599.304	2393
599.782	2420
600.26	2373
600.738	2426
601.216	2406
601.694	2403
602.173	2403
602.651	2434
603.129	2420
603.607	2440
604.085	2442
604.564	2428
605.042	2431
605.52	2426
605.999	2502
606.477	2444
606.956	2445
607.434	2474.5
607.913	2504
608.391	2526
608.87	2519
609.348	2484
609.827	2505
610.306	2545
610.785	2557
611.263	2572
611.742	2549
612.221	2518
612.7	2573
613.179	2592
613.658	2534
614.137	2547
614.616	2560
615.095	2513
615.574	2542
616.053	2535
616.532	2487
617.011	2498
617.491	2513
617.97	2513
618.449	2535
618.928	2546
619.408	2535
619.887	2562
620.367	2580
620.846	2613
621.326	2596
621.805	2641
622.285	2639
622.764	2694
623.244	2721
623.724	2732
624.203	2755
624.683	2724
625.163	2800
625.643	2816
626.123	2803
626.602	2845
627.082	2778
627.562	2795
628.042	2884
628.522	2856
629.002	2830
629.482	2828
629.963	2825
630.443	2807
630.923	2810
631.403	2811
631.883	2780
632.364	2787
632.844	2763
633.324	2786
633.805	2796
634.285	2757
634.766	2725
635.246	2731
635.727	2746
636.207	2760
636.688	2755
637.168	2735
637.649	2710
638.13	2697
638.611	2726
639.091	2738
639.572	2721
640.053	2708
640.534	2748
641.015	2775
641.496	2734
641.977	2791
642.458	2755
642.939	2755
643.42	2776
643.901	2790
644.382	2821
644.863	2801
645.345	2791
645.826	2788
646.307	2791
646.788	2842
647.27	2794
647.751	2792
648.233	2798
648.714	2717
649.196	2796
649.677	2790
650.159	2779
650.64	2721
651.122	2759
651.603	2717
652.085	2760
652.567	2777
653.049	2746
653.53	2729
654.012	2755
654.494	2720
654.976	2765
655.458	2777
655.94	2761
656.422	2815
656.904	2789
657.386	2778
657.868	2805
658.35	2799
658.833	2812
659.315	2822
659.797	2787
660.279	2807
660.762	2837
661.244	2807
661.726	2774
662.209	2748
662.691	2755
663.174	2695
663.656	2717
664.139	2715
664.621	2671
665.104	2623
665.587	2640
666.069	2657
666.552	2669
667.035	2642
667.517	2637
668	2634
668.483	2630
668.966	2623
669.449	2622
669.932	2624
670.415	2648
670.898	2618
671.381	2603
671.864	2621
672.347	2624
672.83	2638
673.313	2651
673.797	2628
674.28	2664
674.763	2665
675.247	2687
675.73	2697
676.213	2725
676.697	2747
677.18	2737
677.664	2746
678.147	2767
678.631	2780
679.114	2797
679.598	2776
680.082	2780
680.565	2761
681.049	2758
681.533	2762
682.017	2799
682.5	2790
682.984	2789
683.468	2764
683.952	2712
684.436	2771
684.92	2738
685.404	2733
685.888	2752
686.372	2717
686.856	2718
687.341	2774
687.825	2751
688.309	2779
688.793	2776
689.278	2721
689.762	2753
690.246	2750
690.731	2782
691.215	2795
691.7	2731
692.184	2759
692.669	2752
693.153	2766
693.638	2741
694.122	2760
694.607	2784
695.092	2729
695.577	2750
696.061	2698
696.546	2720
697.031	2712
697.516	2748
698.001	2732
698.486	2689
698.971	2714
699.456	2649
699.941	2667
700.426	2682
700.911	2704
701.396	2677
701.881	2671
702.366	2636
702.852	2632
703.337	2667
703.822	2680
704.308	2668
704.793	2669
705.278	2648
705.764	2649
706.249	2626
706.735	2655
707.22	2688
707.706	2652
708.191	2671
708.677	2671
709.163	2660
709.648	2690
710.134	2721
710.62	2677
711.106	2663
711.592	2679
712.077	2668
712.563	2611
713.049	2627
713.535	2702
714.021	2684
714.507	2682
714.993	2673
715.479	2705
715.966	2694
716.452	2726
716.938	2745
717.424	2671
717.91	2722
718.397	2680
718.883	2657
719.369	2670
719.856	2671
720.342	2726
720.829	2697
721.315	2703
721.802	2675
722.288	2689
722.775	2604
723.262	2537
723.748	2656
724.235	2635
724.722	2659
725.208	2581
725.695	2579
726.182	2570
726.669	2553
727.156	2585
727.643	2557
728.13	2556
728.617	2511
729.104	2499
729.591	2477
730.078	2513
730.565	2521
731.052	2495
731.539	2494
732.027	2471
732.514	2423
733.001	2446
733.488	2449
733.976	2460
734.463	2470
734.951	2463
735.438	2495
735.926	2453
736.413	2474
736.901	2473
737.388	2505
737.876	2512
738.364	2490
738.851	2494
739.339	2472
739.827	2501
740.314	2433
740.802	2478
741.29	2519
741.778	2498
742.266	2505
742.754	2502
743.242	2505
743.73	2462
744.218	2474
744.706	2460
745.194	2501
745.682	2474
746.17	2475
746.659	2454
747.147	2381
747.635	2401
748.123	2407
748.612	2397
749.1	2392
749.589	2401
750.077	2368
750.566	2338
751.054	2366
751.543	2380
752.031	2359
752.52	2395
753.008	2341
753.497	2332
753.986	2326
754.474	2302
754.963	2326
755.452	2313
755.941	2315
756.43	2328
756.919	2316
757.408	2263
757.896	2269
758.385	2260
758.875	2247
759.364	2248
759.853	2257
760.342	2242
760.831	2280
761.32	2251
761.809	2200
762.299	2210
762.788	2223
763.277	2239
763.767	2223
764.256	2232
764.745	2187
765.235	2210
765.724	2147
766.214	2178
766.703	2183
767.193	2192
767.683	2219
768.172	2198
768.662	2213
769.152	2196
769.641	2201
770.131	2161
770.621	2204
771.111	2186
771.601	2211
772.09	2195
772.58	2149
773.07	2137
773.56	2137
774.05	2099
774.54	2108
775.031	2111
775.521	2109
776.011	2108
776.501	2124
776.991	2054
777.482	2063
777.972	2017
778.462	2036
778.953	2071
779.443	2071
779.933	2070
780.424	2025
780.914	2028
781.405	2021
781.895	1997
782.386	2005
782.877	2005
783.367	1982
783.858	1967
784.349	1970
784.839	1931
785.33	1921
785.821	1904
786.312	1897
786.803	1913
787.293	1936
787.784	1921
788.275	1898
788.766	1868
789.257	1885
789.748	1836
790.24	1828
790.731	1866
791.222	1860
791.713	1864
792.204	1876
792.696	1824
793.187	1842
793.678	1824
794.169	1790
794.661	1835
795.152	1842
795.644	1840
796.135	1849
796.627	1837
797.118	1800
797.61	1777
798.101	1757
798.593	1779
799.085	1763
799.576	1779
800.068	1772
800.56	1773
801.052	1716
801.544	1702
802.035	1696
802.527	1680
803.019	1676
803.511	1673
804.003	1668
804.495	1682
804.987	1654
805.479	1594
805.971	1591
806.464	1589
806.956	1550
807.448	1560
807.94	1567
808.433	1566
808.925	1561
809.417	1543
809.91	1529
810.402	1494
810.894	1503
811.387	1531
811.879	1520
812.372	1535
812.865	1524
813.357	1523
813.85	1508
814.342	1487
814.835	1497
815.328	1501
815.821	1503
816.313	1524
816.806	1553
817.299	1546
817.792	1570
818.285	1537
818.778	1558
819.271	1559
819.764	1543
820.257	1562
820.75	1565
821.243	1592
821.736	1575
822.229	1583
822.722	1571
823.216	1594
