Data from lamp4bck_dubbel_Subt2__88__1088.txt Node

Date: Wed Apr 09 12:21:24 CEST 2025
User: fys-lab-0081
Spectrometer: S04999
Trigger mode: 0
Resolution mode: 1024 pixels
Integration Time (sec): 1.000000E-1
Scans to average: 1
Nonlinearity correction enabled: false
Boxcar width: 0
Baseline correction enabled: true
XAxis mode: Wavelengths
Number of Pixels in Spectrum: 1024
>>>>>Begin Spectral Data<<<<<
336.42	3
336.877	3
337.334	4
337.792	3
338.249	3
338.706	2
339.164	-1
339.621	4
340.079	4
340.536	4
340.994	6
341.452	3
341.909	5
342.367	4
342.825	3
343.283	8
343.741	1
344.198	1
344.656	-1
345.114	3
345.572	12
346.03	4
346.488	3
346.947	2
347.405	8
347.863	7
348.321	0
348.779	5
349.238	2
349.696	8
350.154	3
350.613	5
351.071	6
351.53	10
351.988	8
352.447	2
352.905	0
353.364	3
353.823	6
354.282	2
354.74	-1
355.199	7
355.658	7
356.117	8
356.576	6
357.035	2
357.494	6
357.953	3
358.412	8
358.871	4
359.33	3
359.789	3
360.249	4
360.708	9
361.167	12
361.626	13
362.086	4
362.545	7
363.005	4
363.464	5
363.924	11
364.383	7
364.843	8
365.303	11
365.762	12
366.222	10
366.682	12
367.142	11
367.601	9
368.061	8
368.521	13
368.981	9
369.441	15
369.901	12
370.361	12
370.821	10
371.282	10
371.742	12
372.202	12
372.662	16
373.123	7
373.583	9
374.043	15
374.504	14
374.964	15
375.425	12
375.885	9
376.346	18
376.806	23
377.267	13
377.728	18
378.188	20
378.649	14
379.11	18
379.571	16
380.032	18
380.493	17
380.954	25
381.414	19
381.876	17
382.337	18
382.798	19
383.259	25
383.72	26
384.181	19
384.642	20
385.104	26
385.565	26
386.026	31
386.488	28
386.949	28
387.411	30
387.872	35
388.334	33
388.795	32
389.257	33
389.719	32
390.181	34
390.642	32
391.104	34
391.566	40
392.028	37
392.49	43
392.952	43
393.414	46
393.876	43
394.338	43
394.8	44
395.262	36
395.724	45
396.186	48
396.648	48
397.111	44
397.573	50
398.035	49
398.498	50
398.96	50
399.423	54
399.885	53
400.348	52
400.81	56
401.273	52
401.736	50
402.198	65
402.661	60
403.124	55
403.587	67
404.049	66
404.512	65
404.975	65
405.438	68
405.901	74
406.364	73
406.827	68
407.29	71
407.754	68
408.217	70
408.68	70
409.143	77
409.607	77
410.07	74
410.533	77
410.997	75
411.46	76
411.924	81
412.387	84
412.851	81
413.314	80
413.778	83
414.242	82
414.705	91
415.169	91
415.633	91
416.097	85
416.561	94
417.024	93
417.488	94
417.952	90
418.416	90
418.88	89
419.344	87
419.809	91
420.273	92
420.737	90
421.201	98
421.665	101
422.13	96
422.594	108
423.059	104
423.523	106
423.987	102
424.452	110
424.916	111
425.381	119
425.846	110
426.31	127
426.775	121
427.24	121
427.704	123
428.169	126
428.634	131
429.099	126
429.564	123
430.029	122
430.494	122
430.959	125
431.424	124
431.889	132
432.354	132
432.819	127
433.284	138
433.75	133
434.215	144
434.68	137
435.146	140
435.611	146
436.077	153
436.542	156
437.008	164
437.473	162
437.939	164
438.404	171
438.87	170
439.336	171
439.801	172
440.267	174
440.733	179
441.199	179
441.665	177
442.131	183
442.596	173
443.062	179
443.529	195
443.995	189
444.461	189
444.927	203
445.393	199
445.859	207
446.325	211
446.792	229
447.258	227
447.724	237
448.191	247
448.657	243
449.124	250
449.59	249
450.057	264
450.523	270
450.99	270
451.457	276
451.923	278
452.39	272
452.857	287
453.324	279
453.791	286
454.257	291
454.724	290
455.191	291
455.658	289
456.125	298
456.592	290
457.059	299
457.527	299
457.994	311
458.461	310
458.928	317
459.396	316
459.863	323
460.33	325
460.798	331
461.265	337
461.732	333
462.2	344
462.668	339
463.135	345
463.603	338
464.07	359
464.538	340
465.006	344
465.474	346
465.941	343
466.409	345
466.877	337
467.345	344
467.813	340
468.281	351
468.749	352
469.217	348
469.685	360
470.153	361
470.621	358
471.09	356
471.558	374
472.026	373
472.494	390
472.963	383
473.431	394
473.9	399
474.368	416
474.837	415
475.305	429
475.774	438
476.242	447
476.711	457
477.18	465
477.648	461
478.117	471
478.586	473
479.055	466
479.524	474
479.993	467
480.462	470
480.93	467
481.399	479
481.869	476
482.338	473
482.807	476
483.276	480
483.745	479
484.214	485
484.684	494
485.153	493
485.622	497
486.092	507
486.561	497
487.031	512
487.5	519
487.97	520
488.439	524
488.909	544
489.378	566
489.848	572
490.318	581
490.787	619
491.257	621
491.727	626
492.197	646
492.667	642
493.137	646
493.607	653
494.077	660
494.547	646
495.017	645
495.487	663
495.957	675
496.427	660
496.897	657
497.368	679
497.838	667
498.308	674
498.779	676
499.249	679
499.719	683
500.19	698
500.66	695
501.131	697
501.602	710
502.072	713
502.543	724
503.014	742
503.484	736
503.955	751
504.426	775
504.897	775
505.368	798
505.838	809
506.309	816
506.78	858
507.251	871
507.722	889
508.194	913
508.665	931
509.136	933
509.607	958
510.078	980
510.549	995
511.021	1013
511.492	1010
511.964	1035
512.435	1055
512.906	1040
513.378	1054
513.849	1065
514.321	1065
514.793	1067
515.264	1083
515.736	1090
516.208	1105
516.679	1109
517.151	1133
517.623	1135
518.095	1146
518.567	1156
519.038	1190
519.51	1193
519.982	1204
520.454	1226
520.927	1243
521.399	1258
521.871	1263
522.343	1280
522.815	1308
523.287	1298
523.76	1303
524.232	1319
524.704	1332
525.177	1299
525.649	1305
526.122	1335
526.594	1301
527.067	1323
527.539	1338
528.012	1338
528.484	1342
528.957	1338
529.43	1334
529.903	1340
530.375	1372
530.848	1327
531.321	1341
531.794	1360
532.267	1388
532.74	1360
533.213	1360
533.686	1393
534.159	1383
534.632	1409
535.105	1412
535.578	1442
536.051	1442
536.525	1428
536.998	1426
537.471	1461
537.945	1426
538.418	1440
538.891	1452
539.365	1480
539.838	1484
540.312	1483
540.786	1487
541.259	1504
541.733	1531
542.206	1525
542.68	1506
543.154	1527
543.628	1531
544.101	1560
544.575	1552
545.049	1536
545.523	1572
545.997	1562
546.471	1574
546.945	1570
547.419	1591
547.893	1515
548.367	1524
548.842	1519
549.316	1520
549.79	1527
550.264	1512
550.739	1523
551.213	1530
551.687	1511
552.162	1519
552.636	1516
553.111	1516
553.585	1548
554.06	1520
554.534	1565
555.009	1566
555.484	1598
555.958	1599
556.433	1613
556.908	1652
557.383	1649
557.858	1673
558.333	1671
558.807	1660
559.282	1683
559.757	1712
560.232	1702
560.708	1663
561.183	1660
561.658	1677
562.133	1656
562.608	1643
563.083	1704
563.559	1673
564.034	1667
564.509	1673
564.985	1689
565.46	1694
565.936	1717
566.411	1710
566.887	1698
567.362	1723
567.838	1717
568.313	1741
568.789	1723
569.265	1732
569.74	1749
570.216	1721
570.692	1738
571.168	1732
571.644	1742
572.12	1728
572.596	1731
573.071	1715
573.547	1766
574.024	1785
574.5	1773
574.976	1776
575.452	1799
575.928	1829
576.404	1836
576.881	1874
577.357	1846
577.833	1867
578.31	1928
578.786	1947
579.262	1973
579.739	1964
580.215	2050
580.692	2049
581.169	2025
581.645	2029
582.122	2102
582.598	2107
583.075	2104
583.552	2112
584.029	2109
584.506	2111
584.982	2092
585.459	2121
585.936	2065
586.413	2090
586.89	2126
587.367	2101
587.844	2107
588.321	2079
588.799	2094
589.276	2081
589.753	2124
590.23	2122
590.707	2106
591.185	2109
591.662	2118
592.139	2140
592.617	2164
593.094	2166
593.572	2195
594.049	2224
594.527	2240
595.004	2228
595.482	2302
595.96	2309
596.437	2319
596.915	2382
597.393	2351
597.871	2407
598.349	2389
598.826	2436
599.304	2421
599.782	2449
600.26	2401
600.738	2453
601.216	2432
601.694	2426
602.173	2429
602.651	2459
603.129	2452
603.607	2465
604.085	2466
604.564	2453
605.042	2457
605.52	2455
605.999	2532
606.477	2473
606.956	2476
607.434	2511.5
607.913	2547
608.391	2555
608.87	2543
609.348	2517
609.827	2536
610.306	2571
610.785	2598
611.263	2603
611.742	2577
612.221	2552
612.7	2606
613.179	2616
613.658	2566
614.137	2570
614.616	2591
615.095	2536
615.574	2569
616.053	2560
616.532	2509
617.011	2524
617.491	2536
617.97	2539
618.449	2563
618.928	2578
619.408	2569
619.887	2586
620.367	2618
620.846	2642
621.326	2636
621.805	2664
622.285	2673
622.764	2723
623.244	2745
623.724	2761
624.203	2780
624.683	2747
625.163	2828
625.643	2841
626.123	2827
626.602	2874
627.082	2797
627.562	2827
628.042	2904
628.522	2880
629.002	2858
629.482	2859
629.963	2853
630.443	2829
630.923	2839
631.403	2843
631.883	2806
632.364	2811
632.844	2792
633.324	2820
633.805	2831
634.285	2780
634.766	2751
635.246	2762
635.727	2779
636.207	2787
636.688	2791
637.168	2771
637.649	2745
638.13	2729
638.611	2761
639.091	2763
639.572	2755
640.053	2736
640.534	2775
641.015	2800
641.496	2761
641.977	2810
642.458	2780
642.939	2772
643.42	2795
643.901	2815
644.382	2845
644.863	2823
645.345	2821
645.826	2812
646.307	2818
646.788	2872
647.27	2820
647.751	2820
648.233	2818
648.714	2745
649.196	2827
649.677	2805
650.159	2803
650.64	2754
651.122	2789
651.603	2751
652.085	2795
652.567	2814
653.049	2775
653.53	2767
654.012	2797
654.494	2749
654.976	2795
655.458	2803
655.94	2804
656.422	2858
656.904	2825
657.386	2803
657.868	2831
658.35	2828
658.833	2847
659.315	2844
659.797	2815
660.279	2832
660.762	2869
661.244	2840
661.726	2798
662.209	2784
662.691	2784
663.174	2727
663.656	2742
664.139	2746
664.621	2696
665.104	2656
665.587	2673
666.069	2692
666.552	2695
667.035	2667
667.517	2661
668	2662
668.483	2657
668.966	2644
669.449	2643
669.932	2651
670.415	2674
670.898	2635
671.381	2634
671.864	2648
672.347	2647
672.83	2664
673.313	2685
673.797	2657
674.28	2691
674.763	2682
675.247	2719
675.73	2723
676.213	2760
676.697	2776
677.18	2772
677.664	2781
678.147	2791
678.631	2806
679.114	2834
679.598	2814
680.082	2804
680.565	2788
681.049	2786
681.533	2795
682.017	2826
682.5	2828
682.984	2819
683.468	2792
683.952	2742
684.436	2795
684.92	2764
685.404	2762
685.888	2777
686.372	2739
686.856	2745
687.341	2798
687.825	2788
688.309	2813
688.793	2806
689.278	2752
689.762	2781
690.246	2776
690.731	2812
691.215	2833
691.7	2768
692.184	2795
692.669	2791
693.153	2800
693.638	2776
694.122	2806
694.607	2821
695.092	2775
695.577	2784
696.061	2742
696.546	2751
697.031	2741
697.516	2768
698.001	2764
698.486	2720
698.971	2738
699.456	2679
699.941	2699
700.426	2713
700.911	2739
701.396	2703
701.881	2690
702.366	2668
702.852	2655
703.337	2687
703.822	2706
704.308	2694
704.793	2686
705.278	2672
705.764	2675
706.249	2658
706.735	2680
707.22	2722
707.706	2670
708.191	2700
708.677	2690
709.163	2679
709.648	2723
710.134	2749
710.62	2706
711.106	2696
711.592	2708
712.077	2694
712.563	2631
713.049	2652
713.535	2722
714.021	2725
714.507	2710
714.993	2695
715.479	2736
715.966	2717
716.452	2749
716.938	2771
717.424	2703
717.91	2754
718.397	2707
718.883	2681
719.369	2704
719.856	2694
720.342	2747
720.829	2725
721.315	2724
721.802	2683
722.288	2705
722.775	2624
723.262	2557
723.748	2681
724.235	2655
724.722	2679
725.208	2608
725.695	2606
726.182	2600
726.669	2577
727.156	2614
727.643	2575
728.13	2569
728.617	2535
729.104	2514
729.591	2492
730.078	2534
730.565	2549
731.052	2511
731.539	2507
732.027	2481
732.514	2436
733.001	2462
733.488	2459
733.976	2476
734.463	2486
734.951	2485
735.438	2515
735.926	2477
736.413	2496
736.901	2486
737.388	2529
737.876	2538
738.364	2517
738.851	2514
739.339	2504
739.827	2523
740.314	2461
740.802	2502
741.29	2544
741.778	2515
742.266	2521
742.754	2516
743.242	2525
743.73	2483
744.218	2488
744.706	2486
745.194	2526
745.682	2500
746.17	2496
746.659	2472
747.147	2397
747.635	2424
748.123	2426
748.612	2419
749.1	2409
749.589	2421
750.077	2395
750.566	2366
751.054	2384
751.543	2408
752.031	2373
752.52	2406
753.008	2362
753.497	2351
753.986	2348
754.474	2322
754.963	2343
755.452	2324
755.941	2334
756.43	2342
756.919	2325
757.408	2284
757.896	2275
758.385	2275
758.875	2257
759.364	2264
759.853	2274
760.342	2245
760.831	2290
761.32	2263
761.809	2209
762.299	2227
762.788	2238
763.277	2252
763.767	2236
764.256	2240
764.745	2207
765.235	2228
765.724	2163
766.214	2200
766.703	2209
767.193	2198
767.683	2240
768.172	2216
768.662	2236
769.152	2211
769.641	2218
770.131	2174
770.621	2213
771.111	2199
771.601	2226
772.09	2206
772.58	2159
773.07	2144
773.56	2151
774.05	2105
774.54	2115
775.031	2117
775.521	2123
776.011	2122
776.501	2137
776.991	2071
777.482	2077
777.972	2025
778.462	2048
778.953	2082
779.443	2084
779.933	2073
780.424	2028
780.914	2025
781.405	2027
781.895	2006
782.386	2014
782.877	2012
783.367	1985
783.858	1979
784.349	1977
784.839	1943
785.33	1925
785.821	1914
786.312	1904
786.803	1934
787.293	1952
787.784	1935
788.275	1907
788.766	1887
789.257	1908
789.748	1853
790.24	1848
790.731	1877
791.222	1869
791.713	1887
792.204	1886
792.696	1835
793.187	1853
793.678	1840
794.169	1800
794.661	1848
795.152	1850
795.644	1855
796.135	1862
796.627	1850
797.118	1808
797.61	1784
798.101	1767
798.593	1797
799.085	1770
799.576	1801
800.068	1778
800.56	1780
801.052	1724
801.544	1719
802.035	1706
802.527	1693
803.019	1687
803.511	1674
804.003	1680
804.495	1687
804.987	1659
805.479	1609
805.971	1599
806.464	1597
806.956	1553
807.448	1569
807.94	1576
808.433	1577
808.925	1569
809.417	1555
809.91	1543
810.402	1503
810.894	1519
811.387	1542
811.879	1531
812.372	1551
812.865	1539
813.357	1530
813.85	1516
814.342	1511
814.835	1503
815.328	1515
815.821	1514
816.313	1540
816.806	1566
817.299	1559
817.792	1581
818.285	1554
818.778	1574
819.271	1570
819.764	1553
820.257	1574
820.75	1582
821.243	1605
821.736	1592
822.229	1600
822.722	1591
823.216	1608
