Data from lamp4bck_dubbel_Subt2__81__1081.txt Node

Date: Wed Apr 09 12:21:23 CEST 2025
User: fys-lab-0081
Spectrometer: S04999
Trigger mode: 0
Resolution mode: 1024 pixels
Integration Time (sec): 1.000000E-1
Scans to average: 1
Nonlinearity correction enabled: false
Boxcar width: 0
Baseline correction enabled: true
XAxis mode: Wavelengths
Number of Pixels in Spectrum: 1024
>>>>>Begin Spectral Data<<<<<
336.42	2
336.877	4
337.334	3
337.792	5
338.249	7
338.706	5
339.164	4
339.621	5
340.079	5
340.536	5
340.994	7
341.452	4
341.909	8
342.367	7
342.825	4
343.283	8
343.741	2
344.198	2
344.656	1
345.114	-2
345.572	6
346.03	5
346.488	0
346.947	1
347.405	6
347.863	4
348.321	1
348.779	7
349.238	2
349.696	5
350.154	6
350.613	1
351.071	8
351.53	10
351.988	9
352.447	4
352.905	-2
353.364	2
353.823	8
354.282	6
354.74	1
355.199	8
355.658	7
356.117	8
356.576	8
357.035	3
357.494	5
357.953	5
358.412	10
358.871	7
359.33	5
359.789	2
360.249	6
360.708	10
361.167	10
361.626	8
362.086	4
362.545	9
363.005	6
363.464	7
363.924	7
364.383	6
364.843	9
365.303	8
365.762	14
366.222	12
366.682	9
367.142	13
367.601	11
368.061	8
368.521	10
368.981	6
369.441	13
369.901	12
370.361	13
370.821	8
371.282	8
371.742	12
372.202	10
372.662	17
373.123	10
373.583	15
374.043	17
374.504	7
374.964	12
375.425	15
375.885	14
376.346	18
376.806	19
377.267	13
377.728	19
378.188	18
378.649	18
379.11	17
379.571	13
380.032	18
380.493	19
380.954	24
381.414	15
381.876	20
382.337	19
382.798	23
383.259	23
383.72	19
384.181	18
384.642	24
385.104	25
385.565	28
386.026	33
386.488	32
386.949	30
387.411	28
387.872	32
388.334	34
388.795	36
389.257	35
389.719	29
390.181	37
390.642	32
391.104	40
391.566	39
392.028	38
392.49	44
392.952	44
393.414	42
393.876	47
394.338	40
394.8	42
395.262	41
395.724	49
396.186	46
396.648	48
397.111	48
397.573	50
398.035	49
398.498	52
398.96	53
399.423	48
399.885	53
400.348	54
400.81	52
401.273	49
401.736	50
402.198	65
402.661	61
403.124	57
403.587	67
404.049	66.5
404.512	66
404.975	61
405.438	67
405.901	69
406.364	70
406.827	67
407.29	61
407.754	64
408.217	71
408.68	69
409.143	73
409.607	74
410.07	72
410.533	73
410.997	74
411.46	75
411.924	78
412.387	82
412.851	79
413.314	83
413.778	82
414.242	80
414.705	91
415.169	91
415.633	90
416.097	88
416.561	92
417.024	88
417.488	87
417.952	89
418.416	89
418.88	87
419.344	84
419.809	93
420.273	96
420.737	91
421.201	94
421.665	98
422.13	100
422.594	105
423.059	99
423.523	103
423.987	103
424.452	106
424.916	112
425.381	118
425.846	110
426.31	122
426.775	123
427.24	121
427.704	123
428.169	122
428.634	127
429.099	123
429.564	126
430.029	125
430.494	124
430.959	124
431.424	126
431.889	133
432.354	131
432.819	131
433.284	139
433.75	132
434.215	142
434.68	135
435.146	138
435.611	152
436.077	152
436.542	156
437.008	160
437.473	165
437.939	160
438.404	170
438.87	171
439.336	172
439.801	172
440.267	174
440.733	178
441.199	174
441.665	175
442.131	186
442.596	176
443.062	179
443.529	189
443.995	191
444.461	194
444.927	200
445.393	196
445.859	207
446.325	207
446.792	223
447.258	223
447.724	234
448.191	238
448.657	249
449.124	248
449.59	249
450.057	265
450.523	271
450.99	273
451.457	275
451.923	277
452.39	276
452.857	283
453.324	277
453.791	280
454.257	288
454.724	289
455.191	288
455.658	287
456.125	296
456.592	294
457.059	301
457.527	301
457.994	314
458.461	314
458.928	319
459.396	316
459.863	322
460.33	321
460.798	328
461.265	334
461.732	333
462.2	342
462.668	340
463.135	341
463.603	341
464.07	356
464.538	334
465.006	350
465.474	341
465.941	343
466.409	339
466.877	338
467.345	340
467.813	338
468.281	348
468.749	349
469.217	344
469.685	355
470.153	362
470.621	356
471.09	355
471.558	374
472.026	372
472.494	382
472.963	387
473.431	392
473.9	411
474.368	415
474.837	420
475.305	427
475.774	437
476.242	447
476.711	454
477.18	466
477.648	460
478.117	465
478.586	467
479.055	467
479.524	468
479.993	470
480.462	470
480.93	471
481.399	477
481.869	477
482.338	467
482.807	477
483.276	487
483.745	474
484.214	485
484.684	491
485.153	493
485.622	495
486.092	508
486.561	497
487.031	514
487.5	517
487.97	520
488.439	528
488.909	542
489.378	563
489.848	567
490.318	580
490.787	612
491.257	616
491.727	624
492.197	642
492.667	638
493.137	644
493.607	651
494.077	659
494.547	646
495.017	647
495.487	656
495.957	677
496.427	662
496.897	662
497.368	673
497.838	667
498.308	668
498.779	676
499.249	679
499.719	684
500.19	697
500.66	695
501.131	701
501.602	710
502.072	706
502.543	723
503.014	739
503.484	736
503.955	751
504.426	770
504.897	768
505.368	789
505.838	799
506.309	818
506.78	850
507.251	877
507.722	885
508.194	915
508.665	928
509.136	929
509.607	954
510.078	971
510.549	985
511.021	1006
511.492	1010
511.964	1030
512.435	1049
512.906	1037
513.378	1047
513.849	1067
514.321	1066
514.793	1063
515.264	1082
515.736	1093
516.208	1104
516.679	1103
517.151	1124
517.623	1135
518.095	1139
518.567	1154
519.038	1184
519.51	1188
519.982	1197
520.454	1220
520.927	1239
521.399	1257
521.871	1265
522.343	1275
522.815	1306
523.287	1298
523.76	1298
524.232	1323
524.704	1332
525.177	1301
525.649	1301
526.122	1330
526.594	1298
527.067	1317
527.539	1323
528.012	1331
528.484	1332
528.957	1326
529.43	1329
529.903	1331
530.375	1368
530.848	1324
531.321	1343
531.794	1363
532.267	1393
532.74	1357
533.213	1365
533.686	1399
534.159	1381
534.632	1403
535.105	1405
535.578	1435
536.051	1441
536.525	1424
536.998	1428
537.471	1458
537.945	1429
538.418	1438
538.891	1442
539.365	1475
539.838	1474
540.312	1471
540.786	1485
541.259	1502
541.733	1523
542.206	1517
542.68	1499
543.154	1522
543.628	1529
544.101	1559
544.575	1554
545.049	1528
545.523	1568
545.997	1556
546.471	1566
546.945	1564
547.419	1584
547.893	1507
548.367	1522
548.842	1510
549.316	1515
549.79	1526
550.264	1510
550.739	1517
551.213	1524
551.687	1511
552.162	1517
552.636	1517
553.111	1511
553.585	1546
554.06	1521
554.534	1561
555.009	1568
555.484	1593
555.958	1598
556.433	1611
556.908	1644
557.383	1635
557.858	1669
558.333	1663
558.807	1654
559.282	1673
559.757	1701
560.232	1684
560.708	1651
561.183	1655
561.658	1665
562.133	1657
562.608	1635
563.083	1696
563.559	1666
564.034	1668
564.509	1673
564.985	1693
565.46	1686
565.936	1710
566.411	1703
566.887	1699
567.362	1713
567.838	1714
568.313	1731
568.789	1721
569.265	1724
569.74	1737
570.216	1720
570.692	1735
571.168	1723
571.644	1737
572.12	1721
572.596	1730
573.071	1708
573.547	1764
574.024	1779
574.5	1770
574.976	1767
575.452	1791
575.928	1824
576.404	1830
576.881	1865
577.357	1849
577.833	1864
578.31	1924
578.786	1944
579.262	1979
579.739	1962
580.215	2031
580.692	2042
581.169	2020
581.645	2031
582.122	2101
582.598	2099
583.075	2100
583.552	2105
584.029	2099
584.506	2106
584.982	2089
585.459	2114
585.936	2058
586.413	2085
586.89	2128
587.367	2090
587.844	2107
588.321	2079
588.799	2095
589.276	2079
589.753	2116
590.23	2118
590.707	2104
591.185	2107
591.662	2116
592.139	2128
592.617	2158
593.094	2156
593.572	2196
594.049	2219
594.527	2231
595.004	2230
595.482	2296
595.96	2304
596.437	2325
596.915	2375
597.393	2348
597.871	2400
598.349	2385
598.826	2422
599.304	2409
599.782	2436
600.26	2398
600.738	2447
601.216	2435
601.694	2424
602.173	2428
602.651	2455
603.129	2451
603.607	2467
604.085	2463
604.564	2451
605.042	2458
605.52	2461
605.999	2525
606.477	2468
606.956	2471
607.434	2508
607.913	2545
608.391	2557
608.87	2547
609.348	2514
609.827	2539
610.306	2574
610.785	2597
611.263	2601
611.742	2580
612.221	2551
612.7	2602
613.179	2619
613.658	2563
614.137	2571
614.616	2583
615.095	2533
615.574	2566
616.053	2561
616.532	2520
617.011	2535
617.491	2541
617.97	2543
618.449	2567
618.928	2582
619.408	2561
619.887	2585
620.367	2610
620.846	2636
621.326	2624
621.805	2665
622.285	2672
622.764	2717
623.244	2738
623.724	2755
624.203	2778
624.683	2742
625.163	2833
625.643	2846
626.123	2830
626.602	2876
627.082	2804
627.562	2820
628.042	2907
628.522	2884
629.002	2859
629.482	2861
629.963	2859
630.443	2839
630.923	2840
631.403	2850
631.883	2814
632.364	2812
632.844	2796
633.324	2819
633.805	2834
634.285	2789
634.766	2755
635.246	2761
635.727	2775
636.207	2785
636.688	2784
637.168	2775
637.649	2742
638.13	2729
638.611	2770
639.091	2774
639.572	2768
640.053	2753
640.534	2794
641.015	2811
641.496	2782
641.977	2823
642.458	2785
642.939	2784
643.42	2801
643.901	2818
644.382	2852
644.863	2833
645.345	2816
645.826	2816
646.307	2831
646.788	2876
647.27	2828
647.751	2828
648.233	2831
648.714	2761
649.196	2840
649.677	2817
650.159	2808
650.64	2763
651.122	2800
651.603	2753
652.085	2796
652.567	2805
653.049	2781
653.53	2764
654.012	2789
654.494	2751
654.976	2794
655.458	2808
655.94	2807
656.422	2850
656.904	2823
657.386	2812
657.868	2841
658.35	2832
658.833	2856
659.315	2861
659.797	2826
660.279	2839
660.762	2872
661.244	2845
661.726	2806
662.209	2784
662.691	2782
663.174	2722
663.656	2746
664.139	2751
664.621	2708
665.104	2657
665.587	2674
666.069	2693
666.552	2699
667.035	2671
667.517	2666
668	2672
668.483	2662
668.966	2658
669.449	2656
669.932	2657
670.415	2681
670.898	2641
671.381	2643
671.864	2651
672.347	2646
672.83	2670
673.313	2690
673.797	2663
674.28	2698
674.763	2692
675.247	2720
675.73	2726
676.213	2761
676.697	2770
677.18	2767
677.664	2775
678.147	2798
678.631	2807
679.114	2832
679.598	2808
680.082	2804
680.565	2798
681.049	2788
681.533	2795
682.017	2827
682.5	2825
682.984	2826
683.468	2800
683.952	2744
684.436	2805
684.92	2768
685.404	2761
685.888	2781
686.372	2750
686.856	2754
687.341	2805
687.825	2780
688.309	2810
688.793	2805
689.278	2757
689.762	2778
690.246	2779
690.731	2816
691.215	2828
691.7	2753
692.184	2780
692.669	2778
693.153	2797
693.638	2769
694.122	2782
694.607	2808
695.092	2759
695.577	2771
696.061	2728
696.546	2739
697.031	2736
697.516	2775
698.001	2765
698.486	2715
698.971	2738
699.456	2676
699.941	2703
700.426	2711
700.911	2740
701.396	2703
701.881	2704
702.366	2665
702.852	2663
703.337	2704
703.822	2702
704.308	2705
704.793	2708
705.278	2682
705.764	2681
706.249	2662
706.735	2689
707.22	2719
707.706	2679
708.191	2702
708.677	2694
709.163	2685
709.648	2717
710.134	2738
710.62	2703
711.106	2693
711.592	2707
712.077	2692
712.563	2627
713.049	2657
713.535	2721
714.021	2721
714.507	2708
714.993	2690
715.479	2733
715.966	2729
716.452	2751
716.938	2774
717.424	2704
717.91	2764
718.397	2714
718.883	2682
719.369	2701
719.856	2704
720.342	2751
720.829	2724
721.315	2725
721.802	2700
722.288	2714
722.775	2624
723.262	2567
723.748	2681
724.235	2654
724.722	2682
725.208	2596
725.695	2594
726.182	2589
726.669	2575
727.156	2605
727.643	2572
728.13	2576
728.617	2532
729.104	2524
729.591	2510
730.078	2548
730.565	2567
731.052	2525
731.539	2524
732.027	2497
732.514	2452
733.001	2480
733.488	2475
733.976	2485
734.463	2493
734.951	2490
735.438	2508
735.926	2474
736.413	2497
736.901	2484
737.388	2524
737.876	2532
738.364	2513
738.851	2515
739.339	2499
739.827	2518
740.314	2454
740.802	2495
741.29	2528
741.778	2517
742.266	2522
742.754	2516
743.242	2533
743.73	2486
744.218	2503
744.706	2493
745.194	2530
745.682	2500
746.17	2506
746.659	2476
747.147	2414
747.635	2432
748.123	2437
748.612	2435
749.1	2425
749.589	2432
750.077	2404
750.566	2373
751.054	2396
751.543	2413
752.031	2389
752.52	2409
753.008	2370
753.497	2366
753.986	2356
754.474	2329
754.963	2350
755.452	2340
755.941	2342
756.43	2337
756.919	2335
757.408	2289
757.896	2283
758.385	2283
758.875	2269
759.364	2271
759.853	2280
760.342	2255
760.831	2295
761.32	2264
761.809	2209
762.299	2222
762.788	2242
763.277	2245
763.767	2233
764.256	2249
764.745	2211
765.235	2231
765.724	2163
766.214	2202
766.703	2205
767.193	2196
767.683	2233
768.172	2204
768.662	2226
769.152	2204
769.641	2219
770.131	2172
770.621	2210
771.111	2210
771.601	2230
772.09	2212
772.58	2157
773.07	2158
773.56	2152
774.05	2117
774.54	2121
775.031	2131
775.521	2133
776.011	2138
776.501	2138
776.991	2077
777.482	2086
777.972	2051
778.462	2063
778.953	2094
779.443	2100
779.933	2087
780.424	2052
780.914	2053
781.405	2037
781.895	2023
782.386	2029
782.877	2028
783.367	2006
783.858	1985
784.349	1978
784.839	1943
785.33	1930
785.821	1910
786.312	1908
786.803	1930
787.293	1946
787.784	1931
788.275	1893
788.766	1873
789.257	1893
789.748	1846
790.24	1834
790.731	1872
791.222	1867
791.713	1879
792.204	1894
792.696	1832
793.187	1855
793.678	1850
794.169	1805
794.661	1861
795.152	1855
795.644	1860
796.135	1871
796.627	1865
797.118	1828
797.61	1798
798.101	1775
798.593	1807
799.085	1785
799.576	1802
800.068	1796
800.56	1796
801.052	1743
801.544	1723
802.035	1727
802.527	1708
803.019	1697
803.511	1693
804.003	1692
804.495	1706
804.987	1680
805.479	1620
805.971	1617
806.464	1606
806.956	1573
807.448	1579
807.94	1578
808.433	1585
808.925	1575
809.417	1557
809.91	1546
810.402	1503
810.894	1520
811.387	1535
811.879	1534
812.372	1546
812.865	1540
813.357	1520
813.85	1513
814.342	1498
814.835	1503
815.328	1511
815.821	1508
816.313	1536
816.806	1563
817.299	1558
817.792	1576
818.285	1554
818.778	1575
819.271	1573
819.764	1554
820.257	1575
820.75	1589
821.243	1602
821.736	1595
822.229	1598
822.722	1595
823.216	1612
