Data from lamp4bck_dubbel_Subt2__4__1004.txt Node

Date: Wed Apr 09 12:21:14 CEST 2025
User: fys-lab-0081
Spectrometer: S04999
Trigger mode: 0
Resolution mode: 1024 pixels
Integration Time (sec): 1.000000E-1
Scans to average: 1
Nonlinearity correction enabled: false
Boxcar width: 0
Baseline correction enabled: true
XAxis mode: Wavelengths
Number of Pixels in Spectrum: 1024
>>>>>Begin Spectral Data<<<<<
336.42	2
336.877	1
337.334	4
337.792	7
338.249	4
338.706	2
339.164	2
339.621	4
340.079	2
340.536	3
340.994	2
341.452	8
341.909	6
342.367	4
342.825	1
343.283	6
343.741	3
344.198	6
344.656	-1
345.114	2
345.572	7
346.03	1
346.488	6
346.947	2
347.405	8
347.863	3
348.321	1
348.779	10
349.238	3
349.696	5
350.154	3
350.613	5
351.071	6
351.53	8
351.988	10
352.447	0
352.905	2
353.364	8
353.823	3
354.282	5
354.74	0
355.199	5
355.658	12
356.117	5
356.576	5
357.035	-2
357.494	5
357.953	2
358.412	9
358.871	9
359.33	5
359.789	3
360.249	6
360.708	8
361.167	8
361.626	8
362.086	8
362.545	6
363.005	5
363.464	10
363.924	13
364.383	8
364.843	11
365.303	12
365.762	12
366.222	6
366.682	6
367.142	7
367.601	11
368.061	10
368.521	10
368.981	11
369.441	13
369.901	13
370.361	13
370.821	9
371.282	9
371.742	15
372.202	14
372.662	15
373.123	7
373.583	12
374.043	14
374.504	9
374.964	9
375.425	12
375.885	18
376.346	16
376.806	17
377.267	11
377.728	17
378.188	22
378.649	16
379.11	18
379.571	15
380.032	17
380.493	21
380.954	22
381.414	15
381.876	18
382.337	19
382.798	21
383.259	27
383.72	19
384.181	23
384.642	26
385.104	26
385.565	29
386.026	30
386.488	25
386.949	28
387.411	29
387.872	29
388.334	35
388.795	34
389.257	35
389.719	34
390.181	34
390.642	33
391.104	35
391.566	39
392.028	39
392.49	43
392.952	44
393.414	41
393.876	46
394.338	44
394.8	41
395.262	37
395.724	46
396.186	49
396.648	50
397.111	46
397.573	50
398.035	45
398.498	51
398.96	50
399.423	48
399.885	56
400.348	51
400.81	52
401.273	57
401.736	49
402.198	63
402.661	60
403.124	56
403.587	64
404.049	63
404.512	62
404.975	65
405.438	69
405.901	70
406.364	65
406.827	70
407.29	71
407.754	66
408.217	69
408.68	69
409.143	76
409.607	74
410.07	70
410.533	73
410.997	76
411.46	79
411.924	78
412.387	81
412.851	75
413.314	81
413.778	79
414.242	85
414.705	89
415.169	92
415.633	87
416.097	86
416.561	90
417.024	91
417.488	91
417.952	91
418.416	86
418.88	87
419.344	82
419.809	90
420.273	92
420.737	89
421.201	96
421.665	98
422.13	96
422.594	101
423.059	104
423.523	102
423.987	100
424.452	108
424.916	114
425.381	117
425.846	116
426.31	122
426.775	119
427.24	120
427.704	124
428.169	126
428.634	131
429.099	122
429.564	122
430.029	127
430.494	121
430.959	119
431.424	119
431.889	129
432.354	130
432.819	125
433.284	134
433.75	134
434.215	143
434.68	139
435.146	143
435.611	148
436.077	149
436.542	153
437.008	159
437.473	165
437.939	163
438.404	170
438.87	168
439.336	163
439.801	172
440.267	174
440.733	180
441.199	171
441.665	177
442.131	187
442.596	175
443.062	183
443.529	193
443.995	191
444.461	186
444.927	199
445.393	194
445.859	203
446.325	216
446.792	227
447.258	221
447.724	232
448.191	241
448.657	248
449.124	248
449.59	244
450.057	265
450.523	266
450.99	270
451.457	271
451.923	277
452.39	272
452.857	285
453.324	274
453.791	281
454.257	286
454.724	282
455.191	281
455.658	285
456.125	292
456.592	291
457.059	299
457.527	295
457.994	313
458.461	311
458.928	312
459.396	313
459.863	329
460.33	322
460.798	327
461.265	334
461.732	329
462.2	341
462.668	338
463.135	341
463.603	334
464.07	355
464.538	339
465.006	346
465.474	343
465.941	339
466.409	338
466.877	335
467.345	344
467.813	339
468.281	343
468.749	346
469.217	344
469.685	358
470.153	360
470.621	358
471.09	359
471.558	375
472.026	374
472.494	382
472.963	389
473.431	397
473.9	405
474.368	417
474.837	420
475.305	433
475.774	438
476.242	449
476.711	450
477.18	463
477.648	460
478.117	468
478.586	469
479.055	461
479.524	472
479.993	470
480.462	469
480.93	470
481.399	472
481.869	475
482.338	467
482.807	481
483.276	481
483.745	476
484.214	488
484.684	495
485.153	488
485.622	493
486.092	501
486.561	498
487.031	510
487.5	517
487.97	521
488.439	529
488.909	544
489.378	560
489.848	558
490.318	577
490.787	616
491.257	616
491.727	621
492.197	639
492.667	642
493.137	640
493.607	650
494.077	655
494.547	646
495.017	644
495.487	656
495.957	667
496.427	657
496.897	652
497.368	666
497.838	660
498.308	664
498.779	667
499.249	674
499.719	675
500.19	686
500.66	691
501.131	699
501.602	709
502.072	712
502.543	720
503.014	735
503.484	737
503.955	747
504.426	779
504.897	777
505.368	797
505.838	808
506.309	818
506.78	851
507.251	867
507.722	877
508.194	907
508.665	925
509.136	923
509.607	956
510.078	968
510.549	982
511.021	1004
511.492	1000
511.964	1018
512.435	1040
512.906	1031
513.378	1041
513.849	1061
514.321	1063
514.793	1062
515.264	1073
515.736	1088
516.208	1101
516.679	1106
517.151	1126
517.623	1134
518.095	1134
518.567	1143
519.038	1176
519.51	1175
519.982	1188
520.454	1206
520.927	1229
521.399	1237
521.871	1249
522.343	1270
522.815	1294
523.287	1289
523.76	1293
524.232	1320
524.704	1328
525.177	1302
525.649	1309
526.122	1339
526.594	1302
527.067	1323
527.539	1332
528.012	1333
528.484	1332
528.957	1327
529.43	1324
529.903	1325
530.375	1359
530.848	1316
531.321	1333
531.794	1343
532.267	1370
532.74	1340
533.213	1348
533.686	1378
534.159	1373
534.632	1402
535.105	1403
535.578	1437
536.051	1446
536.525	1429
536.998	1435
537.471	1469
537.945	1438
538.418	1444
538.891	1451
539.365	1481
539.838	1483
540.312	1475
540.786	1480
541.259	1489
541.733	1510
542.206	1509
542.68	1488
543.154	1501
543.628	1505
544.101	1535
544.575	1533
545.049	1508
545.523	1548
545.997	1542
546.471	1559
546.945	1562
547.419	1582
547.893	1507
548.367	1527
548.842	1517
549.316	1525
549.79	1526
550.264	1508
550.739	1525
551.213	1530
551.687	1510
552.162	1519
552.636	1508
553.111	1498
553.585	1532
554.06	1503
554.534	1542
555.009	1544
555.484	1566
555.958	1573
556.433	1597
556.908	1631
557.383	1617
557.858	1645
558.333	1654
558.807	1647
559.282	1672
559.757	1710
560.232	1694
560.708	1668
561.183	1678
561.658	1691
562.133	1674
562.608	1646
563.083	1704
563.559	1674
564.034	1665
564.509	1665
564.985	1680
565.46	1674
565.936	1696
566.411	1682
566.887	1675
567.362	1695
567.838	1697
568.313	1711
568.789	1700
569.265	1703
569.74	1715
570.216	1698
570.692	1717
571.168	1722
571.644	1740
572.12	1729
572.596	1730
573.071	1722
573.547	1766
574.024	1794
574.5	1786
574.976	1786
575.452	1816
575.928	1831
576.404	1842
576.881	1880
577.357	1844
577.833	1863
578.31	1908
578.786	1933
579.262	1948
579.739	1933
580.215	2006
580.692	2017
581.169	1990
581.645	2000
582.122	2069
582.598	2067
583.075	2074
583.552	2079
584.029	2080
584.506	2093
584.982	2087
585.459	2108
585.936	2067
586.413	2089
586.89	2140
587.367	2113
587.844	2120
588.321	2094
588.799	2111
589.276	2090
589.753	2125
590.23	2120
590.707	2109
591.185	2107
591.662	2102
592.139	2120
592.617	2132
593.094	2137
593.572	2158
594.049	2184
594.527	2199
595.004	2190
595.482	2256
595.96	2273
596.437	2285
596.915	2345
597.393	2315
597.871	2381
598.349	2369
598.826	2422
599.304	2409
599.782	2447
600.26	2412
600.738	2475
601.216	2455
601.694	2451
602.173	2450
602.651	2476
603.129	2464
603.607	2473
604.085	2471
604.564	2452
605.042	2438
605.52	2427
605.999	2502
606.477	2430
606.956	2427
607.434	2450.5
607.913	2474
608.391	2490
608.87	2483
609.348	2443
609.827	2464
610.306	2510
610.785	2537
611.263	2549
611.742	2534
612.221	2512
612.7	2575
613.179	2593
613.658	2546
614.137	2564
614.616	2578
615.095	2531
615.574	2564
616.053	2577
616.532	2531
617.011	2538
617.491	2552
617.97	2549
618.449	2564
618.928	2584
619.408	2557
619.887	2577
620.367	2598
620.846	2616
621.326	2603
621.805	2634
622.285	2642
622.764	2687
623.244	2705
623.724	2706
624.203	2718
624.683	2681
625.163	2758
625.643	2771
626.123	2766
626.602	2815
627.082	2742
627.562	2766
628.042	2860
628.522	2841
629.002	2834
629.482	2829
629.963	2830
630.443	2819
630.923	2816
631.403	2839
631.883	2798
632.364	2796
632.844	2783
633.324	2809
633.805	2820
634.285	2777
634.766	2746
635.246	2748
635.727	2765
636.207	2765
636.688	2752
637.168	2742
637.649	2691
638.13	2676
638.611	2706
639.091	2698
639.572	2682
640.053	2668
640.534	2706
641.015	2728
641.496	2695
641.977	2747
642.458	2710
642.939	2717
643.42	2746
643.901	2776
644.382	2811
644.863	2801
645.345	2807
645.826	2803
646.307	2821
646.788	2869
647.27	2826
647.751	2819
648.233	2828
648.714	2745
649.196	2819
649.677	2798
650.159	2798
650.64	2742
651.122	2776
651.603	2736
652.085	2768
652.567	2784
653.049	2748
653.53	2720
654.012	2757
654.494	2705
654.976	2742
655.458	2741
655.94	2740
656.422	2780
656.904	2757
657.386	2744
657.868	2766
658.35	2764
658.833	2785
659.315	2791
659.797	2766
660.279	2776
660.762	2822
661.244	2797
661.726	2769
662.209	2756
662.691	2760
663.174	2715
663.656	2735
664.139	2745
664.621	2703
665.104	2660
665.587	2670
666.069	2688
666.552	2694
667.035	2662
667.517	2647
668	2646
668.483	2633
668.966	2617
669.449	2622
669.932	2617
670.415	2643
670.898	2595
671.381	2587
671.864	2596
672.347	2596
672.83	2614
673.313	2627
673.797	2601
674.28	2630
674.763	2628
675.247	2651
675.73	2655
676.213	2681
676.697	2702
677.18	2695
677.664	2715
678.147	2732
678.631	2758
679.114	2782
679.598	2763
680.082	2767
680.565	2752
681.049	2756
681.533	2763
682.017	2805
682.5	2793
682.984	2789
683.468	2767
683.952	2710
684.436	2768
684.92	2738
685.404	2738
685.888	2755
686.372	2727
686.856	2728
687.341	2779
687.825	2754
688.309	2768
688.793	2761
689.278	2717
689.762	2747
690.246	2736
690.731	2763
691.215	2781
691.7	2711
692.184	2738
692.669	2732
693.153	2742
693.638	2716
694.122	2731
694.607	2763
695.092	2714
695.577	2729
696.061	2683
696.546	2699
697.031	2700
697.516	2733
698.001	2726
698.486	2685
698.971	2714
699.456	2652
699.941	2671
700.426	2678
700.911	2706
701.396	2680
701.881	2682
702.366	2656
702.852	2640
703.337	2681
703.822	2686
704.308	2683
704.793	2689
705.278	2664
705.764	2664
706.249	2650
706.735	2673
707.22	2709
707.706	2665
708.191	2689
708.677	2673
709.163	2653
709.648	2688
710.134	2720
710.62	2677
711.106	2660
711.592	2672
712.077	2659
712.563	2601
713.049	2619
713.535	2694
714.021	2674
714.507	2661
714.993	2635
715.479	2679
715.966	2662
716.452	2690
716.938	2718
717.424	2641
717.91	2695
718.397	2657
718.883	2632
719.369	2650
719.856	2654
720.342	2705
720.829	2686
721.315	2683
721.802	2654
722.288	2679
722.775	2587
723.262	2537
723.748	2670
724.235	2653
724.722	2684
725.208	2601
725.695	2603
726.182	2605
726.669	2589
727.156	2626
727.643	2584
728.13	2584
728.617	2539
729.104	2523
729.591	2497
730.078	2530
730.565	2544
731.052	2506
731.539	2502
732.027	2467
732.514	2414
733.001	2454
733.488	2451
733.976	2462
734.463	2466
734.951	2461
735.438	2495
735.926	2460
736.413	2471
736.901	2457
737.388	2497
737.876	2512
738.364	2491
738.851	2481
739.339	2467
739.827	2485
740.314	2423
740.802	2471
741.29	2514
741.778	2487
742.266	2486
742.754	2492
743.242	2496
743.73	2451
744.218	2462
744.706	2462
745.194	2515
745.682	2486
746.17	2482
746.659	2461
747.147	2392
747.635	2415
748.123	2421
748.612	2410
749.1	2397
749.589	2407
750.077	2389
750.566	2368
751.054	2383
751.543	2409
752.031	2372
752.52	2404
753.008	2360
753.497	2353
753.986	2345
754.474	2315
754.963	2337
755.452	2321
755.941	2324
756.43	2328
756.919	2318
757.408	2276
757.896	2263
758.385	2264
758.875	2249
759.364	2254
759.853	2251
760.342	2228
760.831	2273
761.32	2237
761.809	2190
762.299	2209
762.788	2220
763.277	2233
763.767	2212
764.256	2222
764.745	2183
765.235	2202
765.724	2136
766.214	2172
766.703	2182
767.193	2176
767.683	2209
768.172	2180
768.662	2203
769.152	2193
769.641	2196
770.131	2155
770.621	2198
771.111	2194
771.601	2211
772.09	2202
772.58	2151
773.07	2147
773.56	2143
774.05	2105
774.54	2118
775.031	2121
775.521	2125
776.011	2120
776.501	2132
776.991	2066
777.482	2072
777.972	2029
778.462	2044
778.953	2078
779.443	2079
779.933	2067
780.424	2030
780.914	2023
781.405	2005
781.895	1989
782.386	1997
782.877	1999
783.367	1966
783.858	1961
784.349	1954
784.839	1923
785.33	1915
785.821	1891
786.312	1880
786.803	1899
787.293	1924
787.784	1900
788.275	1876
788.766	1850
789.257	1878
789.748	1827
790.24	1813
790.731	1849
791.222	1842
791.713	1856
792.204	1868
792.696	1808
793.187	1831
793.678	1812
794.169	1776
794.661	1831
795.152	1830
795.644	1830
796.135	1844
796.627	1832
797.118	1803
797.61	1777
798.101	1763
798.593	1796
799.085	1773
799.576	1794
800.068	1783
800.56	1781
801.052	1721
801.544	1713
802.035	1712
802.527	1691
803.019	1682
803.511	1677
804.003	1687
804.495	1691
804.987	1663
805.479	1605
805.971	1591
806.464	1593
806.956	1555
807.448	1555
807.94	1563
808.433	1569
808.925	1562
809.417	1544
809.91	1528
810.402	1498
810.894	1511
811.387	1535
811.879	1523
812.372	1533
812.865	1521
813.357	1516
813.85	1498
814.342	1490
814.835	1486
815.328	1496
815.821	1488
816.313	1505
816.806	1526
817.299	1525
817.792	1539
818.285	1520
818.778	1534
819.271	1538
819.764	1522
820.257	1537
820.75	1557
821.243	1581
821.736	1575
822.229	1584
822.722	1578
823.216	1602
