Data from lamp4bck_dubbel_Subt2__30__1030.txt Node

Date: Wed Apr 09 12:21:17 CEST 2025
User: fys-lab-0081
Spectrometer: S04999
Trigger mode: 0
Resolution mode: 1024 pixels
Integration Time (sec): 1.000000E-1
Scans to average: 1
Nonlinearity correction enabled: false
Boxcar width: 0
Baseline correction enabled: true
XAxis mode: Wavelengths
Number of Pixels in Spectrum: 1024
>>>>>Begin Spectral Data<<<<<
336.42	-1
336.877	4
337.334	1
337.792	0
338.249	6
338.706	7
339.164	3
339.621	4
340.079	7
340.536	5
340.994	4
341.452	4
341.909	10
342.367	5
342.825	-1
343.283	9
343.741	1
344.198	4
344.656	6
345.114	4
345.572	6
346.03	3
346.488	1
346.947	3
347.405	5
347.863	1
348.321	4
348.779	3
349.238	-2
349.696	6
350.154	3
350.613	0
351.071	9
351.53	6
351.988	7
352.447	4
352.905	3
353.364	7
353.823	6
354.282	5
354.74	-3
355.199	4
355.658	8
356.117	6
356.576	4
357.035	3
357.494	4
357.953	3
358.412	9
358.871	7
359.33	7
359.789	4
360.249	3
360.708	7
361.167	7
361.626	6
362.086	4
362.545	9
363.005	10
363.464	8
363.924	3
364.383	5
364.843	7
365.303	13
365.762	15
366.222	8
366.682	10
367.142	17
367.601	6
368.061	7
368.521	11
368.981	8
369.441	15
369.901	15
370.361	10
370.821	7
371.282	14
371.742	15
372.202	12
372.662	17
373.123	13
373.583	16
374.043	16
374.504	8
374.964	13
375.425	11
375.885	16
376.346	21
376.806	21
377.267	17
377.728	15
378.188	16
378.649	16
379.11	17
379.571	14
380.032	17
380.493	20
380.954	23
381.414	22
381.876	21
382.337	19
382.798	21
383.259	24
383.72	24
384.181	20
384.642	23
385.104	24
385.565	27
386.026	28
386.488	30
386.949	26
387.411	28
387.872	35
388.334	34
388.795	33
389.257	34
389.719	35
390.181	33
390.642	33
391.104	36
391.566	36
392.028	39
392.49	43
392.952	45
393.414	41
393.876	43
394.338	43
394.8	46
395.262	40
395.724	46
396.186	45
396.648	47
397.111	46
397.573	50
398.035	48
398.498	55
398.96	53
399.423	49
399.885	51
400.348	56
400.81	55
401.273	53
401.736	54
402.198	59
402.661	63
403.124	51
403.587	64
404.049	64.5
404.512	65
404.975	66
405.438	62
405.901	68
406.364	69
406.827	67
407.29	67
407.754	68
408.217	66
408.68	70
409.143	74
409.607	74
410.07	74
410.533	73
410.997	73
411.46	76
411.924	82
412.387	85
412.851	77
413.314	81
413.778	84
414.242	80
414.705	88
415.169	87
415.633	90
416.097	86
416.561	91
417.024	89
417.488	88
417.952	87
418.416	90
418.88	84
419.344	84
419.809	92
420.273	90
420.737	89
421.201	96
421.665	100
422.13	95
422.594	98
423.059	99
423.523	106
423.987	105
424.452	107
424.916	110
425.381	112
425.846	112
426.31	123
426.775	123
427.24	121
427.704	122
428.169	121
428.634	127
429.099	123
429.564	127
430.029	120
430.494	129
430.959	126
431.424	120
431.889	132
432.354	129
432.819	122
433.284	135
433.75	137
434.215	140
434.68	135
435.146	142
435.611	146
436.077	152
436.542	149
437.008	163
437.473	163
437.939	164
438.404	168
438.87	172
439.336	166
439.801	171
440.267	173
440.733	176
441.199	173
441.665	179
442.131	182
442.596	173
443.062	179
443.529	186
443.995	190
444.461	189
444.927	200
445.393	195
445.859	206
446.325	211
446.792	222
447.258	220
447.724	233
448.191	244
448.657	247
449.124	247
449.59	244
450.057	265
450.523	268
450.99	268
451.457	271
451.923	279
452.39	276
452.857	282
453.324	274
453.791	281
454.257	289
454.724	284
455.191	280
455.658	285
456.125	293
456.592	287
457.059	300
457.527	296
457.994	309
458.461	310
458.928	314
459.396	314
459.863	324
460.33	320
460.798	322
461.265	331
461.732	330
462.2	340
462.668	334
463.135	340
463.603	334
464.07	351
464.538	338
465.006	351
465.474	341
465.941	343
466.409	341
466.877	335
467.345	345
467.813	336
468.281	342
468.749	344
469.217	344
469.685	351
470.153	357
470.621	354
471.09	353
471.558	370
472.026	369
472.494	379
472.963	383
473.431	388
473.9	406
474.368	414
474.837	417
475.305	426
475.774	429
476.242	445
476.711	451
477.18	465
477.648	458
478.117	470
478.586	468
479.055	463
479.524	468
479.993	469
480.462	467
480.93	460
481.399	470
481.869	474
482.338	468
482.807	478
483.276	477
483.745	472
484.214	484
484.684	491
485.153	486
485.622	489
486.092	496
486.561	497
487.031	517
487.5	515
487.97	516
488.439	524
488.909	538
489.378	560
489.848	558
490.318	578
490.787	611
491.257	609
491.727	624
492.197	635
492.667	634
493.137	643
493.607	647
494.077	659
494.547	646
495.017	643
495.487	658
495.957	668
496.427	657
496.897	656
497.368	670
497.838	655
498.308	663
498.779	669
499.249	675
499.719	674
500.19	685
500.66	685
501.131	690
501.602	706
502.072	701
502.543	720
503.014	739
503.484	735
503.955	749
504.426	769
504.897	773
505.368	790
505.838	804
506.309	812
506.78	843
507.251	866
507.722	881
508.194	903
508.665	927
509.136	919
509.607	944
510.078	965
510.549	978
511.021	998
511.492	995
511.964	1017
512.435	1031
512.906	1029
513.378	1036
513.849	1062
514.321	1056
514.793	1057
515.264	1077
515.736	1090
516.208	1093
516.679	1103
517.151	1120
517.623	1125
518.095	1129
518.567	1140
519.038	1173
519.51	1177
519.982	1186
520.454	1205
520.927	1224
521.399	1239
521.871	1253
522.343	1266
522.815	1292
523.287	1282
523.76	1292
524.232	1316
524.704	1328
525.177	1298
525.649	1301
526.122	1326
526.594	1296
527.067	1315
527.539	1321
528.012	1325
528.484	1324
528.957	1321
529.43	1320
529.903	1321
530.375	1354
530.848	1312
531.321	1326
531.794	1339
532.267	1368
532.74	1339
533.213	1345
533.686	1380
534.159	1364
534.632	1387
535.105	1398
535.578	1427
536.051	1435
536.525	1423
536.998	1421
537.471	1456
537.945	1420
538.418	1430
538.891	1435
539.365	1469
539.838	1471
540.312	1463
540.786	1468
541.259	1481
541.733	1503
542.206	1496
542.68	1483
543.154	1498
543.628	1506
544.101	1532
544.575	1536
545.049	1509
545.523	1543
545.997	1531
546.471	1551
546.945	1550
547.419	1578
547.893	1504
548.367	1528
548.842	1515
549.316	1518
549.79	1527
550.264	1505
550.739	1518
551.213	1518
551.687	1503
552.162	1507
552.636	1498
553.111	1493
553.585	1522
554.06	1497
554.534	1533
555.009	1543
555.484	1570
555.958	1572
556.433	1593
556.908	1616
557.383	1615
557.858	1654
558.333	1655
558.807	1640
559.282	1668
559.757	1700
560.232	1682
560.708	1655
561.183	1662
561.658	1670
562.133	1657
562.608	1642
563.083	1695
563.559	1658
564.034	1660
564.509	1655
564.985	1670
565.46	1663
565.936	1682
566.411	1677
566.887	1656
567.362	1688
567.838	1683
568.313	1697
568.789	1682
569.265	1695
569.74	1710
570.216	1687
570.692	1709
571.168	1705
571.644	1720
572.12	1713
572.596	1719
573.071	1705
573.547	1752
574.024	1782
574.5	1767
574.976	1774
575.452	1794
575.928	1816
576.404	1827
576.881	1862
577.357	1836
577.833	1854
578.31	1901
578.786	1925
579.262	1944
579.739	1931
580.215	2003
580.692	2008
581.169	1985
581.645	1990
582.122	2061
582.598	2057
583.075	2065
583.552	2075
584.029	2073
584.506	2085
584.982	2081
585.459	2101
585.936	2054
586.413	2086
586.89	2132
587.367	2107
587.844	2115
588.321	2085
588.799	2098
589.276	2078
589.753	2112
590.23	2106
590.707	2091
591.185	2096
591.662	2097
592.139	2114
592.617	2130
593.094	2125
593.572	2152
594.049	2180
594.527	2193
595.004	2190
595.482	2250
595.96	2269
596.437	2281
596.915	2340
597.393	2314
597.871	2379
598.349	2362
598.826	2414
599.304	2400
599.782	2441
600.26	2404
600.738	2459
601.216	2442
601.694	2433
602.173	2440
602.651	2471
603.129	2465
603.607	2467
604.085	2463
604.564	2445
605.042	2438
605.52	2433
605.999	2493
606.477	2436
606.956	2428
607.434	2455
607.913	2482
608.391	2504
608.87	2489
609.348	2453
609.827	2473
610.306	2512
610.785	2537
611.263	2554
611.742	2533
612.221	2506
612.7	2558
613.179	2580
613.658	2536
614.137	2554
614.616	2561
615.095	2527
615.574	2567
616.053	2560
616.532	2519
617.011	2527
617.491	2542
617.97	2539
618.449	2564
618.928	2580
619.408	2549
619.887	2578
620.367	2583
620.846	2606
621.326	2593
621.805	2627
622.285	2625
622.764	2667
623.244	2685
623.724	2702
624.203	2718
624.683	2682
625.163	2765
625.643	2778
626.123	2763
626.602	2820
627.082	2756
627.562	2770
628.042	2855
628.522	2844
629.002	2835
629.482	2831
629.963	2840
630.443	2833
630.923	2840
631.403	2851
631.883	2808
632.364	2807
632.844	2793
633.324	2813
633.805	2825
634.285	2773
634.766	2739
635.246	2738
635.727	2754
636.207	2756
636.688	2737
637.168	2730
637.649	2696
638.13	2672
638.611	2704
639.091	2709
639.572	2701
640.053	2671
640.534	2709
641.015	2737
641.496	2702
641.977	2749
642.458	2718
642.939	2729
643.42	2741
643.901	2776
644.382	2805
644.863	2783
645.345	2791
645.826	2805
646.307	2814
646.788	2862
647.27	2824
647.751	2823
648.233	2827
648.714	2752
649.196	2832
649.677	2814
650.159	2801
650.64	2755
651.122	2778
651.603	2732
652.085	2767
652.567	2773
653.049	2736
653.53	2726
654.012	2753
654.494	2699
654.976	2741
655.458	2752
655.94	2746
656.422	2788
656.904	2763
657.386	2748
657.868	2777
658.35	2775
658.833	2794
659.315	2800
659.797	2779
660.279	2788
660.762	2820
661.244	2811
661.726	2771
662.209	2752
662.691	2758
663.174	2706
663.656	2737
664.139	2738
664.621	2699
665.104	2654
665.587	2668
666.069	2687
666.552	2685
667.035	2659
667.517	2651
668	2657
668.483	2646
668.966	2627
669.449	2633
669.932	2628
670.415	2644
670.898	2596
671.381	2594
671.864	2600
672.347	2590
672.83	2618
673.313	2623
673.797	2598
674.28	2628
674.763	2616
675.247	2642
675.73	2647
676.213	2683
676.697	2708
677.18	2710
677.664	2720
678.147	2738
678.631	2766
679.114	2784
679.598	2768
680.082	2761
680.565	2757
681.049	2751
681.533	2767
682.017	2807
682.5	2796
682.984	2794
683.468	2772
683.952	2716
684.436	2768
684.92	2737
685.404	2741
685.888	2762
686.372	2724
686.856	2716
687.341	2767
687.825	2742
688.309	2760
688.793	2747
689.278	2694
689.762	2718
690.246	2717
690.731	2754
691.215	2767
691.7	2700
692.184	2725
692.669	2713
693.153	2729
693.638	2704
694.122	2715
694.607	2741
695.092	2703
695.577	2713
696.061	2681
696.546	2693
697.031	2682
697.516	2712
698.001	2709
698.486	2678
698.971	2698
699.456	2641
699.941	2664
700.426	2672
700.911	2711
701.396	2669
701.881	2673
702.366	2643
702.852	2631
703.337	2669
703.822	2682
704.308	2677
704.793	2678
705.278	2652
705.764	2648
706.249	2636
706.735	2659
707.22	2687
707.706	2645
708.191	2668
708.677	2652
709.163	2643
709.648	2665
710.134	2695
710.62	2659
711.106	2638
711.592	2659
712.077	2638
712.563	2579
713.049	2600
713.535	2666
714.021	2661
714.507	2644
714.993	2633
715.479	2684
715.966	2670
716.452	2687
716.938	2713
717.424	2643
717.91	2694
718.397	2658
718.883	2633
719.369	2647
719.856	2645
720.342	2700
720.829	2670
721.315	2674
721.802	2648
722.288	2667
722.775	2575
723.262	2520
723.748	2645
724.235	2620
724.722	2644
725.208	2571
725.695	2565
726.182	2565
726.669	2536
727.156	2580
727.643	2553
728.13	2550
728.617	2521
729.104	2505
729.591	2481
730.078	2520
730.565	2529
731.052	2492
731.539	2488
732.027	2463
732.514	2414
733.001	2441
733.488	2441
733.976	2451
734.463	2459
734.951	2451
735.438	2478
735.926	2438
736.413	2452
736.901	2452
737.388	2481
737.876	2493
738.364	2463
738.851	2469
739.339	2447
739.827	2466
740.314	2403
740.802	2440
741.29	2491
741.778	2467
742.266	2477
742.754	2474
743.242	2489
743.73	2441
744.218	2451
744.706	2445
745.194	2485
745.682	2457
746.17	2455
746.659	2427
747.147	2363
747.635	2394
748.123	2402
748.612	2390
749.1	2380
749.589	2392
750.077	2376
750.566	2348
751.054	2373
751.543	2376
752.031	2356
752.52	2388
753.008	2352
753.497	2335
753.986	2325
754.474	2302
754.963	2328
755.452	2312
755.941	2310
756.43	2315
756.919	2307
757.408	2268
757.896	2257
758.385	2254
758.875	2240
759.364	2247
759.853	2248
760.342	2216
760.831	2259
761.32	2223
761.809	2173
762.299	2181
762.788	2198
763.277	2209
763.767	2190
764.256	2201
764.745	2163
765.235	2186
765.724	2129
766.214	2156
766.703	2173
767.193	2162
767.683	2204
768.172	2170
768.662	2196
769.152	2182
769.641	2187
770.131	2141
770.621	2185
771.111	2182
771.601	2202
772.09	2188
772.58	2151
773.07	2142
773.56	2137
774.05	2101
774.54	2101
775.031	2112
775.521	2123
776.011	2120
776.501	2120
776.991	2075
777.482	2068
777.972	2028
778.462	2049
778.953	2081
779.443	2082
779.933	2073
780.424	2033
780.914	2020
781.405	2014
781.895	1987
782.386	1997
782.877	1997
783.367	1972
783.858	1957
784.349	1949
784.839	1911
785.33	1907
785.821	1882
786.312	1880
786.803	1893
787.293	1911
787.784	1890
788.275	1856
788.766	1827
789.257	1847
789.748	1807
790.24	1788
790.731	1827
791.222	1820
791.713	1838
792.204	1852
792.696	1799
793.187	1813
793.678	1801
794.169	1767
794.661	1828
795.152	1822
795.644	1831
796.135	1840
796.627	1830
797.118	1790
797.61	1771
798.101	1759
798.593	1790
799.085	1774
799.576	1796
800.068	1783
800.56	1787
801.052	1735
801.544	1716
802.035	1715
802.527	1693
803.019	1678
803.511	1672
804.003	1674
804.495	1684
804.987	1660
805.479	1602
805.971	1599
806.464	1595
806.956	1555
807.448	1556
807.94	1556
808.433	1563
808.925	1548
809.417	1523
809.91	1511
810.402	1477
810.894	1492
811.387	1511
811.879	1500
812.372	1514
812.865	1504
813.357	1487
813.85	1474
814.342	1465
814.835	1464
815.328	1477
815.821	1478
816.313	1493
816.806	1524
817.299	1520
817.792	1541
818.285	1515
818.778	1541
819.271	1538
819.764	1529
820.257	1542
820.75	1553
821.243	1574
821.736	1570
822.229	1585
822.722	1578
823.216	1593
