Data from lamp4bck_dubbel_Subt2__22__1022.txt Node

Date: Wed Apr 09 12:21:16 CEST 2025
User: fys-lab-0081
Spectrometer: S04999
Trigger mode: 0
Resolution mode: 1024 pixels
Integration Time (sec): 1.000000E-1
Scans to average: 1
Nonlinearity correction enabled: false
Boxcar width: 0
Baseline correction enabled: true
XAxis mode: Wavelengths
Number of Pixels in Spectrum: 1024
>>>>>Begin Spectral Data<<<<<
336.42	1
336.877	5
337.334	3
337.792	3
338.249	1
338.706	6
339.164	3
339.621	4
340.079	5
340.536	5
340.994	2
341.452	6
341.909	7
342.367	6
342.825	-2
343.283	3
343.741	6
344.198	6
344.656	2
345.114	3
345.572	8
346.03	5
346.488	3
346.947	7
347.405	7
347.863	2
348.321	0
348.779	7
349.238	5
349.696	6
350.154	3
350.613	5
351.071	4
351.53	8
351.988	9
352.447	4
352.905	-1
353.364	3
353.823	8
354.282	-1
354.74	-2
355.199	11
355.658	8
356.117	5
356.576	3
357.035	3
357.494	9
357.953	4
358.412	8
358.871	5
359.33	5
359.789	7
360.249	6
360.708	3
361.167	7
361.626	8
362.086	7
362.545	8
363.005	4
363.464	6
363.924	9
364.383	5
364.843	10
365.303	11
365.762	11
366.222	12
366.682	10
367.142	12
367.601	10
368.061	9
368.521	13
368.981	11
369.441	17
369.901	16
370.361	10
370.821	12
371.282	12
371.742	11
372.202	13
372.662	15
373.123	11
373.583	12
374.043	17
374.504	11
374.964	10
375.425	14
375.885	13
376.346	19
376.806	17
377.267	13
377.728	20
378.188	20
378.649	14
379.11	20
379.571	15
380.032	15
380.493	20
380.954	22
381.414	16
381.876	19
382.337	18
382.798	20
383.259	24
383.72	24
384.181	23
384.642	26
385.104	22
385.565	27
386.026	30
386.488	27
386.949	31
387.411	33
387.872	32
388.334	37
388.795	34
389.257	39
389.719	31
390.181	32
390.642	35
391.104	36
391.566	37
392.028	37
392.49	45
392.952	42
393.414	45
393.876	43
394.338	39
394.8	43
395.262	40
395.724	49
396.186	48
396.648	44
397.111	47
397.573	50
398.035	49
398.498	47
398.96	53
399.423	49
399.885	48
400.348	55
400.81	58
401.273	50
401.736	52
402.198	62
402.661	59
403.124	55
403.587	63
404.049	62
404.512	61
404.975	62
405.438	66
405.901	69
406.364	69
406.827	70
407.29	66
407.754	64
408.217	67
408.68	70
409.143	73
409.607	78
410.07	75
410.533	67
410.997	71
411.46	73
411.924	80
412.387	80
412.851	79
413.314	80
413.778	80
414.242	82
414.705	89
415.169	84
415.633	85
416.097	88
416.561	91
417.024	91
417.488	88
417.952	90
418.416	86
418.88	87
419.344	86
419.809	91
420.273	95
420.737	88
421.201	91
421.665	95
422.13	102
422.594	104
423.059	100
423.523	102
423.987	101
424.452	108
424.916	110
425.381	114
425.846	114
426.31	122
426.775	121
427.24	123
427.704	122
428.169	123
428.634	128
429.099	124
429.564	120
430.029	123
430.494	126
430.959	124
431.424	123
431.889	128
432.354	129
432.819	124
433.284	134
433.75	135
434.215	141
434.68	138
435.146	135
435.611	148
436.077	153
436.542	157
437.008	156
437.473	160
437.939	161
438.404	164
438.87	170
439.336	173
439.801	170
440.267	171
440.733	179
441.199	178
441.665	176
442.131	179
442.596	171
443.062	182
443.529	195
443.995	185
444.461	188
444.927	194
445.393	198
445.859	205
446.325	208
446.792	223
447.258	225
447.724	232
448.191	242
448.657	245
449.124	240
449.59	246
450.057	266
450.523	265
450.99	268
451.457	268
451.923	276
452.39	277
452.857	281
453.324	277
453.791	276
454.257	285
454.724	281
455.191	280
455.658	282
456.125	295
456.592	293
457.059	295
457.527	289
457.994	308
458.461	312
458.928	316
459.396	313
459.863	322
460.33	320
460.798	329
461.265	332
461.732	328
462.2	338
462.668	334
463.135	338
463.603	331
464.07	352
464.538	334
465.006	343
465.474	342
465.941	336
466.409	338
466.877	334
467.345	342
467.813	332
468.281	344
468.749	349
469.217	344
469.685	348
470.153	355
470.621	353
471.09	355
471.558	371
472.026	372
472.494	376
472.963	384
473.431	393
473.9	399
474.368	411
474.837	413
475.305	425
475.774	432
476.242	444
476.711	450
477.18	466
477.648	459
478.117	462
478.586	467
479.055	459
479.524	463
479.993	464
480.462	464
480.93	465
481.399	466
481.869	467
482.338	462
482.807	476
483.276	477
483.745	474
484.214	482
484.684	490
485.153	483
485.622	492
486.092	502
486.561	491
487.031	510
487.5	509
487.97	518
488.439	524
488.909	537
489.378	553
489.848	558
490.318	572
490.787	609
491.257	607
491.727	617
492.197	629
492.667	627
493.137	639
493.607	647
494.077	653
494.547	641
495.017	640
495.487	654
495.957	668
496.427	650
496.897	650
497.368	664
497.838	655
498.308	658
498.779	661
499.249	669
499.719	669
500.19	680
500.66	682
501.131	688
501.602	702
502.072	700
502.543	715
503.014	733
503.484	733
503.955	741
504.426	761
504.897	768
505.368	785
505.838	795
506.309	808
506.78	841
507.251	862
507.722	878
508.194	900
508.665	920
509.136	918
509.607	939
510.078	963
510.549	972
511.021	995
511.492	992
511.964	1010
512.435	1026
512.906	1020
513.378	1037
513.849	1054
514.321	1049
514.793	1056
515.264	1078
515.736	1086
516.208	1091
516.679	1092
517.151	1117
517.623	1123
518.095	1124
518.567	1139
519.038	1167
519.51	1171
519.982	1175
520.454	1196
520.927	1212
521.399	1230
521.871	1245
522.343	1261
522.815	1288
523.287	1280
523.76	1284
524.232	1313
524.704	1315
525.177	1293
525.649	1294
526.122	1317
526.594	1284
527.067	1310
527.539	1316
528.012	1324
528.484	1318
528.957	1314
529.43	1310
529.903	1312
530.375	1342
530.848	1302
531.321	1323
531.794	1339
532.267	1362
532.74	1328
533.213	1340
533.686	1374
534.159	1362
534.632	1386
535.105	1390
535.578	1424
536.051	1422
536.525	1413
536.998	1412
537.471	1446
537.945	1416
538.418	1428
538.891	1433
539.365	1471
539.838	1469
540.312	1461
540.786	1462
541.259	1473
541.733	1495
542.206	1491
542.68	1472
543.154	1488
543.628	1496
544.101	1531
544.575	1525
545.049	1498
545.523	1544
545.997	1528
546.471	1550
546.945	1540
547.419	1572
547.893	1490
548.367	1514
548.842	1505
549.316	1510
549.79	1515
550.264	1505
550.739	1512
551.213	1517
551.687	1491
552.162	1497
552.636	1497
553.111	1495
553.585	1521
554.06	1488
554.534	1533
555.009	1528
555.484	1552
555.958	1564
556.433	1578
556.908	1615
557.383	1605
557.858	1641
558.333	1642
558.807	1633
559.282	1656
559.757	1690
560.232	1673
560.708	1639
561.183	1648
561.658	1663
562.133	1657
562.608	1633
563.083	1684
563.559	1654
564.034	1650
564.509	1653
564.985	1665
565.46	1656
565.936	1677
566.411	1671
566.887	1653
567.362	1681
567.838	1674
568.313	1681
568.789	1676
569.265	1686
569.74	1696
570.216	1681
570.692	1697
571.168	1696
571.644	1710
572.12	1696
572.596	1709
573.071	1696
573.547	1745
574.024	1769
574.5	1769
574.976	1765
575.452	1802
575.928	1810
576.404	1822
576.881	1858
577.357	1823
577.833	1847
578.31	1888
578.786	1920
579.262	1934
579.739	1921
580.215	1996
580.692	1997
581.169	1968
581.645	1983
582.122	2051
582.598	2045
583.075	2056
583.552	2066
584.029	2072
584.506	2072
584.982	2064
585.459	2090
585.936	2050
586.413	2077
586.89	2126
587.367	2102
587.844	2107
588.321	2079
588.799	2086
589.276	2080
589.753	2109
590.23	2100
590.707	2086
591.185	2084
591.662	2084
592.139	2104
592.617	2114
593.094	2117
593.572	2129
594.049	2171
594.527	2179
595.004	2176
595.482	2242
595.96	2253
596.437	2263
596.915	2323
597.393	2296
597.871	2364
598.349	2351
598.826	2396
599.304	2390
599.782	2433
600.26	2384
600.738	2439
601.216	2426
601.694	2431
602.173	2427
602.651	2462
603.129	2448
603.607	2457
604.085	2450
604.564	2427
605.042	2428
605.52	2415
605.999	2476
606.477	2424
606.956	2421
607.434	2447
607.913	2473
608.391	2478
608.87	2466
609.348	2442
609.827	2457
610.306	2499
610.785	2523
611.263	2531
611.742	2510
612.221	2488
612.7	2556
613.179	2567
613.658	2524
614.137	2545
614.616	2555
615.095	2515
615.574	2549
616.053	2552
616.532	2513
617.011	2520
617.491	2523
617.97	2528
618.449	2551
618.928	2560
619.408	2544
619.887	2557
620.367	2578
620.846	2600
621.326	2579
621.805	2616
622.285	2618
622.764	2655
623.244	2671
623.724	2680
624.203	2696
624.683	2660
625.163	2745
625.643	2762
626.123	2753
626.602	2797
627.082	2740
627.562	2759
628.042	2842
628.522	2834
629.002	2815
629.482	2820
629.963	2823
630.443	2810
630.923	2820
631.403	2837
631.883	2805
632.364	2794
632.844	2787
633.324	2807
633.805	2810
634.285	2762
634.766	2727
635.246	2725
635.727	2738
636.207	2748
636.688	2726
637.168	2715
637.649	2676
638.13	2657
638.611	2688
639.091	2686
639.572	2675
640.053	2655
640.534	2688
641.015	2715
641.496	2687
641.977	2737
642.458	2707
642.939	2700
643.42	2734
643.901	2753
644.382	2777
644.863	2772
645.345	2776
645.826	2779
646.307	2799
646.788	2848
647.27	2807
647.751	2799
648.233	2812
648.714	2733
649.196	2805
649.677	2793
650.159	2789
650.64	2734
651.122	2770
651.603	2715
652.085	2752
652.567	2762
653.049	2728
653.53	2705
654.012	2739
654.494	2686
654.976	2719
655.458	2732
655.94	2732
656.422	2770
656.904	2752
657.386	2736
657.868	2764
658.35	2760
658.833	2783
659.315	2784
659.797	2761
660.279	2778
660.762	2810
661.244	2791
661.726	2762
662.209	2741
662.691	2744
663.174	2686
663.656	2722
664.139	2718
664.621	2681
665.104	2640
665.587	2657
666.069	2669
666.552	2676
667.035	2650
667.517	2640
668	2645
668.483	2634
668.966	2621
669.449	2613
669.932	2625
670.415	2639
670.898	2591
671.381	2580
671.864	2588
672.347	2583
672.83	2604
673.313	2618
673.797	2583
674.28	2611
674.763	2608
675.247	2633
675.73	2638
676.213	2665
676.697	2688
677.18	2686
677.664	2705
678.147	2726
678.631	2742
679.114	2774
679.598	2756
680.082	2749
680.565	2741
681.049	2736
681.533	2749
682.017	2794
682.5	2785
682.984	2787
683.468	2757
683.952	2708
684.436	2756
684.92	2725
685.404	2727
685.888	2746
686.372	2719
686.856	2714
687.341	2757
687.825	2734
688.309	2748
688.793	2738
689.278	2687
689.762	2712
690.246	2717
690.731	2748
691.215	2760
691.7	2692
692.184	2713
692.669	2713
693.153	2722
693.638	2696
694.122	2714
694.607	2732
695.092	2689
695.577	2708
696.061	2657
696.546	2675
697.031	2664
697.516	2699
698.001	2701
698.486	2660
698.971	2682
699.456	2622
699.941	2641
700.426	2659
700.911	2691
701.396	2652
701.881	2656
702.366	2625
702.852	2623
703.337	2661
703.822	2665
704.308	2665
704.793	2664
705.278	2647
705.764	2638
706.249	2625
706.735	2644
707.22	2675
707.706	2632
708.191	2660
708.677	2647
709.163	2633
709.648	2660
710.134	2685
710.62	2653
711.106	2639
711.592	2643
712.077	2627
712.563	2567
713.049	2591
713.535	2651
714.021	2649
714.507	2637
714.993	2620
715.479	2660
715.966	2648
716.452	2665
716.938	2695
717.424	2632
717.91	2680
718.397	2642
718.883	2616
719.369	2637
719.856	2632
720.342	2680
720.829	2659
721.315	2657
721.802	2639
722.288	2655
722.775	2575
723.262	2511
723.748	2635
724.235	2609
724.722	2638
725.208	2562
725.695	2550
726.182	2548
726.669	2540
727.156	2575
727.643	2543
728.13	2540
728.617	2503
729.104	2497
729.591	2474
730.078	2511
730.565	2515
731.052	2481
731.539	2482
732.027	2450
732.514	2400
733.001	2425
733.488	2423
733.976	2441
734.463	2442
734.951	2431
735.438	2458
735.926	2423
736.413	2438
736.901	2424
737.388	2474
737.876	2471
738.364	2455
738.851	2453
739.339	2428
739.827	2455
740.314	2384
740.802	2432
741.29	2479
741.778	2461
742.266	2476
742.754	2463
743.242	2476
743.73	2431
744.218	2446
744.706	2435
745.194	2476
745.682	2442
746.17	2446
746.659	2421
747.147	2365
747.635	2384
748.123	2389
748.612	2377
749.1	2376
749.589	2391
750.077	2363
750.566	2342
751.054	2353
751.543	2378
752.031	2355
752.52	2381
753.008	2342
753.497	2331
753.986	2325
754.474	2294
754.963	2318
755.452	2301
755.941	2307
756.43	2305
756.919	2304
757.408	2259
757.896	2253
758.385	2253
758.875	2244
759.364	2239
759.853	2244
760.342	2212
760.831	2262
761.32	2220
761.809	2167
762.299	2183
762.788	2188
763.277	2204
763.767	2184
764.256	2197
764.745	2156
765.235	2177
765.724	2117
766.214	2147
766.703	2159
767.193	2155
767.683	2190
768.172	2159
768.662	2182
769.152	2175
769.641	2182
770.131	2131
770.621	2174
771.111	2164
771.601	2183
772.09	2174
772.58	2131
773.07	2124
773.56	2131
774.05	2089
774.54	2095
775.031	2107
775.521	2109
776.011	2109
776.501	2120
776.991	2064
777.482	2068
777.972	2019
778.462	2032
778.953	2072
779.443	2070
779.933	2060
780.424	2016
780.914	2020
781.405	1997
781.895	1986
782.386	1988
782.877	1986
783.367	1964
783.858	1950
784.349	1944
784.839	1906
785.33	1896
785.821	1879
786.312	1869
786.803	1883
787.293	1900
787.784	1881
788.275	1856
788.766	1829
789.257	1839
789.748	1796
790.24	1792
790.731	1817
791.222	1817
791.713	1828
792.204	1843
792.696	1788
793.187	1809
793.678	1790
794.169	1764
794.661	1816
795.152	1815
795.644	1821
796.135	1830
796.627	1826
797.118	1788
797.61	1761
798.101	1752
798.593	1787
799.085	1765
799.576	1787
800.068	1776
800.56	1772
801.052	1720
801.544	1707
802.035	1709
802.527	1683
803.019	1680
803.511	1669
804.003	1671
804.495	1680
804.987	1652
805.479	1593
805.971	1589
806.464	1588
806.956	1549
807.448	1547
807.94	1553
808.433	1556
808.925	1540
809.417	1523
809.91	1506
810.402	1471
810.894	1487
811.387	1499
811.879	1493
812.372	1512
812.865	1493
813.357	1492
813.85	1475
814.342	1465
814.835	1465
815.328	1475
815.821	1468
816.313	1493
816.806	1516
817.299	1513
817.792	1538
818.285	1505
818.778	1533
819.271	1536
819.764	1523
820.257	1536
820.75	1553
821.243	1573
821.736	1558
822.229	1574
822.722	1567
823.216	1585
