Data from lamp4bck_dubbel_Subt2__31__1031.txt Node

Date: Wed Apr 09 12:21:17 CEST 2025
User: fys-lab-0081
Spectrometer: S04999
Trigger mode: 0
Resolution mode: 1024 pixels
Integration Time (sec): 1.000000E-1
Scans to average: 1
Nonlinearity correction enabled: false
Boxcar width: 0
Baseline correction enabled: true
XAxis mode: Wavelengths
Number of Pixels in Spectrum: 1024
>>>>>Begin Spectral Data<<<<<
336.42	0
336.877	4
337.334	2
337.792	4
338.249	6
338.706	4
339.164	1
339.621	1
340.079	4
340.536	6
340.994	6
341.452	9
341.909	10
342.367	0
342.825	1
343.283	5
343.741	2
344.198	4
344.656	4
345.114	3
345.572	5
346.03	1
346.488	3
346.947	1
347.405	6
347.863	4
348.321	5
348.779	5
349.238	5
349.696	3
350.154	4
350.613	0
351.071	4
351.53	8
351.988	7
352.447	7
352.905	1
353.364	1
353.823	5
354.282	6
354.74	-1
355.199	7
355.658	8
356.117	8
356.576	8
357.035	3
357.494	4
357.953	5
358.412	9
358.871	8
359.33	6
359.789	3
360.249	7
360.708	9
361.167	8
361.626	1
362.086	8
362.545	9
363.005	5
363.464	4
363.924	8
364.383	8
364.843	8
365.303	12
365.762	12
366.222	7
366.682	11
367.142	9
367.601	10
368.061	8
368.521	11
368.981	9
369.441	11
369.901	13
370.361	9
370.821	9
371.282	8
371.742	12
372.202	12
372.662	15
373.123	9
373.583	12
374.043	16
374.504	12
374.964	15
375.425	14
375.885	14
376.346	17
376.806	18
377.267	12
377.728	22
378.188	22
378.649	16
379.11	17
379.571	13
380.032	19
380.493	18
380.954	19
381.414	17
381.876	18
382.337	22
382.798	20
383.259	23
383.72	22
384.181	22
384.642	23
385.104	23
385.565	30
386.026	30
386.488	28
386.949	30
387.411	31
387.872	33
388.334	36
388.795	33
389.257	30
389.719	30
390.181	34
390.642	32
391.104	37
391.566	38
392.028	37
392.49	45
392.952	43
393.414	39
393.876	42
394.338	38
394.8	39
395.262	37
395.724	45
396.186	49
396.648	47
397.111	47
397.573	44
398.035	47
398.498	50
398.96	52
399.423	49
399.885	50
400.348	55
400.81	51
401.273	54
401.736	49
402.198	60
402.661	61
403.124	55
403.587	63
404.049	62.5
404.512	62
404.975	65
405.438	69
405.901	71
406.364	65
406.827	70
407.29	65
407.754	63
408.217	68
408.68	69
409.143	73
409.607	72
410.07	70
410.533	69
410.997	76
411.46	76
411.924	80
412.387	79
412.851	78
413.314	83
413.778	79
414.242	81
414.705	88
415.169	91
415.633	87
416.097	87
416.561	88
417.024	95
417.488	91
417.952	95
418.416	85
418.88	87
419.344	86
419.809	89
420.273	91
420.737	90
421.201	98
421.665	99
422.13	100
422.594	101
423.059	100
423.523	102
423.987	94
424.452	108
424.916	111
425.381	114
425.846	110
426.31	121
426.775	125
427.24	123
427.704	124
428.169	119
428.634	123
429.099	125
429.564	125
430.029	121
430.494	121
430.959	123
431.424	123
431.889	133
432.354	134
432.819	121
433.284	135
433.75	132
434.215	139
434.68	138
435.146	136
435.611	147
436.077	154
436.542	151
437.008	158
437.473	160
437.939	164
438.404	170
438.87	170
439.336	164
439.801	170
440.267	169
440.733	182
441.199	173
441.665	175
442.131	181
442.596	175
443.062	179
443.529	188
443.995	190
444.461	192
444.927	199
445.393	196
445.859	202
446.325	209
446.792	224
447.258	224
447.724	231
448.191	241
448.657	244
449.124	245
449.59	243
450.057	260
450.523	267
450.99	271
451.457	272
451.923	275
452.39	270
452.857	280
453.324	277
453.791	275
454.257	281
454.724	281
455.191	283
455.658	284
456.125	291
456.592	287
457.059	299
457.527	294
457.994	307
458.461	309
458.928	311
459.396	312
459.863	323
460.33	319
460.798	327
461.265	330
461.732	326
462.2	336
462.668	335
463.135	343
463.603	334
464.07	349
464.538	333
465.006	350
465.474	341
465.941	336
466.409	335
466.877	335
467.345	342
467.813	338
468.281	344
468.749	345
469.217	341
469.685	351
470.153	358
470.621	353
471.09	350
471.558	367
472.026	369
472.494	376
472.963	385
473.431	389
473.9	404
474.368	413
474.837	414
475.305	420
475.774	431
476.242	449
476.711	452
477.18	461
477.648	460
478.117	466
478.586	464
479.055	458
479.524	464
479.993	464
480.462	464
480.93	464
481.399	473
481.869	473
482.338	465
482.807	475
483.276	477
483.745	474
484.214	484
484.684	489
485.153	483
485.622	488
486.092	501
486.561	492
487.031	506
487.5	516
487.97	518
488.439	524
488.909	536
489.378	553
489.848	561
490.318	576
490.787	609
491.257	613
491.727	619
492.197	636
492.667	635
493.137	637
493.607	647
494.077	659
494.547	641
495.017	642
495.487	656
495.957	666
496.427	650
496.897	649
497.368	664
497.838	655
498.308	660
498.779	665
499.249	665
499.719	671
500.19	687
500.66	686
501.131	689
501.602	702
502.072	703
502.543	719
503.014	734
503.484	728
503.955	744
504.426	769
504.897	769
505.368	788
505.838	799
506.309	811
506.78	845
507.251	859
507.722	881
508.194	899
508.665	921
509.136	918
509.607	943
510.078	963
510.549	972
511.021	995
511.492	996
511.964	1012
512.435	1036
512.906	1023
513.378	1037
513.849	1056
514.321	1053
514.793	1059
515.264	1073
515.736	1084
516.208	1096
516.679	1098
517.151	1113
517.623	1125
518.095	1128
518.567	1140
519.038	1167
519.51	1172
519.982	1186
520.454	1198
520.927	1221
521.399	1234
521.871	1240
522.343	1268
522.815	1289
523.287	1282
523.76	1291
524.232	1313
524.704	1323
525.177	1291
525.649	1297
526.122	1329
526.594	1290
527.067	1313
527.539	1322
528.012	1324
528.484	1326
528.957	1316
529.43	1315
529.903	1319
530.375	1356
530.848	1314
531.321	1320
531.794	1335
532.267	1365
532.74	1330
533.213	1341
533.686	1375
534.159	1364
534.632	1389
535.105	1393
535.578	1424
536.051	1429
536.525	1419
536.998	1420
537.471	1454
537.945	1421
538.418	1430
538.891	1436
539.365	1465
539.838	1470
540.312	1461
540.786	1469
541.259	1478
541.733	1495
542.206	1496
542.68	1471
543.154	1495
543.628	1505
544.101	1533
544.575	1527
545.049	1503
545.523	1547
545.997	1534
546.471	1550
546.945	1544
547.419	1576
547.893	1491
548.367	1518
548.842	1513
549.316	1512
549.79	1531
550.264	1511
550.739	1515
551.213	1517
551.687	1497
552.162	1507
552.636	1501
553.111	1484
553.585	1526
554.06	1495
554.534	1535
555.009	1530
555.484	1561
555.958	1570
556.433	1584
556.908	1617
557.383	1612
557.858	1644
558.333	1646
558.807	1640
559.282	1664
559.757	1691
560.232	1681
560.708	1654
561.183	1657
561.658	1671
562.133	1654
562.608	1632
563.083	1695
563.559	1651
564.034	1649
564.509	1656
564.985	1673
565.46	1662
565.936	1679
566.411	1676
566.887	1654
567.362	1685
567.838	1680
568.313	1692
568.789	1674
569.265	1693
569.74	1707
570.216	1687
570.692	1708
571.168	1702
571.644	1726
572.12	1696
572.596	1713
573.071	1696
573.547	1750
574.024	1775
574.5	1766
574.976	1771
575.452	1796
575.928	1809
576.404	1819
576.881	1855
577.357	1833
577.833	1846
578.31	1902
578.786	1918
579.262	1943
579.739	1925
580.215	1992
580.692	2008
581.169	1975
581.645	1995
582.122	2060
582.598	2060
583.075	2064
583.552	2074
584.029	2074
584.506	2081
584.982	2077
585.459	2103
585.936	2051
586.413	2088
586.89	2135
587.367	2104
587.844	2117
588.321	2088
588.799	2095
589.276	2081
589.753	2111
590.23	2108
590.707	2078
591.185	2090
591.662	2087
592.139	2115
592.617	2128
593.094	2127
593.572	2146
594.049	2180
594.527	2188
595.004	2189
595.482	2252
595.96	2266
596.437	2273
596.915	2336
597.393	2316
597.871	2374
598.349	2358
598.826	2411
599.304	2400
599.782	2446
600.26	2394
600.738	2454
601.216	2431
601.694	2442
602.173	2436
602.651	2459
603.129	2454
603.607	2465
604.085	2461
604.564	2440
605.042	2433
605.52	2423
605.999	2493
606.477	2434
606.956	2423
607.434	2452
607.913	2481
608.391	2496
608.87	2485
609.348	2454
609.827	2468
610.306	2505
610.785	2537
611.263	2547
611.742	2521
612.221	2499
612.7	2563
613.179	2582
613.658	2544
614.137	2553
614.616	2570
615.095	2525
615.574	2562
616.053	2561
616.532	2517
617.011	2539
617.491	2530
617.97	2532
618.449	2553
618.928	2571
619.408	2547
619.887	2571
620.367	2583
620.846	2611
621.326	2593
621.805	2616
622.285	2627
622.764	2666
623.244	2691
623.724	2701
624.203	2718
624.683	2679
625.163	2765
625.643	2771
626.123	2768
626.602	2814
627.082	2755
627.562	2767
628.042	2861
628.522	2838
629.002	2828
629.482	2827
629.963	2831
630.443	2822
630.923	2833
631.403	2845
631.883	2804
632.364	2811
632.844	2795
633.324	2809
633.805	2823
634.285	2774
634.766	2742
635.246	2736
635.727	2754
636.207	2756
636.688	2743
637.168	2722
637.649	2693
638.13	2675
638.611	2704
639.091	2702
639.572	2697
640.053	2666
640.534	2703
641.015	2733
641.496	2705
641.977	2750
642.458	2716
642.939	2720
643.42	2751
643.901	2770
644.382	2800
644.863	2794
645.345	2795
645.826	2801
646.307	2809
646.788	2868
647.27	2824
647.751	2817
648.233	2826
648.714	2744
649.196	2827
649.677	2808
650.159	2803
650.64	2746
651.122	2771
651.603	2721
652.085	2759
652.567	2772
653.049	2737
653.53	2717
654.012	2747
654.494	2705
654.976	2741
655.458	2746
655.94	2748
656.422	2785
656.904	2766
657.386	2747
657.868	2770
658.35	2772
658.833	2790
659.315	2792
659.797	2777
660.279	2791
660.762	2824
661.244	2808
661.726	2764
662.209	2753
662.691	2760
663.174	2705
663.656	2730
664.139	2739
664.621	2700
665.104	2660
665.587	2674
666.069	2694
666.552	2690
667.035	2660
667.517	2651
668	2656
668.483	2645
668.966	2632
669.449	2625
669.932	2630
670.415	2645
670.898	2606
671.381	2594
671.864	2603
672.347	2594
672.83	2621
673.313	2624
673.797	2599
674.28	2631
674.763	2618
675.247	2646
675.73	2660
676.213	2678
676.697	2703
677.18	2717
677.664	2724
678.147	2743
678.631	2766
679.114	2793
679.598	2774
680.082	2770
680.565	2757
681.049	2750
681.533	2762
682.017	2800
682.5	2798
682.984	2797
683.468	2772
683.952	2720
684.436	2767
684.92	2733
685.404	2750
685.888	2760
686.372	2723
686.856	2721
687.341	2766
687.825	2736
688.309	2763
688.793	2749
689.278	2702
689.762	2722
690.246	2719
690.731	2757
691.215	2770
691.7	2699
692.184	2724
692.669	2718
693.153	2732
693.638	2709
694.122	2725
694.607	2740
695.092	2713
695.577	2723
696.061	2667
696.546	2687
697.031	2684
697.516	2719
698.001	2720
698.486	2676
698.971	2695
699.456	2633
699.941	2657
700.426	2679
700.911	2705
701.396	2667
701.881	2673
702.366	2651
702.852	2639
703.337	2672
703.822	2675
704.308	2677
704.793	2676
705.278	2659
705.764	2657
706.249	2639
706.735	2657
707.22	2688
707.706	2648
708.191	2677
708.677	2657
709.163	2649
709.648	2671
710.134	2696
710.62	2657
711.106	2643
711.592	2659
712.077	2644
712.563	2582
713.049	2605
713.535	2669
714.021	2662
714.507	2651
714.993	2633
715.479	2674
715.966	2662
716.452	2688
716.938	2710
717.424	2647
717.91	2689
718.397	2656
718.883	2633
719.369	2652
719.856	2647
720.342	2704
720.829	2675
721.315	2676
721.802	2650
722.288	2669
722.775	2587
723.262	2527
723.748	2646
724.235	2630
724.722	2644
725.208	2577
725.695	2570
726.182	2568
726.669	2545
727.156	2586
727.643	2541
728.13	2556
728.617	2519
729.104	2505
729.591	2484
730.078	2515
730.565	2529
731.052	2493
731.539	2489
732.027	2464
732.514	2406
733.001	2440
733.488	2443
733.976	2452
734.463	2464
734.951	2453
735.438	2480
735.926	2434
736.413	2451
736.901	2451
737.388	2490
737.876	2487
738.364	2462
738.851	2469
739.339	2449
739.827	2468
740.314	2396
740.802	2438
741.29	2482
741.778	2469
742.266	2478
742.754	2474
743.242	2482
743.73	2444
744.218	2453
744.706	2453
745.194	2498
745.682	2466
746.17	2462
746.659	2434
747.147	2372
747.635	2389
748.123	2400
748.612	2393
749.1	2387
749.589	2402
750.077	2377
750.566	2358
751.054	2366
751.543	2387
752.031	2366
752.52	2386
753.008	2353
753.497	2341
753.986	2334
754.474	2316
754.963	2335
755.452	2311
755.941	2312
756.43	2324
756.919	2307
757.408	2267
757.896	2256
758.385	2252
758.875	2247
759.364	2245
759.853	2251
760.342	2218
760.831	2256
761.32	2225
761.809	2175
762.299	2183
762.788	2198
763.277	2213
763.767	2190
764.256	2204
764.745	2161
765.235	2183
765.724	2126
766.214	2157
766.703	2171
767.193	2165
767.683	2206
768.172	2176
768.662	2195
769.152	2189
769.641	2189
770.131	2149
770.621	2188
771.111	2176
771.601	2207
772.09	2193
772.58	2146
773.07	2141
773.56	2150
774.05	2101
774.54	2107
775.031	2119
775.521	2121
776.011	2122
776.501	2128
776.991	2069
777.482	2080
777.972	2032
778.462	2043
778.953	2079
779.443	2080
779.933	2067
780.424	2031
780.914	2025
781.405	2013
781.895	1993
782.386	2001
782.877	1996
783.367	1973
783.858	1953
784.349	1952
784.839	1919
785.33	1903
785.821	1890
786.312	1884
786.803	1893
787.293	1908
787.784	1896
788.275	1866
788.766	1838
789.257	1849
789.748	1807
790.24	1795
790.731	1828
791.222	1820
791.713	1839
792.204	1859
792.696	1800
793.187	1813
793.678	1804
794.169	1766
794.661	1831
795.152	1829
795.644	1833
796.135	1840
796.627	1835
797.118	1800
797.61	1780
798.101	1764
798.593	1796
799.085	1781
799.576	1793
800.068	1790
800.56	1790
801.052	1731
801.544	1723
802.035	1720
802.527	1698
803.019	1686
803.511	1679
804.003	1678
804.495	1685
804.987	1663
805.479	1608
805.971	1599
806.464	1596
806.956	1555
807.448	1557
807.94	1558
808.433	1564
808.925	1554
809.417	1530
809.91	1516
810.402	1485
810.894	1497
811.387	1516
811.879	1505
812.372	1516
812.865	1504
813.357	1504
813.85	1484
814.342	1464
814.835	1468
815.328	1477
815.821	1477
816.313	1500
816.806	1529
817.299	1522
817.792	1554
818.285	1524
818.778	1546
819.271	1540
819.764	1531
820.257	1547
820.75	1559
821.243	1579
821.736	1568
822.229	1577
822.722	1576
823.216	1600
