Data from lamp4bck_dubbel_Subt2__10__1010.txt Node

Date: Wed Apr 09 12:21:15 CEST 2025
User: fys-lab-0081
Spectrometer: S04999
Trigger mode: 0
Resolution mode: 1024 pixels
Integration Time (sec): 1.000000E-1
Scans to average: 1
Nonlinearity correction enabled: false
Boxcar width: 0
Baseline correction enabled: true
XAxis mode: Wavelengths
Number of Pixels in Spectrum: 1024
>>>>>Begin Spectral Data<<<<<
336.42	1
336.877	2
337.334	2
337.792	5
338.249	5
338.706	5
339.164	4
339.621	2
340.079	1
340.536	4
340.994	2
341.452	8
341.909	7
342.367	5
342.825	-2
343.283	5
343.741	-1
344.198	7
344.656	3
345.114	1
345.572	6
346.03	3
346.488	3
346.947	-1
347.405	7
347.863	6
348.321	1
348.779	7
349.238	4
349.696	6
350.154	3
350.613	2
351.071	8
351.53	10
351.988	6
352.447	6
352.905	0
353.364	5
353.823	6
354.282	4
354.74	-1
355.199	8
355.658	7
356.117	5
356.576	6
357.035	2
357.494	7
357.953	4
358.412	9
358.871	7
359.33	3
359.789	5
360.249	5
360.708	6
361.167	8
361.626	9
362.086	7
362.545	6
363.005	9
363.464	5
363.924	9
364.383	8
364.843	6
365.303	11
365.762	13
366.222	9
366.682	8
367.142	14
367.601	11
368.061	8
368.521	7
368.981	6
369.441	20
369.901	13
370.361	11
370.821	10
371.282	12
371.742	10
372.202	12
372.662	15
373.123	10
373.583	11
374.043	14
374.504	10
374.964	13
375.425	14
375.885	15
376.346	17
376.806	20
377.267	18
377.728	19
378.188	17
378.649	14
379.11	18
379.571	17
380.032	19
380.493	16
380.954	21
381.414	19
381.876	21
382.337	17
382.798	23
383.259	24
383.72	25
384.181	20
384.642	21
385.104	25
385.565	28
386.026	26
386.488	30
386.949	28
387.411	28
387.872	35
388.334	35
388.795	32
389.257	36
389.719	33
390.181	38
390.642	34
391.104	35
391.566	38
392.028	39
392.49	39
392.952	43
393.414	42
393.876	45
394.338	42
394.8	41
395.262	38
395.724	46
396.186	45
396.648	43
397.111	46
397.573	52
398.035	46
398.498	49
398.96	54
399.423	47
399.885	47
400.348	52
400.81	58
401.273	53
401.736	46
402.198	58
402.661	60
403.124	56
403.587	63
404.049	61.5
404.512	60
404.975	64
405.438	66
405.901	69
406.364	68
406.827	64
407.29	68
407.754	68
408.217	67
408.68	68
409.143	72
409.607	77
410.07	71
410.533	70
410.997	70
411.46	79
411.924	78
412.387	82
412.851	71
413.314	77
413.778	80
414.242	83
414.705	86
415.169	82
415.633	84
416.097	86
416.561	86
417.024	90
417.488	86
417.952	91
418.416	85
418.88	80
419.344	86
419.809	88
420.273	92
420.737	90
421.201	92
421.665	94
422.13	95
422.594	100
423.059	98
423.523	101
423.987	100
424.452	111
424.916	108
425.381	108
425.846	109
426.31	120
426.775	123
427.24	120
427.704	119
428.169	121
428.634	123
429.099	124
429.564	117
430.029	119
430.494	120
430.959	119
431.424	121
431.889	128
432.354	125
432.819	122
433.284	133
433.75	131
434.215	137
434.68	135
435.146	133
435.611	144
436.077	144
436.542	146
437.008	157
437.473	161
437.939	159
438.404	165
438.87	172
439.336	164
439.801	166
440.267	171
440.733	173
441.199	172
441.665	173
442.131	179
442.596	174
443.062	176
443.529	185
443.995	187
444.461	185
444.927	197
445.393	191
445.859	196
446.325	205
446.792	221
447.258	217
447.724	226
448.191	238
448.657	237
449.124	243
449.59	238
450.057	261
450.523	266
450.99	265
451.457	266
451.923	269
452.39	267
452.857	279
453.324	268
453.791	274
454.257	283
454.724	283
455.191	277
455.658	279
456.125	289
456.592	287
457.059	292
457.527	291
457.994	306
458.461	301
458.928	308
459.396	308
459.863	317
460.33	311
460.798	322
461.265	327
461.732	322
462.2	332
462.668	327
463.135	335
463.603	330
464.07	347
464.538	330
465.006	336
465.474	335
465.941	334
466.409	335
466.877	332
467.345	335
467.813	329
468.281	345
468.749	342
469.217	340
469.685	347
470.153	348
470.621	343
471.09	351
471.558	363
472.026	367
472.494	370
472.963	372
473.431	385
473.9	398
474.368	408
474.837	409
475.305	419
475.774	425
476.242	439
476.711	442
477.18	457
477.648	447
478.117	455
478.586	458
479.055	454
479.524	457
479.993	462
480.462	454
480.93	456
481.399	462
481.869	466
482.338	454
482.807	469
483.276	468
483.745	466
484.214	474
484.684	476
485.153	477
485.622	479
486.092	495
486.561	480
487.031	504
487.5	505
487.97	506
488.439	520
488.909	526
489.378	551
489.848	553
490.318	566
490.787	599
491.257	600
491.727	609
492.197	627
492.667	626
493.137	630
493.607	638
494.077	644
494.547	629
495.017	627
495.487	641
495.957	655
496.427	639
496.897	639
497.368	652
497.838	642
498.308	643
498.779	653
499.249	658
499.719	658
500.19	675
500.66	670
501.131	682
501.602	691
502.072	693
502.543	705
503.014	722
503.484	725
503.955	732
504.426	754
504.897	757
505.368	775
505.838	790
506.309	794
506.78	828
507.251	847
507.722	857
508.194	885
508.665	905
509.136	903
509.607	929
510.078	944
510.549	964
511.021	980
511.492	977
511.964	992
512.435	1014
512.906	1003
513.378	1018
513.849	1037
514.321	1034
514.793	1039
515.264	1054
515.736	1064
516.208	1074
516.679	1078
517.151	1092
517.623	1105
518.095	1110
518.567	1114
519.038	1143
519.51	1152
519.982	1161
520.454	1171
520.927	1196
521.399	1212
521.871	1217
522.343	1237
522.815	1261
523.287	1250
523.76	1261
524.232	1288
524.704	1298
525.177	1270
525.649	1267
526.122	1299
526.594	1268
527.067	1288
527.539	1297
528.012	1300
528.484	1293
528.957	1294
529.43	1290
529.903	1294
530.375	1322
530.848	1279
531.321	1296
531.794	1311
532.267	1332
532.74	1303
533.213	1316
533.686	1347
534.159	1341
534.632	1361
535.105	1366
535.578	1406
536.051	1404
536.525	1402
536.998	1399
537.471	1425
537.945	1403
538.418	1413
538.891	1414
539.365	1449
539.838	1447
540.312	1440
540.786	1442
541.259	1454
541.733	1472
542.206	1461
542.68	1444
543.154	1465
543.628	1466
544.101	1498
544.575	1488
545.049	1469
545.523	1506
545.997	1503
546.471	1519
546.945	1523
547.419	1547
547.893	1472
548.367	1490
548.842	1478
549.316	1490
549.79	1500
550.264	1469
550.739	1481
551.213	1487
551.687	1471
552.162	1480
552.636	1465
553.111	1465
553.585	1491
554.06	1467
554.534	1505
555.009	1504
555.484	1528
555.958	1535
556.433	1550
556.908	1583
557.383	1571
557.858	1610
558.333	1610
558.807	1605
559.282	1626
559.757	1661
560.232	1648
560.708	1623
561.183	1625
561.658	1631
562.133	1628
562.608	1606
563.083	1665
563.559	1630
564.034	1621
564.509	1619
564.985	1639
565.46	1630
565.936	1654
566.411	1638
566.887	1622
567.362	1653
567.838	1647
568.313	1661
568.789	1651
569.265	1654
569.74	1671
570.216	1653
570.692	1676
571.168	1675
571.644	1692
572.12	1675
572.596	1687
573.071	1673
573.547	1719
574.024	1752
574.5	1747
574.976	1739
575.452	1765
575.928	1784
576.404	1786
576.881	1828
577.357	1794
577.833	1813
578.31	1865
578.786	1878
579.262	1898
579.739	1884
580.215	1964
580.692	1959
581.169	1937
581.645	1942
582.122	2015
582.598	2012
583.075	2018
583.552	2025
584.029	2026
584.506	2033
584.982	2025
585.459	2052
585.936	2012
586.413	2041
586.89	2083
587.367	2061
587.844	2066
588.321	2039
588.799	2047
589.276	2038
589.753	2067
590.23	2063
590.707	2047
591.185	2047
591.662	2041
592.139	2060
592.617	2079
593.094	2076
593.572	2095
594.049	2128
594.527	2132
595.004	2126
595.482	2198
595.96	2208
596.437	2227
596.915	2279
597.393	2255
597.871	2313
598.349	2302
598.826	2355
599.304	2340
599.782	2387
600.26	2351
600.738	2410
601.216	2391
601.694	2389
602.173	2380
602.651	2411
603.129	2397
603.607	2413
604.085	2418
604.564	2377
605.042	2378
605.52	2369
605.999	2430
606.477	2372
606.956	2360
607.434	2386
607.913	2412
608.391	2417
608.87	2411
609.348	2383
609.827	2406
610.306	2446
610.785	2477
611.263	2482
611.742	2465
612.221	2450
612.7	2505
613.179	2527
613.658	2484
614.137	2497
614.616	2502
615.095	2473
615.574	2500
616.053	2506
616.532	2463
617.011	2478
617.491	2482
617.97	2478
618.449	2491
618.928	2506
619.408	2487
619.887	2506
620.367	2522
620.846	2550
621.326	2533
621.805	2564
622.285	2566
622.764	2612
623.244	2627
623.724	2632
624.203	2645
624.683	2614
625.163	2689
625.643	2702
626.123	2695
626.602	2742
627.082	2674
627.562	2705
628.042	2791
628.522	2769
629.002	2759
629.482	2754
629.963	2755
630.443	2741
630.923	2754
631.403	2768
631.883	2729
632.364	2722
632.844	2710
633.324	2734
633.805	2748
634.285	2695
634.766	2667
635.246	2663
635.727	2676
636.207	2682
636.688	2674
637.168	2652
637.649	2625
638.13	2594
638.611	2630
639.091	2634
639.572	2617
640.053	2584
640.534	2629
641.015	2651
641.496	2618
641.977	2667
642.458	2640
642.939	2647
643.42	2672
643.901	2693
644.382	2736
644.863	2725
645.345	2723
645.826	2730
646.307	2743
646.788	2798
647.27	2744
647.751	2741
648.233	2746
648.714	2670
649.196	2740
649.677	2730
650.159	2721
650.64	2675
651.122	2697
651.603	2660
652.085	2683
652.567	2706
653.049	2679
653.53	2650
654.012	2682
654.494	2640
654.976	2672
655.458	2680
655.94	2665
656.422	2707
656.904	2687
657.386	2672
657.868	2693
658.35	2698
658.833	2715
659.315	2717
659.797	2694
660.279	2698
660.762	2750
661.244	2719
661.726	2684
662.209	2675
662.691	2679
663.174	2633
663.656	2659
664.139	2670
664.621	2624
665.104	2585
665.587	2600
666.069	2623
666.552	2628
667.035	2596
667.517	2578
668	2572
668.483	2569
668.966	2548
669.449	2544
669.932	2549
670.415	2573
670.898	2525
671.381	2517
671.864	2531
672.347	2523
672.83	2547
673.313	2549
673.797	2523
674.28	2556
674.763	2548
675.247	2568
675.73	2576
676.213	2599
676.697	2620
677.18	2627
677.664	2644
678.147	2658
678.631	2685
679.114	2703
679.598	2689
680.082	2684
680.565	2678
681.049	2676
681.533	2688
682.017	2721
682.5	2724
682.984	2718
683.468	2698
683.952	2640
684.436	2694
684.92	2657
685.404	2671
685.888	2692
686.372	2653
686.856	2649
687.341	2701
687.825	2670
688.309	2689
688.793	2688
689.278	2637
689.762	2660
690.246	2656
690.731	2687
691.215	2702
691.7	2633
692.184	2656
692.669	2648
693.153	2666
693.638	2640
694.122	2664
694.607	2687
695.092	2644
695.577	2650
696.061	2612
696.546	2625
697.031	2612
697.516	2657
698.001	2655
698.486	2616
698.971	2635
699.456	2580
699.941	2598
700.426	2615
700.911	2643
701.396	2598
701.881	2605
702.366	2581
702.852	2565
703.337	2608
703.822	2610
704.308	2616
704.793	2616
705.278	2586
705.764	2586
706.249	2582
706.735	2596
707.22	2619
707.706	2587
708.191	2612
708.677	2598
709.163	2586
709.648	2608
710.134	2638
710.62	2597
711.106	2579
711.592	2590
712.077	2576
712.563	2524
713.049	2538
713.535	2606
714.021	2595
714.507	2579
714.993	2555
715.479	2607
715.966	2581
716.452	2612
716.938	2637
717.424	2567
717.91	2622
718.397	2587
718.883	2554
719.369	2585
719.856	2583
720.342	2633
720.829	2607
721.315	2608
721.802	2585
722.288	2612
722.775	2524
723.262	2463
723.748	2588
724.235	2586
724.722	2607
725.208	2534
725.695	2523
726.182	2526
726.669	2512
727.156	2543
727.643	2516
728.13	2510
728.617	2472
729.104	2455
729.591	2426
730.078	2459
730.565	2476
731.052	2436
731.539	2430
732.027	2400
732.514	2360
733.001	2390
733.488	2381
733.976	2393
734.463	2400
734.951	2392
735.438	2429
735.926	2387
736.413	2398
736.901	2401
737.388	2425
737.876	2441
738.364	2414
738.851	2413
739.339	2387
739.827	2410
740.314	2354
740.802	2398
741.29	2436
741.778	2411
742.266	2420
742.754	2414
743.242	2426
743.73	2380
744.218	2394
744.706	2397
745.194	2440
745.682	2411
746.17	2410
746.659	2386
747.147	2327
747.635	2339
748.123	2356
748.612	2334
749.1	2331
749.589	2344
750.077	2317
750.566	2297
751.054	2316
751.543	2329
752.031	2308
752.52	2332
753.008	2293
753.497	2285
753.986	2273
754.474	2246
754.963	2270
755.452	2251
755.941	2253
756.43	2259
756.919	2250
757.408	2208
757.896	2205
758.385	2197
758.875	2182
759.364	2194
759.853	2190
760.342	2168
760.831	2203
761.32	2175
761.809	2122
762.299	2141
762.788	2160
763.277	2160
763.767	2153
764.256	2160
764.745	2123
765.235	2140
765.724	2076
766.214	2110
766.703	2120
767.193	2114
767.683	2150
768.172	2127
768.662	2147
769.152	2136
769.641	2150
770.131	2099
770.621	2140
771.111	2136
771.601	2155
772.09	2131
772.58	2094
773.07	2087
773.56	2086
774.05	2048
774.54	2056
775.031	2058
775.521	2066
776.011	2060
776.501	2068
776.991	2012
777.482	2004
777.972	1972
778.462	1990
778.953	2019
779.443	2018
779.933	2013
780.424	1968
780.914	1966
781.405	1958
781.895	1938
782.386	1942
782.877	1946
783.367	1912
783.858	1901
784.349	1904
784.839	1873
785.33	1847
785.821	1835
786.312	1824
786.803	1839
787.293	1856
787.784	1850
788.275	1818
788.766	1794
789.257	1818
789.748	1774
790.24	1755
790.731	1791
791.222	1787
791.713	1800
792.204	1809
792.696	1762
793.187	1775
793.678	1760
794.169	1730
794.661	1777
795.152	1777
795.644	1780
796.135	1792
796.627	1789
797.118	1751
797.61	1729
798.101	1713
798.593	1748
799.085	1723
799.576	1744
800.068	1731
800.56	1735
801.052	1676
801.544	1665
802.035	1674
802.527	1648
803.019	1642
803.511	1633
804.003	1629
804.495	1643
804.987	1615
805.479	1565
805.971	1547
806.464	1552
806.956	1509
807.448	1515
807.94	1522
808.433	1523
808.925	1511
809.417	1497
809.91	1485
810.402	1451
810.894	1473
811.387	1485
811.879	1481
812.372	1492
812.865	1478
813.357	1472
813.85	1457
814.342	1442
814.835	1453
815.328	1455
815.821	1447
816.313	1462
816.806	1482
817.299	1484
817.792	1497
818.285	1478
818.778	1495
819.271	1499
819.764	1480
820.257	1495
820.75	1519
821.243	1535
821.736	1531
822.229	1539
822.722	1531
823.216	1556
