Data from lamp4bck_dubbel_Subt2__89__1089.txt Node

Date: Wed Apr 09 12:21:24 CEST 2025
User: fys-lab-0081
Spectrometer: S04999
Trigger mode: 0
Resolution mode: 1024 pixels
Integration Time (sec): 1.000000E-1
Scans to average: 1
Nonlinearity correction enabled: false
Boxcar width: 0
Baseline correction enabled: true
XAxis mode: Wavelengths
Number of Pixels in Spectrum: 1024
>>>>>Begin Spectral Data<<<<<
336.42	2
336.877	2
337.334	3
337.792	3
338.249	6
338.706	4
339.164	2
339.621	7
340.079	4
340.536	8
340.994	5
341.452	5
341.909	7
342.367	4
342.825	-1
343.283	4
343.741	-2
344.198	3
344.656	3
345.114	3
345.572	1
346.03	2
346.488	6
346.947	-1
347.405	9
347.863	6
348.321	5
348.779	7
349.238	1
349.696	6
350.154	5
350.613	2
351.071	11
351.53	8
351.988	8
352.447	5
352.905	1
353.364	5
353.823	6
354.282	3
354.74	1
355.199	7
355.658	7
356.117	4
356.576	5
357.035	2
357.494	6
357.953	7
358.412	10
358.871	9
359.33	5
359.789	1
360.249	4
360.708	5
361.167	10
361.626	7
362.086	4
362.545	8
363.005	8
363.464	5
363.924	9
364.383	2
364.843	10
365.303	9
365.762	13
366.222	8
366.682	8
367.142	13
367.601	10
368.061	7
368.521	12
368.981	12
369.441	14
369.901	12
370.361	10
370.821	10
371.282	18
371.742	15
372.202	13
372.662	13
373.123	11
373.583	15
374.043	14
374.504	12
374.964	14
375.425	14
375.885	15
376.346	17
376.806	20
377.267	12
377.728	16
378.188	16
378.649	13
379.11	17
379.571	13
380.032	18
380.493	16
380.954	23
381.414	18
381.876	22
382.337	21
382.798	20
383.259	26
383.72	24
384.181	22
384.642	19
385.104	22
385.565	30
386.026	30
386.488	27
386.949	32
387.411	29
387.872	28
388.334	37
388.795	31
389.257	36
389.719	33
390.181	39
390.642	32
391.104	38
391.566	36
392.028	39
392.49	41
392.952	47
393.414	42
393.876	44
394.338	43
394.8	42
395.262	41
395.724	48
396.186	47
396.648	44
397.111	49
397.573	52
398.035	49
398.498	50
398.96	53
399.423	49
399.885	50
400.348	52
400.81	58
401.273	57
401.736	53
402.198	59
402.661	60
403.124	58
403.587	63
404.049	65.5
404.512	68
404.975	69
405.438	66
405.901	69
406.364	71
406.827	70
407.29	69
407.754	65
408.217	70
408.68	69
409.143	71
409.607	73
410.07	71
410.533	71
410.997	73
411.46	79
411.924	83
412.387	84
412.851	82
413.314	80
413.778	84
414.242	83
414.705	92
415.169	88
415.633	89
416.097	83
416.561	90
417.024	94
417.488	92
417.952	90
418.416	89
418.88	84
419.344	90
419.809	92
420.273	92
420.737	90
421.201	95
421.665	98
422.13	99
422.594	105
423.059	102
423.523	107
423.987	101
424.452	108
424.916	116
425.381	117
425.846	111
426.31	125
426.775	127
427.24	124
427.704	126
428.169	123
428.634	127
429.099	125
429.564	127
430.029	125
430.494	124
430.959	121
431.424	118
431.889	130
432.354	135
432.819	123
433.284	133
433.75	134
434.215	138
434.68	138
435.146	140
435.611	145
436.077	154
436.542	152
437.008	158
437.473	166
437.939	163
438.404	167
438.87	174
439.336	174
439.801	171
440.267	178
440.733	178
441.199	181
441.665	176
442.131	182
442.596	174
443.062	184
443.529	192
443.995	196
444.461	194
444.927	205
445.393	196
445.859	209
446.325	214
446.792	225
447.258	225
447.724	233
448.191	242
448.657	247
449.124	249
449.59	247
450.057	268
450.523	272
450.99	267
451.457	276
451.923	280
452.39	276
452.857	289
453.324	279
453.791	280
454.257	288
454.724	288
455.191	284
455.658	291
456.125	297
456.592	294
457.059	302
457.527	300
457.994	311
458.461	311
458.928	316
459.396	318
459.863	325
460.33	325
460.798	333
461.265	334
461.732	332
462.2	345
462.668	346
463.135	344
463.603	337
464.07	352
464.538	338
465.006	355
465.474	341
465.941	341
466.409	341
466.877	342
467.345	347
467.813	338
468.281	346
468.749	351
469.217	348
469.685	354
470.153	364
470.621	357
471.09	358
471.558	376
472.026	376
472.494	385
472.963	386
473.431	394
473.9	411
474.368	417
474.837	420
475.305	435
475.774	436
476.242	449
476.711	453
477.18	465
477.648	458
478.117	476
478.586	471
479.055	464
479.524	476
479.993	475
480.462	472
480.93	471
481.399	477
481.869	477
482.338	469
482.807	483
483.276	478
483.745	475
484.214	492
484.684	496
485.153	487
485.622	490
486.092	503
486.561	499
487.031	515
487.5	521
487.97	522
488.439	533
488.909	548
489.378	567
489.848	567
490.318	584
490.787	614
491.257	618
491.727	627
492.197	644
492.667	646
493.137	644
493.607	653
494.077	659
494.547	648
495.017	650
495.487	662
495.957	679
496.427	662
496.897	662
497.368	677
497.838	661
498.308	669
498.779	674
499.249	677
499.719	681
500.19	696
500.66	695
501.131	699
501.602	711
502.072	713
502.543	728
503.014	740
503.484	738
503.955	750
504.426	773
504.897	776
505.368	797
505.838	813
506.309	822
506.78	854
507.251	878
507.722	892
508.194	912
508.665	934
509.136	932
509.607	964
510.078	979
510.549	991
511.021	1014
511.492	1009
511.964	1031
512.435	1049
512.906	1035
513.378	1050
513.849	1066
514.321	1063
514.793	1068
515.264	1085
515.736	1094
516.208	1105
516.679	1109
517.151	1131
517.623	1132
518.095	1139
518.567	1156
519.038	1190
519.51	1190
519.982	1204
520.454	1226
520.927	1237
521.399	1254
521.871	1269
522.343	1281
522.815	1307
523.287	1300
523.76	1303
524.232	1324
524.704	1333
525.177	1310
525.649	1307
526.122	1336
526.594	1303
527.067	1320
527.539	1333
528.012	1340
528.484	1339
528.957	1336
529.43	1331
529.903	1334
530.375	1371
530.848	1326
531.321	1344
531.794	1357
532.267	1383
532.74	1359
533.213	1365
533.686	1395
534.159	1387
534.632	1405
535.105	1407
535.578	1441
536.051	1442
536.525	1430
536.998	1419
537.471	1461
537.945	1431
538.418	1440
538.891	1446
539.365	1478
539.838	1489
540.312	1479
540.786	1485
541.259	1502
541.733	1529
542.206	1522
542.68	1502
543.154	1525
543.628	1532
544.101	1554
544.575	1553
545.049	1539
545.523	1573
545.997	1561
546.471	1571
546.945	1569
547.419	1592
547.893	1511
548.367	1529
548.842	1518
549.316	1524
549.79	1526
550.264	1507
550.739	1523
551.213	1527
551.687	1512
552.162	1519
552.636	1523
553.111	1518
553.585	1550
554.06	1517
554.534	1568
555.009	1570
555.484	1592
555.958	1598
556.433	1608
556.908	1655
557.383	1640
557.858	1671
558.333	1660
558.807	1661
559.282	1684
559.757	1711
560.232	1689
560.708	1661
561.183	1662
561.658	1669
562.133	1660
562.608	1641
563.083	1697
563.559	1668
564.034	1664
564.509	1669
564.985	1693
565.46	1688
565.936	1712
566.411	1708
566.887	1696
567.362	1729
567.838	1720
568.313	1737
568.789	1721
569.265	1727
569.74	1743
570.216	1724
570.692	1745
571.168	1727
571.644	1742
572.12	1732
572.596	1731
573.071	1718
573.547	1762
574.024	1783
574.5	1776
574.976	1771
575.452	1800
575.928	1822
576.404	1824
576.881	1874
577.357	1848
577.833	1872
578.31	1921
578.786	1946
579.262	1980
579.739	1965
580.215	2042
580.692	2050
581.169	2017
581.645	2038
582.122	2100
582.598	2094
583.075	2102
583.552	2113
584.029	2107
584.506	2105
584.982	2091
585.459	2109
585.936	2064
586.413	2091
586.89	2129
587.367	2095
587.844	2106
588.321	2078
588.799	2091
589.276	2078
589.753	2118
590.23	2119
590.707	2107
591.185	2104
591.662	2116
592.139	2133
592.617	2165
593.094	2167
593.572	2190
594.049	2222
594.527	2238
595.004	2237
595.482	2298
595.96	2305
596.437	2326
596.915	2380
597.393	2354
597.871	2407
598.349	2381
598.826	2436
599.304	2411
599.782	2448
600.26	2393
600.738	2455
601.216	2435
601.694	2422
602.173	2427
602.651	2457
603.129	2454
603.607	2466
604.085	2458
604.564	2445
605.042	2449
605.52	2451
605.999	2525
606.477	2472
606.956	2469
607.434	2504.5
607.913	2540
608.391	2554
608.87	2541
609.348	2518
609.827	2537
610.306	2574
610.785	2591
611.263	2605
611.742	2577
612.221	2544
612.7	2602
613.179	2603
613.658	2562
614.137	2573
614.616	2583
615.095	2530
615.574	2562
616.053	2566
616.532	2515
617.011	2526
617.491	2538
617.97	2534
618.449	2565
618.928	2576
619.408	2560
619.887	2584
620.367	2607
620.846	2643
621.326	2629
621.805	2664
622.285	2672
622.764	2724
623.244	2741
623.724	2762
624.203	2783
624.683	2745
625.163	2824
625.643	2833
626.123	2826
626.602	2876
627.082	2796
627.562	2808
628.042	2902
628.522	2875
629.002	2856
629.482	2849
629.963	2851
630.443	2835
630.923	2834
631.403	2846
631.883	2806
632.364	2809
632.844	2787
633.324	2814
633.805	2823
634.285	2785
634.766	2757
635.246	2756
635.727	2775
636.207	2788
636.688	2784
637.168	2775
637.649	2738
638.13	2727
638.611	2761
639.091	2765
639.572	2757
640.053	2736
640.534	2783
641.015	2794
641.496	2761
641.977	2809
642.458	2774
642.939	2777
643.42	2792
643.901	2814
644.382	2844
644.863	2825
645.345	2819
645.826	2817
646.307	2812
646.788	2870
647.27	2814
647.751	2819
648.233	2819
648.714	2734
649.196	2813
649.677	2808
650.159	2807
650.64	2754
651.122	2786
651.603	2751
652.085	2793
652.567	2805
653.049	2778
653.53	2762
654.012	2790
654.494	2750
654.976	2790
655.458	2808
655.94	2802
656.422	2850
656.904	2826
657.386	2808
657.868	2825
658.35	2829
658.833	2843
659.315	2840
659.797	2812
660.279	2833
660.762	2869
661.244	2839
661.726	2797
662.209	2774
662.691	2772
663.174	2717
663.656	2737
664.139	2743
664.621	2700
665.104	2651
665.587	2663
666.069	2690
666.552	2691
667.035	2668
667.517	2658
668	2657
668.483	2645
668.966	2639
669.449	2639
669.932	2649
670.415	2680
670.898	2633
671.381	2626
671.864	2644
672.347	2641
672.83	2669
673.313	2675
673.797	2652
674.28	2697
674.763	2690
675.247	2711
675.73	2722
676.213	2751
676.697	2765
677.18	2766
677.664	2780
678.147	2791
678.631	2805
679.114	2830
679.598	2804
680.082	2804
680.565	2786
681.049	2778
681.533	2795
682.017	2836
682.5	2825
682.984	2818
683.468	2793
683.952	2743
684.436	2801
684.92	2759
685.404	2760
685.888	2780
686.372	2748
686.856	2743
687.341	2798
687.825	2780
688.309	2809
688.793	2798
689.278	2745
689.762	2780
690.246	2779
690.731	2806
691.215	2834
691.7	2760
692.184	2794
692.669	2785
693.153	2796
693.638	2776
694.122	2791
694.607	2822
695.092	2764
695.577	2783
696.061	2731
696.546	2742
697.031	2736
697.516	2772
698.001	2761
698.486	2722
698.971	2740
699.456	2681
699.941	2695
700.426	2712
700.911	2734
701.396	2697
701.881	2689
702.366	2666
702.852	2662
703.337	2692
703.822	2701
704.308	2697
704.793	2687
705.278	2671
705.764	2666
706.249	2659
706.735	2680
707.22	2715
707.706	2672
708.191	2695
708.677	2684
709.163	2677
709.648	2711
710.134	2743
710.62	2702
711.106	2691
711.592	2704
712.077	2691
712.563	2635
713.049	2651
713.535	2721
714.021	2717
714.507	2708
714.993	2695
715.479	2734
715.966	2723
716.452	2749
716.938	2781
717.424	2698
717.91	2759
718.397	2707
718.883	2674
719.369	2702
719.856	2697
720.342	2746
720.829	2716
721.315	2725
721.802	2694
722.288	2707
722.775	2610
723.262	2559
723.748	2677
724.235	2658
724.722	2678
725.208	2608
725.695	2599
726.182	2591
726.669	2577
727.156	2616
727.643	2568
728.13	2581
728.617	2524
729.104	2513
729.591	2491
730.078	2526
730.565	2548
731.052	2513
731.539	2511
732.027	2482
732.514	2433
733.001	2464
733.488	2459
733.976	2476
734.463	2482
734.951	2484
735.438	2503
735.926	2474
736.413	2489
736.901	2490
737.388	2537
737.876	2531
738.364	2508
738.851	2512
739.339	2494
739.827	2518
740.314	2456
740.802	2505
741.29	2541
741.778	2517
742.266	2529
742.754	2520
743.242	2524
743.73	2480
744.218	2495
744.706	2484
745.194	2521
745.682	2495
746.17	2496
746.659	2471
747.147	2402
747.635	2421
748.123	2430
748.612	2410
749.1	2407
749.589	2419
750.077	2385
750.566	2366
751.054	2382
751.543	2399
752.031	2365
752.52	2400
753.008	2358
753.497	2354
753.986	2339
754.474	2317
754.963	2340
755.452	2328
755.941	2330
756.43	2333
756.919	2324
757.408	2285
757.896	2286
758.385	2276
758.875	2257
759.364	2265
759.853	2273
760.342	2243
760.831	2290
761.32	2254
761.809	2214
762.299	2229
762.788	2235
763.277	2245
763.767	2234
764.256	2243
764.745	2206
765.235	2220
765.724	2165
766.214	2199
766.703	2209
767.193	2204
767.683	2237
768.172	2209
768.662	2230
769.152	2217
769.641	2219
770.131	2169
770.621	2212
771.111	2199
771.601	2220
772.09	2205
772.58	2158
773.07	2152
773.56	2146
774.05	2102
774.54	2114
775.031	2115
775.521	2118
776.011	2125
776.501	2126
776.991	2067
777.482	2074
777.972	2029
778.462	2044
778.953	2082
779.443	2081
779.933	2075
780.424	2041
780.914	2035
781.405	2021
781.895	2006
782.386	2015
782.877	2012
783.367	1992
783.858	1975
784.349	1974
784.839	1943
785.33	1936
785.821	1911
786.312	1911
786.803	1931
787.293	1948
787.784	1933
788.275	1911
788.766	1881
789.257	1901
789.748	1857
790.24	1845
790.731	1880
791.222	1866
791.713	1887
792.204	1894
792.696	1839
793.187	1851
793.678	1842
794.169	1800
794.661	1853
795.152	1849
795.644	1856
796.135	1858
796.627	1856
797.118	1811
797.61	1787
798.101	1771
798.593	1796
799.085	1775
799.576	1789
800.068	1793
800.56	1780
801.052	1727
801.544	1711
802.035	1715
802.527	1689
803.019	1680
803.511	1677
804.003	1682
804.495	1685
804.987	1662
805.479	1607
805.971	1601
806.464	1597
806.956	1554
807.448	1567
807.94	1575
808.433	1577
808.925	1573
809.417	1550
809.91	1543
810.402	1504
810.894	1517
811.387	1540
811.879	1531
812.372	1553
812.865	1540
813.357	1529
813.85	1514
814.342	1502
814.835	1510
815.328	1512
815.821	1514
816.313	1539
816.806	1557
817.299	1559
817.792	1574
818.285	1555
818.778	1567
819.271	1568
819.764	1556
820.257	1570
820.75	1580
821.243	1603
821.736	1596
822.229	1602
822.722	1588
823.216	1615
