Data from lamp1bck_Subt4__12__74.txt Node

Date: Fri Apr 04 10:06:02 CEST 2025
User: fys-lab-0081
Spectrometer: S04999
Trigger mode: 0
Resolution mode: 1024 pixels
Integration Time (sec): 1.000000E-1
Scans to average: 1
Nonlinearity correction enabled: false
Boxcar width: 0
Baseline correction enabled: true
XAxis mode: Wavelengths
Number of Pixels in Spectrum: 1024
>>>>>Begin Spectral Data<<<<<
336.42	5
336.877	4
337.334	5
337.792	9
338.249	8
338.706	6
339.164	9
339.621	8
340.079	12
340.536	7
340.994	5
341.452	9
341.909	8
342.367	9
342.825	10
343.283	10
343.741	13
344.198	7
344.656	9
345.114	14
345.572	8
346.03	12
346.488	7
346.947	13
347.405	12
347.863	13
348.321	11
348.779	16
349.238	16
349.696	14
350.154	10
350.613	13
351.071	18
351.53	13
351.988	14
352.447	15
352.905	16
353.364	16
353.823	22
354.282	16
354.74	17
355.199	25
355.658	21
356.117	22
356.576	19
357.035	21
357.494	23
357.953	21
358.412	22
358.871	27
359.33	27
359.789	28
360.249	32
360.708	31
361.167	29
361.626	32
362.086	34
362.545	37
363.005	33
363.464	37
363.924	37
364.383	36
364.843	40
365.303	35
365.762	42
366.222	45
366.682	41
367.142	42
367.601	47
368.061	45
368.521	45
368.981	47
369.441	46
369.901	45
370.361	50
370.821	58
371.282	46
371.742	48
372.202	52
372.662	54
373.123	55
373.583	55
374.043	60
374.504	56
374.964	59
375.425	61
375.885	68
376.346	67
376.806	63
377.267	69
377.728	66
378.188	71
378.649	73
379.11	72
379.571	71
380.032	76
380.493	77
380.954	87
381.414	84
381.876	88
382.337	88
382.798	88
383.259	97
383.72	97
384.181	103
384.642	104
385.104	107
385.565	106
386.026	112
386.488	122
386.949	119
387.411	127
387.872	124
388.334	129
388.795	128
389.257	135
389.719	137
390.181	140
390.642	143
391.104	147
391.566	147
392.028	156
392.49	161
392.952	158
393.414	161
393.876	164
394.338	173
394.8	169
395.262	174
395.724	182
396.186	184
396.648	189
397.111	190
397.573	191
398.035	188
398.498	200
398.96	200
399.423	199
399.885	205
400.348	202
400.81	212
401.273	210
401.736	215
402.198	229
402.661	231
403.124	241
403.587	243
404.049	248
404.512	253
404.975	263
405.438	257
405.901	258
406.364	256
406.827	269
407.29	257
407.754	265
408.217	255
408.68	264
409.143	268
409.607	267
410.07	266
410.533	273
410.997	278
411.46	281
411.924	279
412.387	280
412.851	295
413.314	310
413.778	304
414.242	309
414.705	327
415.169	314
415.633	324
416.097	327
416.561	330
417.024	334
417.488	321
417.952	334
418.416	325
418.88	338
419.344	326
419.809	329
420.273	342
420.737	326
421.201	335
421.665	341
422.13	342
422.594	350
423.059	358
423.523	358
423.987	365
424.452	383
424.916	386
425.381	399
425.846	404
426.31	402
426.775	409
427.24	421
427.704	415
428.169	424
428.634	422
429.099	412
429.564	415
430.029	418
430.494	419
430.959	423
431.424	414
431.889	427
432.354	431
432.819	430
433.284	442
433.75	447
434.215	463
434.68	469
435.146	470
435.611	496
436.077	513
436.542	516
437.008	531
437.473	539
437.939	544
438.404	557
438.87	560
439.336	547
439.801	551
440.267	565
440.733	567
441.199	572
441.665	570
442.131	582
442.596	569
443.062	591
443.529	604
443.995	611
444.461	625
444.927	645
445.393	646
445.859	677
446.325	683
446.792	728
447.258	725
447.724	744
448.191	775
448.657	782
449.124	811
449.59	800
450.057	834
450.523	855
450.99	869
451.457	866
451.923	873
452.39	860
452.857	884
453.324	879
453.791	888
454.257	892
454.724	905
455.191	896
455.658	890
456.125	927
456.592	903
457.059	927
457.527	938
457.994	960
458.461	957
458.928	972
459.396	978
459.863	1011
460.33	1000
460.798	1010
461.265	1025
461.732	1010
462.2	1037
462.668	1033
463.135	1044
463.603	1025
464.07	1059
464.538	1021
465.006	1055
465.474	1019
465.941	1032
466.409	1039
466.877	1014
467.345	1039
467.813	1026
468.281	1031
468.749	1048
469.217	1040
469.685	1049
470.153	1065
470.621	1056
471.09	1060
471.558	1105
472.026	1093
472.494	1129
472.963	1143
473.431	1180
473.9	1194
474.368	1231
474.837	1245
475.305	1268
475.774	1293
476.242	1326
476.711	1339
477.18	1361
477.648	1352
478.117	1373
478.586	1350
479.055	1354
479.524	1357
479.993	1360
480.462	1355
480.93	1360
481.399	1359
481.869	1367
482.338	1343
482.807	1365
483.276	1358
483.745	1352
484.214	1387
484.684	1401
485.153	1388
485.622	1396
486.092	1434
486.561	1398
487.031	1442
487.5	1477
487.97	1474
488.439	1503
488.909	1543
489.378	1602
489.848	1598
490.318	1638
490.787	1703
491.257	1732
491.727	1747
492.197	1788
492.667	1780
493.137	1811
493.607	1820
494.077	1835
494.547	1811
495.017	1807
495.487	1848
495.957	1878
496.427	1829
496.897	1838
497.368	1854
497.838	1836
498.308	1855
498.779	1861
499.249	1874
499.719	1886
500.19	1895
500.66	1912
501.131	1919
501.602	1957
502.072	1950
502.543	1967
503.014	2026
503.484	2015
503.955	2067
504.426	2141
504.897	2135
505.368	2180
505.838	2209
506.309	2267
506.78	2339
507.251	2368
507.722	2410
508.194	2465
508.665	2494
509.136	2496
509.607	2575
510.078	2618
510.549	2631
511.021	2707
511.492	2704
511.964	2732
512.435	2759
512.906	2747
513.378	2772
513.849	2820
514.321	2810
514.793	2847
515.264	2863
515.736	2894
516.208	2930
516.679	2952
517.151	2982
517.623	3008
518.095	3053
518.567	3070
519.038	3117
519.51	3114
519.982	3167
520.454	3211
520.927	3218
521.399	3261
521.871	3280
522.343	3295
522.815	3346
523.287	3345
523.76	3363
524.232	3410
524.704	3428
525.177	3379
525.649	3408
526.122	3447
526.594	3367
527.067	3458
527.539	3481
528.012	3452
528.484	3441
528.957	3448
529.43	3443
529.903	3428
530.375	3544
530.848	3451
531.321	3497
531.794	3487
532.267	3545
532.74	3488
533.213	3487
533.686	3524
534.159	3501
534.632	3575
535.105	3568
535.578	3616
536.051	3638
536.525	3661
536.998	3660
537.471	3724
537.945	3669
538.418	3718
538.891	3738
539.365	3788
539.838	3804
540.312	3811
540.786	3830
541.259	3818
541.733	3870
542.206	3877
542.68	3810
543.154	3797
543.628	3804
544.101	3910
544.575	3887
545.049	3780
545.523	3857
545.997	3827
546.471	3851
546.945	3812
547.419	3872
547.893	3714
548.367	3781
548.842	3739
549.316	3758
549.79	3782
550.264	3755
550.739	3790
551.213	3782
551.687	3781
552.162	3807
552.636	3766
553.111	3740
553.585	3841
554.06	3763
554.534	3845
555.009	3817
555.484	3873
555.958	3917
556.433	3935
556.908	3988
557.383	3929
557.858	4037
558.333	4068
558.807	4021
559.282	4047
559.757	4158
560.232	4182
560.708	4094
561.183	4074
561.658	4127
562.133	4140
562.608	4101
563.083	4200
563.559	4094
564.034	4132
564.509	4139
564.985	4154
565.46	4090
565.936	4152
566.411	4164
566.887	4094
567.362	4113
567.838	4087
568.313	4139
568.789	4108
569.265	4099
569.74	4103
570.216	4062
570.692	4125
571.168	4124
571.644	4116
572.12	4102
572.596	4143
573.071	4131
573.547	4219
574.024	4249
574.5	4262
574.976	4281
575.452	4343
575.928	4355
576.404	4366
576.881	4505
577.357	4439
577.833	4462
578.31	4548
578.786	4620
579.262	4723
579.739	4662
580.215	4760
580.692	4763
581.169	4733
581.645	4745
582.122	4881
582.598	4840
583.075	4845
583.552	4912
584.029	4927
584.506	4896
584.982	4845
585.459	4957
585.936	4891
586.413	4942
586.89	4997
587.367	4921
587.844	4997
588.321	4985
588.799	4993
589.276	4918
589.753	4992
590.23	5021
590.707	5006
591.185	4984
591.662	4951
592.139	5020
592.617	5102
593.094	5102
593.572	5122
594.049	5138
594.527	5177
595.004	5183
595.482	5333
595.96	5282
596.437	5258
596.915	5388
597.393	5340
597.871	5482
598.349	5394
598.826	5492
599.304	5513
599.782	5616
600.26	5545
600.738	5636
601.216	5604
601.694	5661
602.173	5715
602.651	5762
603.129	5684
603.607	5714
604.085	5760
604.564	5773
605.042	5764
605.52	5699
605.999	5834
606.477	5731
606.956	5737
607.434	5760.5
607.913	5784
608.391	5773
608.87	5780
609.348	5717
609.827	5742
610.306	5746
610.785	5723
611.263	5755
611.742	5747
612.221	5666
612.7	5726
613.179	5753
613.658	5678
614.137	5790
614.616	5819
615.095	5691
615.574	5737
616.053	5751
616.532	5725
617.011	5779
617.491	5788
617.97	5743
618.449	5797
618.928	5880
619.408	5852
619.887	5873
620.367	5839
620.846	5876
621.326	5873
621.805	6003
622.285	5986
622.764	6034
623.244	6039
623.724	6076
624.203	6113
624.683	5992
625.163	6109
625.643	6083
626.123	6043
626.602	6193
627.082	6058
627.562	6039
628.042	6164
628.522	6096
629.002	6107
629.482	6154
629.963	6153
630.443	6067
630.923	6085
631.403	6136
631.883	6101
632.364	6129
632.844	6071
633.324	6070
633.805	6076
634.285	6005
634.766	5983
635.246	6002
635.727	6011
636.207	6011
636.688	6015
637.168	6027
637.649	5962
638.13	5911
638.611	5925
639.091	5929
639.572	5921
640.053	5895
640.534	5940
641.015	5899
641.496	5771
641.977	5880
642.458	5829
642.939	5828
643.42	5835
643.901	5834
644.382	5862
644.863	5879
645.345	5877
645.826	5882
646.307	5870
646.788	5939
647.27	5834
647.751	5884
648.233	5967
648.714	5837
649.196	5972
649.677	5917
650.159	5928
650.64	5873
651.122	5991
651.603	5913
652.085	5963
652.567	5957
653.049	5881
653.53	5907
654.012	5988
654.494	5871
654.976	5907
655.458	5875
655.94	5848
656.422	5943
656.904	5881
657.386	5812
657.868	5786
658.35	5755
658.833	5813
659.315	5813
659.797	5753
660.279	5757
660.762	5807
661.244	5766
661.726	5681
662.209	5693
662.691	5701
663.174	5567
663.656	5582
664.139	5580
664.621	5537
665.104	5501
665.587	5549
666.069	5560
666.552	5547
667.035	5494
667.517	5515
668	5550
668.483	5535
668.966	5475
669.449	5431
669.932	5451
670.415	5532
670.898	5483
671.381	5497
671.864	5501
672.347	5460
672.83	5472
673.313	5500
673.797	5488
674.28	5593
674.763	5572
675.247	5550
675.73	5546
676.213	5601
676.697	5662
677.18	5646
677.664	5650
678.147	5621
678.631	5619
679.114	5641
679.598	5626
680.082	5662
680.565	5660
681.049	5631
681.533	5616
682.017	5696
682.5	5703
682.984	5736
683.468	5735
683.952	5620
684.436	5693
684.92	5622
685.404	5647
685.888	5680
686.372	5660
686.856	5647
687.341	5687
687.825	5628
688.309	5674
688.793	5676
689.278	5601
689.762	5662
690.246	5614
690.731	5612
691.215	5619
691.7	5483
692.184	5562
692.669	5559
693.153	5577
693.638	5468
694.122	5460
694.607	5509
695.092	5453
695.577	5514
696.061	5431
696.546	5424
697.031	5369
697.516	5422
698.001	5427
698.486	5392
698.971	5446
699.456	5324
699.941	5328
700.426	5321
700.911	5357
701.396	5315
701.881	5348
702.366	5335
702.852	5332
703.337	5360
703.822	5355
704.308	5330
704.793	5347
705.278	5363
705.764	5356
706.249	5334
706.735	5335
707.22	5373
707.706	5276
708.191	5374
708.677	5363
709.163	5329
709.648	5345
710.134	5383
710.62	5309
711.106	5277
711.592	5342
712.077	5345
712.563	5228
713.049	5222
713.535	5311
714.021	5271
714.507	5250
714.993	5212
715.479	5292
715.966	5245
716.452	5257
716.938	5274
717.424	5105
717.91	5215
718.397	5164
718.883	5140
719.369	5137
719.856	5095
720.342	5148
720.829	5075
721.315	5098
721.802	5070
722.288	5140
722.775	4957
723.262	4832
723.748	5006
724.235	4958
724.722	5018
725.208	4937
725.695	4964
726.182	4949
726.669	4876
727.156	4882
727.643	4827
728.13	4827
728.617	4798
729.104	4788
729.591	4754
730.078	4786
730.565	4799
731.052	4711
731.539	4733
732.027	4697
732.514	4644
733.001	4703
733.488	4673
733.976	4657
734.463	4623
734.951	4598
735.438	4651
735.926	4621
736.413	4646
736.901	4590
737.388	4651
737.876	4618
738.364	4597
738.851	4614
739.339	4617
739.827	4673
740.314	4563
740.802	4598
741.29	4612
741.778	4552
742.266	4553
742.754	4549
743.242	4588
743.73	4497
744.218	4498
744.706	4442
745.194	4467
745.682	4437
746.17	4456
746.659	4481
747.147	4389
747.635	4408
748.123	4410
748.612	4358
749.1	4305
749.589	4318
750.077	4294
750.566	4277
751.054	4301
751.543	4330
752.031	4244
752.52	4257
753.008	4174
753.497	4169
753.986	4193
754.474	4175
754.963	4213
755.452	4131
755.941	4106
756.43	4083
756.919	4060
757.408	4032
757.896	4060
758.385	4086
758.875	4045
759.364	4021
759.853	4000
760.342	3929
760.831	4015
761.32	3981
761.809	3907
762.299	3944
762.788	3937
763.277	3923
763.767	3849
764.256	3834
764.745	3778
765.235	3846
765.724	3754
766.214	3808
766.703	3787
767.193	3734
767.683	3738
768.172	3671
768.662	3704
769.152	3717
769.641	3733
770.131	3654
770.621	3690
771.111	3645
771.601	3638
772.09	3606
772.58	3566
773.07	3599
773.56	3637
774.05	3564
774.54	3557
775.031	3522
775.521	3492
776.011	3477
776.501	3494
776.991	3423
777.482	3477
777.972	3393
778.462	3407
778.953	3442
779.443	3394
779.933	3376
780.424	3315
780.914	3342
781.405	3353
781.895	3336
782.386	3338
782.877	3337
783.367	3285
783.858	3262
784.349	3271
784.839	3243
785.33	3253
785.821	3228
786.312	3192
786.803	3192
787.293	3188
787.784	3133
788.275	3090
788.766	3079
789.257	3142
789.748	3068
790.24	3055
790.731	3080
791.222	3030
791.713	3026
792.204	3037
792.696	2958
793.187	3002
793.678	2978
794.169	2905
794.661	2964
795.152	2922
795.644	2905
796.135	2891
796.627	2911
797.118	2866
797.61	2847
798.101	2834
798.593	2878
799.085	2826
799.576	2826
800.068	2784
800.56	2782
801.052	2721
801.544	2706
802.035	2734
802.527	2709
803.019	2692
803.511	2664
804.003	2637
804.495	2648
804.987	2635
805.479	2574
805.971	2596
806.464	2623
806.956	2557
807.448	2542
807.94	2535
808.433	2502
808.925	2484
809.417	2470
809.91	2474
810.402	2410
810.894	2444
811.387	2461
811.879	2421
812.372	2417
812.865	2372
813.357	2361
813.85	2370
814.342	2362
814.835	2362
815.328	2388
815.821	2363
816.313	2374
816.806	2377
817.299	2347
817.792	2366
818.285	2340
818.778	2378
819.271	2394
819.764	2365
820.257	2375
820.75	2373
821.243	2374
821.736	2331
822.229	2349
822.722	2335
823.216	2386
