Data from lamp1bck_noballon_Subt4__7__379.txt Node

Date: Fri Apr 04 11:11:11 CEST 2025
User: fys-lab-0081
Spectrometer: S04999
Trigger mode: 0
Resolution mode: 1024 pixels
Integration Time (sec): 1.000000E-1
Scans to average: 1
Nonlinearity correction enabled: false
Boxcar width: 0
Baseline correction enabled: true
XAxis mode: Wavelengths
Number of Pixels in Spectrum: 1024
>>>>>Begin Spectral Data<<<<<
336.42	4
336.877	2
337.334	3
337.792	9
338.249	2
338.706	9
339.164	8
339.621	5
340.079	9
340.536	7
340.994	-1
341.452	12
341.909	9
342.367	7
342.825	8
343.283	8
343.741	11
344.198	3
344.656	10
345.114	11
345.572	5
346.03	7
346.488	5
346.947	10
347.405	16
347.863	13
348.321	10
348.779	14
349.238	18
349.696	15
350.154	10
350.613	17
351.071	14
351.53	16
351.988	14
352.447	15
352.905	16
353.364	18
353.823	20
354.282	18
354.74	18
355.199	23
355.658	19
356.117	21
356.576	21
357.035	21
357.494	21
357.953	25
358.412	25
358.871	22
359.33	28
359.789	21
360.249	25
360.708	28
361.167	25
361.626	31
362.086	33
362.545	32
363.005	30
363.464	37
363.924	35
364.383	36
364.843	38
365.303	32
365.762	38
366.222	41
366.682	42
367.142	44
367.601	42
368.061	44
368.521	46
368.981	43
369.441	44
369.901	40
370.361	46
370.821	53
371.282	44
371.742	45
372.202	49
372.662	54
373.123	53
373.583	53
374.043	58
374.504	53
374.964	56
375.425	55
375.885	58
376.346	61
376.806	61
377.267	63
377.728	61
378.188	64
378.649	69
379.11	67
379.571	69
380.032	69
380.493	65
380.954	76
381.414	74
381.876	80
382.337	79
382.798	82
383.259	88
383.72	86
384.181	94
384.642	90
385.104	95
385.565	97
386.026	104
386.488	109
386.949	106
387.411	114
387.872	113
388.334	113
388.795	116
389.257	120
389.719	122
390.181	125
390.642	130
391.104	131
391.566	130
392.028	138
392.49	141
392.952	139
393.414	144
393.876	148
394.338	153
394.8	150
395.262	157
395.724	167
396.186	166
396.648	169
397.111	159
397.573	167
398.035	167
398.498	180
398.96	180
399.423	178
399.885	181
400.348	182
400.81	190
401.273	191
401.736	189
402.198	199
402.661	207
403.124	211
403.587	212
404.049	218
404.512	224
404.975	233
405.438	228
405.901	230
406.364	227
406.827	240
407.29	229
407.754	231
408.217	225
408.68	233
409.143	233
409.607	239
410.07	234
410.533	239
410.997	245
411.46	252
411.924	243
412.387	249
412.851	257
413.314	270
413.778	265
414.242	271
414.705	280
415.169	274
415.633	281
416.097	284
416.561	281
417.024	290
417.488	282
417.952	289
418.416	281
418.88	292
419.344	285
419.809	285
420.273	296
420.737	287
421.201	294
421.665	302
422.13	295
422.594	306
423.059	317
423.523	316
423.987	314
424.452	332
424.916	336
425.381	345
425.846	355
426.31	346
426.775	351
427.24	362
427.704	360
428.169	363
428.634	365
429.099	355
429.564	357
430.029	359
430.494	358
430.959	363
431.424	356
431.889	372
432.354	369
432.819	369
433.284	385
433.75	386
434.215	394
434.68	393
435.146	407
435.611	426
436.077	436
436.542	443
437.008	455
437.473	457
437.939	459
438.404	475
438.87	480
439.336	466
439.801	470
440.267	478
440.733	485
441.199	490
441.665	484
442.131	499
442.596	484
443.062	503
443.529	514
443.995	524
444.461	534
444.927	550
445.393	557
445.859	583
446.325	588
446.792	617
447.258	618
447.724	630
448.191	658
448.657	661
449.124	687
449.59	682
450.057	717
450.523	721
450.99	739
451.457	734
451.923	741
452.39	727
452.857	754
453.324	744
453.791	752
454.257	760
454.724	778
455.191	765
455.658	761
456.125	796
456.592	771
457.059	786
457.527	790
457.994	812
458.461	812
458.928	835
459.396	835
459.863	863
460.33	862
460.798	854
461.265	864
461.732	860
462.2	881
462.668	874
463.135	892
463.603	870
464.07	894
464.538	869
465.006	890
465.474	872
465.941	880
466.409	883
466.877	861
467.345	892
467.813	874
468.281	877
468.749	890
469.217	889
469.685	893
470.153	896
470.621	898
471.09	908
471.558	942
472.026	935
472.494	962
472.963	975
473.431	997
473.9	1011
474.368	1041
474.837	1065
475.305	1084
475.774	1097
476.242	1126
476.711	1137
477.18	1157
477.648	1130
478.117	1157
478.586	1140
479.055	1156
479.524	1173
479.993	1151
480.462	1159
480.93	1154
481.399	1156
481.869	1167
482.338	1145
482.807	1159
483.276	1153
483.745	1145
484.214	1181
484.684	1191
485.153	1187
485.622	1191
486.092	1225
486.561	1208
487.031	1252
487.5	1263
487.97	1259
488.439	1285
488.909	1307
489.378	1364
489.848	1359
490.318	1393
490.787	1454
491.257	1474
491.727	1500
492.197	1514
492.667	1510
493.137	1536
493.607	1529
494.077	1554
494.547	1557
495.017	1535
495.487	1555
495.957	1597
496.427	1556
496.897	1564
497.368	1572
497.838	1558
498.308	1579
498.779	1590
499.249	1582
499.719	1602
500.19	1607
500.66	1620
501.131	1642
501.602	1673
502.072	1671
502.543	1663
503.014	1727
503.484	1707
503.955	1754
504.426	1797
504.897	1781
505.368	1834
505.838	1881
506.309	1928
506.78	1985
507.251	2004
507.722	2055
508.194	2103
508.665	2114
509.136	2095
509.607	2165
510.078	2206
510.549	2252
511.021	2299
511.492	2288
511.964	2319
512.435	2325
512.906	2306
513.378	2337
513.849	2359
514.321	2363
514.793	2390
515.264	2426
515.736	2459
516.208	2510
516.679	2508
517.151	2535
517.623	2547
518.095	2576
518.567	2591
519.038	2659
519.51	2642
519.982	2688
520.454	2708
520.927	2711
521.399	2746
521.871	2788
522.343	2794
522.815	2823
523.287	2798
523.76	2833
524.232	2891
524.704	2929
525.177	2880
525.649	2876
526.122	2897
526.594	2847
527.067	2923
527.539	2937
528.012	2894
528.484	2904
528.957	2910
529.43	2895
529.903	2901
530.375	2988
530.848	2919
531.321	2976
531.794	2966
532.267	3013
532.74	2965
533.213	2938
533.686	2976
534.159	2957
534.632	3037
535.105	3028
535.578	3065
536.051	3093
536.525	3088
536.998	3070
537.471	3119
537.945	3089
538.418	3146
538.891	3165
539.365	3198
539.838	3221
540.312	3211
540.786	3251
541.259	3246
541.733	3290
542.206	3291
542.68	3249
543.154	3227
543.628	3217
544.101	3302
544.575	3271
545.049	3205
545.523	3267
545.997	3238
546.471	3256
546.945	3238
547.419	3295
547.893	3137
548.367	3179
548.842	3159
549.316	3172
549.79	3199
550.264	3194
550.739	3203
551.213	3210
551.687	3224
552.162	3223
552.636	3175
553.111	3183
553.585	3248
554.06	3204
554.534	3282
555.009	3258
555.484	3277
555.958	3322
556.433	3340
556.908	3367
557.383	3335
557.858	3420
558.333	3420
558.807	3368
559.282	3379
559.757	3470
560.232	3523
560.708	3453
561.183	3443
561.658	3470
562.133	3481
562.608	3463
563.083	3579
563.559	3474
564.034	3475
564.509	3468
564.985	3462
565.46	3429
565.936	3482
566.411	3496
566.887	3469
567.362	3502
567.838	3474
568.313	3505
568.789	3476
569.265	3490
569.74	3506
570.216	3459
570.692	3537
571.168	3532
571.644	3515
572.12	3491
572.596	3533
573.071	3522
573.547	3608
574.024	3628
574.5	3630
574.976	3632
575.452	3680
575.928	3680
576.404	3690
576.881	3820
577.357	3761
577.833	3781
578.31	3886
578.786	3928
579.262	3980
579.739	3934
580.215	4062
580.692	4065
581.169	4075
581.645	4079
582.122	4163
582.598	4140
583.075	4151
583.552	4193
584.029	4194
584.506	4183
584.982	4142
585.459	4211
585.936	4155
586.413	4216
586.89	4278
587.367	4215
587.844	4295
588.321	4246
588.799	4232
589.276	4179
589.753	4256
590.23	4275
590.707	4249
591.185	4252
591.662	4243
592.139	4262
592.617	4309
593.094	4322
593.572	4385
594.049	4404
594.527	4451
595.004	4450
595.482	4565
595.96	4511
596.437	4495
596.915	4606
597.393	4544
597.871	4658
598.349	4635
598.826	4738
599.304	4724
599.782	4809
600.26	4760
600.738	4823
601.216	4775
601.694	4813
602.173	4866
602.651	4885
603.129	4784
603.607	4811
604.085	4878
604.564	4901
605.042	4902
605.52	4859
605.999	4967
606.477	4864
606.956	4894
607.434	4875
607.913	4856
608.391	4861
608.87	4908
609.348	4886
609.827	4913
610.306	4923
610.785	4911
611.263	4925
611.742	4865
612.221	4739
612.7	4791
613.179	4813
613.658	4754
614.137	4899
614.616	4932
615.095	4822
615.574	4878
616.053	4952
616.532	4903
617.011	4878
617.491	4865
617.97	4836
618.449	4908
618.928	4959
619.408	4947
619.887	5017
620.367	5014
620.846	5035
621.326	5020
621.805	5149
622.285	5153
622.764	5185
623.244	5181
623.724	5219
624.203	5264
624.683	5128
625.163	5215
625.643	5227
626.123	5194
626.602	5297
627.082	5179
627.562	5175
628.042	5245
628.522	5192
629.002	5206
629.482	5251
629.963	5237
630.443	5131
630.923	5151
631.403	5187
631.883	5164
632.364	5201
632.844	5189
633.324	5162
633.805	5162
634.285	5117
634.766	5100
635.246	5093
635.727	5062
636.207	5082
636.688	5112
637.168	5135
637.649	5106
638.13	5090
638.611	5095
639.091	5078
639.572	5111
640.053	5110
640.534	5174
641.015	5125
641.496	5016
641.977	5100
642.458	5004
642.939	4975
643.42	4985
643.901	5006
644.382	5028
644.863	5025
645.345	5040
645.826	4980
646.307	4946
646.788	5073
647.27	5042
647.751	5095
648.233	5157
648.714	5052
649.196	5198
649.677	5159
650.159	5166
650.64	5099
651.122	5154
651.603	5060
652.085	5085
652.567	5078
653.049	5029
653.53	5036
654.012	5076
654.494	4910
654.976	4927
655.458	4905
655.94	4937
656.422	5024
656.904	4955
657.386	4896
657.868	4936
658.35	4971
658.833	5061
659.315	5034
659.797	4956
660.279	4961
660.762	4992
661.244	4954
661.726	4915
662.209	4900
662.691	4895
663.174	4800
663.656	4835
664.139	4861
664.621	4839
665.104	4798
665.587	4821
666.069	4801
666.552	4767
667.035	4703
667.517	4727
668	4762
668.483	4732
668.966	4671
669.449	4643
669.932	4701
670.415	4801
670.898	4757
671.381	4759
671.864	4764
672.347	4709
672.83	4705
673.313	4735
673.797	4712
674.28	4746
674.763	4712
675.247	4701
675.73	4724
676.213	4778
676.697	4809
677.18	4789
677.664	4811
678.147	4801
678.631	4813
679.114	4865
679.598	4922
680.082	4999
680.565	5015
681.049	4997
681.533	4981
682.017	5003
682.5	4982
682.984	4980
683.468	4946
683.952	4862
684.436	4953
684.92	4886
685.404	4891
685.888	4935
686.372	4881
686.856	4845
687.341	4911
687.825	4871
688.309	4894
688.793	4907
689.278	4891
689.762	4964
690.246	4931
690.731	4922
691.215	4903
691.7	4748
692.184	4771
692.669	4772
693.153	4803
693.638	4719
694.122	4705
694.607	4713
695.092	4610
695.577	4664
696.061	4616
696.546	4650
697.031	4656
697.516	4693
698.001	4683
698.486	4626
698.971	4690
699.456	4634
699.941	4657
700.426	4658
700.911	4709
701.396	4670
701.881	4665
702.366	4599
702.852	4580
703.337	4592
703.822	4571
704.308	4521
704.793	4537
705.278	4494
705.764	4506
706.249	4489
706.735	4497
707.22	4528
707.706	4440
708.191	4548
708.677	4565
709.163	4526
709.648	4536
710.134	4565
710.62	4513
711.106	4509
711.592	4542
712.077	4512
712.563	4387
713.049	4422
713.535	4542
714.021	4530
714.507	4478
714.993	4416
715.479	4500
715.966	4446
716.452	4429
716.938	4421
717.424	4306
717.91	4385
718.397	4328
718.883	4303
719.369	4334
719.856	4346
720.342	4406
720.829	4317
721.315	4286
721.802	4248
722.288	4283
722.775	4138
723.262	4023
723.748	4214
724.235	4172
724.722	4218
725.208	4131
725.695	4144
726.182	4135
726.669	4074
727.156	4103
727.643	4059
728.13	4085
728.617	4039
729.104	4016
729.591	3978
730.078	4005
730.565	4011
731.052	3991
731.539	4024
732.027	3979
732.514	3906
733.001	3936
733.488	3936
733.976	3950
734.463	3942
734.951	3935
735.438	3978
735.926	3903
736.413	3895
736.901	3815
737.388	3857
737.876	3812
738.364	3763
738.851	3752
739.339	3753
739.827	3769
740.314	3665
740.802	3705
741.29	3758
741.778	3706
742.266	3712
742.754	3721
743.242	3779
743.73	3728
744.218	3718
744.706	3646
745.194	3668
745.682	3639
746.17	3702
746.659	3750
747.147	3665
747.635	3682
748.123	3685
748.612	3651
749.1	3596
749.589	3597
750.077	3545
750.566	3501
751.054	3520
751.543	3520
752.031	3459
752.52	3472
753.008	3390
753.497	3355
753.986	3346
754.474	3325
754.963	3362
755.452	3318
755.941	3295
756.43	3275
756.919	3214
757.408	3167
757.896	3184
758.385	3216
758.875	3195
759.364	3186
759.853	3177
760.342	3144
760.831	3222
761.32	3213
761.809	3178
762.299	3191
762.788	3186
763.277	3162
763.767	3093
764.256	3050
764.745	2992
765.235	3041
765.724	2966
766.214	3020
766.703	3002
767.193	2945
767.683	2947
768.172	2888
768.662	2920
769.152	2924
769.641	2919
770.131	2832
770.621	2840
771.111	2789
771.601	2798
772.09	2790
772.58	2761
773.07	2780
773.56	2814
774.05	2742
774.54	2721
775.031	2688
775.521	2656
776.011	2650
776.501	2678
776.991	2655
777.482	2703
777.972	2603
778.462	2601
778.953	2631
779.443	2629
779.933	2646
780.424	2596
780.914	2592
781.405	2570
781.895	2530
782.386	2523
782.877	2505
783.367	2459
783.858	2470
784.349	2476
784.839	2451
785.33	2475
785.821	2447
786.312	2419
786.803	2415
787.293	2395
787.784	2353
788.275	2312
788.766	2292
789.257	2329
789.748	2265
790.24	2243
790.731	2259
791.222	2219
791.713	2209
792.204	2244
792.696	2219
793.187	2275
793.678	2262
794.169	2206
794.661	2221
795.152	2182
795.644	2152
796.135	2130
796.627	2147
797.118	2108
797.61	2110
798.101	2087
798.593	2098
799.085	2065
799.576	2059
800.068	2031
800.56	2039
801.052	1990
801.544	1988
802.035	1997
802.527	1969
803.019	1955
803.511	1954
804.003	1937
804.495	1928
804.987	1886
805.479	1849
805.971	1869
806.464	1875
806.956	1826
807.448	1827
807.94	1833
808.433	1826
808.925	1828
809.417	1836
809.91	1829
810.402	1784
810.894	1804
811.387	1803
811.879	1761
812.372	1753
812.865	1736
813.357	1745
813.85	1748
814.342	1716
814.835	1694
815.328	1677
815.821	1649
816.313	1642
816.806	1642
817.299	1642
817.792	1664
818.285	1664
818.778	1686
819.271	1679
819.764	1639
820.257	1637
820.75	1621
821.243	1609
821.736	1586
822.229	1606
822.722	1607
823.216	1649
