Data from lamp1bck_noballon_Subt4__27__399.txt Node

Date: Fri Apr 04 11:11:14 CEST 2025
User: fys-lab-0081
Spectrometer: S04999
Trigger mode: 0
Resolution mode: 1024 pixels
Integration Time (sec): 1.000000E-1
Scans to average: 1
Nonlinearity correction enabled: false
Boxcar width: 0
Baseline correction enabled: true
XAxis mode: Wavelengths
Number of Pixels in Spectrum: 1024
>>>>>Begin Spectral Data<<<<<
336.42	5
336.877	4
337.334	7
337.792	12
338.249	2
338.706	7
339.164	6
339.621	4
340.079	10
340.536	4
340.994	7
341.452	10
341.909	6
342.367	6
342.825	9
343.283	8
343.741	12
344.198	3
344.656	7
345.114	11
345.572	4
346.03	7
346.488	10
346.947	10
347.405	12
347.863	14
348.321	9
348.779	14
349.238	11
349.696	14
350.154	12
350.613	17
351.071	15
351.53	15
351.988	11
352.447	18
352.905	15
353.364	16
353.823	22
354.282	22
354.74	18
355.199	20
355.658	20
356.117	25
356.576	14
357.035	20
357.494	20
357.953	23
358.412	21
358.871	30
359.33	26
359.789	27
360.249	28
360.708	35
361.167	29
361.626	32
362.086	27
362.545	29
363.005	28
363.464	39
363.924	39
364.383	35
364.843	34
365.303	30
365.762	39
366.222	44
366.682	38
367.142	39
367.601	41
368.061	45
368.521	46
368.981	41
369.441	47
369.901	44
370.361	48
370.821	55
371.282	46
371.742	45
372.202	47
372.662	52
373.123	49
373.583	55
374.043	56
374.504	56
374.964	55
375.425	58
375.885	55
376.346	62
376.806	63
377.267	64
377.728	60
378.188	65
378.649	70
379.11	65
379.571	64
380.032	70
380.493	69
380.954	76
381.414	77
381.876	78
382.337	80
382.798	78
383.259	88
383.72	82
384.181	94
384.642	97
385.104	96
385.565	97
386.026	103
386.488	110
386.949	105
387.411	113
387.872	112
388.334	114
388.795	115
389.257	118
389.719	121
390.181	126
390.642	133
391.104	132
391.566	131
392.028	137
392.49	142
392.952	139
393.414	142
393.876	147
394.338	148
394.8	152
395.262	158
395.724	159
396.186	159
396.648	168
397.111	164
397.573	168
398.035	166
398.498	175
398.96	179
399.423	174
399.885	177
400.348	179
400.81	188
401.273	188
401.736	188
402.198	195
402.661	198
403.124	209
403.587	217
404.049	218
404.512	219
404.975	233
405.438	227
405.901	227
406.364	230
406.827	235
407.29	232
407.754	234
408.217	223
408.68	233
409.143	236
409.607	232
410.07	234
410.533	238
410.997	246
411.46	248
411.924	244
412.387	243
412.851	255
413.314	266
413.778	263
414.242	272
414.705	283
415.169	272
415.633	278
416.097	284
416.561	283
417.024	289
417.488	278
417.952	291
418.416	285
418.88	292
419.344	289
419.809	285
420.273	294
420.737	288
421.201	295
421.665	293
422.13	293
422.594	304
423.059	308
423.523	315
423.987	318
424.452	327
424.916	335
425.381	344
425.846	350
426.31	347
426.775	356
427.24	362
427.704	355
428.169	366
428.634	359
429.099	353
429.564	353
430.029	362
430.494	364
430.959	360
431.424	354
431.889	369
432.354	371
432.819	366
433.284	382
433.75	381
434.215	394
434.68	399
435.146	404
435.611	424
436.077	436
436.542	442
437.008	453
437.473	456
437.939	456
438.404	469
438.87	476
439.336	465
439.801	466
440.267	476
440.733	488
441.199	488
441.665	484
442.131	500
442.596	484
443.062	502
443.529	511
443.995	519
444.461	532
444.927	554
445.393	557
445.859	580
446.325	581
446.792	621
447.258	617
447.724	631
448.191	651
448.657	665
449.124	680
449.59	678
450.057	711
450.523	717
450.99	730
451.457	726
451.923	739
452.39	726
452.857	740
453.324	748
453.791	749
454.257	754
454.724	772
455.191	761
455.658	762
456.125	790
456.592	763
457.059	782
457.527	790
457.994	809
458.461	818
458.928	830
459.396	832
459.863	862
460.33	861
460.798	854
461.265	860
461.732	855
462.2	878
462.668	874
463.135	893
463.603	864
464.07	890
464.538	865
465.006	891
465.474	862
465.941	873
466.409	881
466.877	856
467.345	889
467.813	871
468.281	877
468.749	885
469.217	883
469.685	890
470.153	894
470.621	898
471.09	899
471.558	938
472.026	932
472.494	959
472.963	970
473.431	993
473.9	1011
474.368	1035
474.837	1063
475.305	1083
475.774	1089
476.242	1118
476.711	1127
477.18	1147
477.648	1132
478.117	1161
478.586	1130
479.055	1153
479.524	1164
479.993	1148
480.462	1154
480.93	1153
481.399	1152
481.869	1160
482.338	1137
482.807	1150
483.276	1149
483.745	1143
484.214	1179
484.684	1193
485.153	1179
485.622	1192
486.092	1220
486.561	1204
487.031	1246
487.5	1258
487.97	1256
488.439	1277
488.909	1308
489.378	1356
489.848	1357
490.318	1385
490.787	1445
491.257	1472
491.727	1493
492.197	1508
492.667	1498
493.137	1526
493.607	1531
494.077	1552
494.547	1549
495.017	1529
495.487	1548
495.957	1592
496.427	1549
496.897	1555
497.368	1563
497.838	1552
498.308	1571
498.779	1582
499.249	1581
499.719	1596
500.19	1608
500.66	1617
501.131	1635
501.602	1665
502.072	1659
502.543	1650
503.014	1717
503.484	1705
503.955	1746
504.426	1791
504.897	1773
505.368	1833
505.838	1874
506.309	1917
506.78	1971
507.251	1997
507.722	2047
508.194	2091
508.665	2100
509.136	2085
509.607	2154
510.078	2196
510.549	2236
511.021	2290
511.492	2282
511.964	2310
512.435	2313
512.906	2298
513.378	2326
513.849	2344
514.321	2359
514.793	2384
515.264	2415
515.736	2447
516.208	2496
516.679	2500
517.151	2526
517.623	2540
518.095	2557
518.567	2581
519.038	2644
519.51	2636
519.982	2680
520.454	2694
520.927	2698
521.399	2732
521.871	2781
522.343	2783
522.815	2815
523.287	2796
523.76	2826
524.232	2885
524.704	2918
525.177	2870
525.649	2859
526.122	2885
526.594	2832
527.067	2906
527.539	2927
528.012	2898
528.484	2894
528.957	2899
529.43	2893
529.903	2897
530.375	2970
530.848	2909
531.321	2958
531.794	2945
532.267	3014
532.74	2958
533.213	2924
533.686	2961
534.159	2944
534.632	3028
535.105	3014
535.578	3046
536.051	3078
536.525	3087
536.998	3054
537.471	3104
537.945	3077
538.418	3137
538.891	3151
539.365	3187
539.838	3206
540.312	3199
540.786	3239
541.259	3244
541.733	3276
542.206	3279
542.68	3240
543.154	3217
543.628	3216
544.101	3293
544.575	3264
545.049	3187
545.523	3254
545.997	3240
546.471	3256
546.945	3230
547.419	3280
547.893	3128
548.367	3171
548.842	3158
549.316	3163
549.79	3189
550.264	3179
550.739	3196
551.213	3196
551.687	3215
552.162	3206
552.636	3166
553.111	3169
553.585	3230
554.06	3180
554.534	3273
555.009	3241
555.484	3275
555.958	3304
556.433	3325
556.908	3362
557.383	3332
557.858	3415
558.333	3410
558.807	3353
559.282	3363
559.757	3464
560.232	3503
560.708	3450
561.183	3439
561.658	3469
562.133	3475
562.608	3455
563.083	3564
563.559	3460
564.034	3460
564.509	3454
564.985	3454
565.46	3418
565.936	3472
566.411	3486
566.887	3461
567.362	3491
567.838	3456
568.313	3499
568.789	3465
569.265	3487
569.74	3503
570.216	3452
570.692	3534
571.168	3532
571.644	3507
572.12	3487
572.596	3530
573.071	3522
573.547	3598
574.024	3618
574.5	3611
574.976	3613
575.452	3674
575.928	3665
576.404	3683
576.881	3807
577.357	3740
577.833	3773
578.31	3879
578.786	3906
579.262	3982
579.739	3917
580.215	4041
580.692	4054
581.169	4061
581.645	4076
582.122	4139
582.598	4134
583.075	4139
583.552	4180
584.029	4185
584.506	4171
584.982	4118
585.459	4197
585.936	4140
586.413	4202
586.89	4280
587.367	4209
587.844	4276
588.321	4227
588.799	4206
589.276	4172
589.753	4252
590.23	4258
590.707	4244
591.185	4244
591.662	4234
592.139	4253
592.617	4300
593.094	4308
593.572	4364
594.049	4388
594.527	4441
595.004	4443
595.482	4550
595.96	4490
596.437	4476
596.915	4596
597.393	4536
597.871	4653
598.349	4613
598.826	4734
599.304	4715
599.782	4795
600.26	4739
600.738	4810
601.216	4763
601.694	4801
602.173	4851
602.651	4865
603.129	4778
603.607	4792
604.085	4874
604.564	4885
605.042	4888
605.52	4843
605.999	4955
606.477	4853
606.956	4881
607.434	4867.5
607.913	4854
608.391	4837
608.87	4880
609.348	4874
609.827	4904
610.306	4908
610.785	4899
611.263	4906
611.742	4854
612.221	4736
612.7	4781
613.179	4785
613.658	4745
614.137	4875
614.616	4930
615.095	4814
615.574	4867
616.053	4926
616.532	4895
617.011	4865
617.491	4844
617.97	4825
618.449	4895
618.928	4937
619.408	4933
619.887	4997
620.367	5001
620.846	5015
621.326	5013
621.805	5138
622.285	5146
622.764	5159
623.244	5172
623.724	5199
624.203	5243
624.683	5109
625.163	5199
625.643	5213
626.123	5175
626.602	5280
627.082	5163
627.562	5176
628.042	5228
628.522	5175
629.002	5196
629.482	5237
629.963	5222
630.443	5113
630.923	5126
631.403	5177
631.883	5148
632.364	5187
632.844	5162
633.324	5148
633.805	5150
634.285	5109
634.766	5079
635.246	5069
635.727	5039
636.207	5079
636.688	5095
637.168	5123
637.649	5088
638.13	5083
638.611	5087
639.091	5069
639.572	5101
640.053	5097
640.534	5161
641.015	5121
641.496	5005
641.977	5077
642.458	4993
642.939	4958
643.42	4967
643.901	4986
644.382	5017
644.863	5013
645.345	5026
645.826	4972
646.307	4934
646.788	5070
647.27	5025
647.751	5083
648.233	5152
648.714	5041
649.196	5187
649.677	5140
650.159	5158
650.64	5080
651.122	5147
651.603	5049
652.085	5071
652.567	5058
653.049	5003
653.53	5025
654.012	5057
654.494	4897
654.976	4923
655.458	4895
655.94	4921
656.422	5020
656.904	4942
657.386	4888
657.868	4941
658.35	4967
658.833	5043
659.315	5023
659.797	4941
660.279	4946
660.762	4980
661.244	4943
661.726	4897
662.209	4892
662.691	4883
663.174	4786
663.656	4827
664.139	4854
664.621	4828
665.104	4784
665.587	4802
666.069	4776
666.552	4748
667.035	4686
667.517	4710
668	4742
668.483	4728
668.966	4663
669.449	4624
669.932	4683
670.415	4772
670.898	4736
671.381	4743
671.864	4746
672.347	4695
672.83	4694
673.313	4725
673.797	4678
674.28	4737
674.763	4699
675.247	4693
675.73	4701
676.213	4765
676.697	4787
677.18	4780
677.664	4788
678.147	4789
678.631	4806
679.114	4851
679.598	4917
680.082	4993
680.565	4999
681.049	4987
681.533	4963
682.017	4991
682.5	4960
682.984	4966
683.468	4935
683.952	4844
684.436	4931
684.92	4880
685.404	4895
685.888	4923
686.372	4873
686.856	4837
687.341	4898
687.825	4845
688.309	4882
688.793	4890
689.278	4879
689.762	4957
690.246	4920
690.731	4907
691.215	4888
691.7	4737
692.184	4760
692.669	4771
693.153	4784
693.638	4700
694.122	4692
694.607	4693
695.092	4600
695.577	4652
696.061	4590
696.546	4641
697.031	4646
697.516	4692
698.001	4668
698.486	4614
698.971	4686
699.456	4640
699.941	4655
700.426	4641
700.911	4693
701.396	4659
701.881	4660
702.366	4593
702.852	4565
703.337	4583
703.822	4560
704.308	4514
704.793	4510
705.278	4488
705.764	4485
706.249	4480
706.735	4482
707.22	4513
707.706	4437
708.191	4536
708.677	4548
709.163	4512
709.648	4524
710.134	4552
710.62	4508
711.106	4484
711.592	4531
712.077	4494
712.563	4381
713.049	4408
713.535	4533
714.021	4515
714.507	4471
714.993	4403
715.479	4480
715.966	4428
716.452	4416
716.938	4417
717.424	4292
717.91	4381
718.397	4309
718.883	4296
719.369	4328
719.856	4333
720.342	4407
720.829	4314
721.315	4275
721.802	4243
722.288	4268
722.775	4123
723.262	4024
723.748	4200
724.235	4162
724.722	4205
725.208	4127
725.695	4136
726.182	4122
726.669	4064
727.156	4081
727.643	4048
728.13	4065
728.617	4030
729.104	4000
729.591	3964
730.078	3993
730.565	4000
731.052	3969
731.539	4007
732.027	3958
732.514	3889
733.001	3912
733.488	3923
733.976	3946
734.463	3941
734.951	3925
735.438	3953
735.926	3880
736.413	3884
736.901	3805
737.388	3849
737.876	3807
738.364	3738
738.851	3743
739.339	3747
739.827	3763
740.314	3651
740.802	3692
741.29	3725
741.778	3692
742.266	3694
742.754	3718
743.242	3770
743.73	3715
744.218	3702
744.706	3632
745.194	3654
745.682	3634
746.17	3686
746.659	3737
747.147	3657
747.635	3671
748.123	3676
748.612	3643
749.1	3579
749.589	3576
750.077	3525
750.566	3480
751.054	3505
751.543	3523
752.031	3451
752.52	3461
753.008	3381
753.497	3348
753.986	3327
754.474	3325
754.963	3341
755.452	3308
755.941	3286
756.43	3267
756.919	3202
757.408	3156
757.896	3171
758.385	3208
758.875	3194
759.364	3172
759.853	3174
760.342	3137
760.831	3214
761.32	3209
761.809	3176
762.299	3183
762.788	3178
763.277	3158
763.767	3079
764.256	3037
764.745	2990
765.235	3040
765.724	2966
766.214	3022
766.703	2993
767.193	2934
767.683	2933
768.172	2889
768.662	2911
769.152	2912
769.641	2917
770.131	2819
770.621	2836
771.111	2788
771.601	2790
772.09	2774
772.58	2761
773.07	2775
773.56	2808
774.05	2739
774.54	2718
775.031	2688
775.521	2644
776.011	2645
776.501	2671
776.991	2650
777.482	2692
777.972	2605
778.462	2586
778.953	2628
779.443	2623
779.933	2638
780.424	2588
780.914	2599
781.405	2566
781.895	2520
782.386	2510
782.877	2496
783.367	2454
783.858	2467
784.349	2469
784.839	2441
785.33	2467
785.821	2446
786.312	2409
786.803	2401
787.293	2389
787.784	2347
788.275	2313
788.766	2284
789.257	2324
789.748	2265
790.24	2240
790.731	2250
791.222	2211
791.713	2204
792.204	2235
792.696	2217
793.187	2271
793.678	2253
794.169	2195
794.661	2212
795.152	2172
795.644	2149
796.135	2133
796.627	2140
797.118	2105
797.61	2100
798.101	2088
798.593	2098
799.085	2049
799.576	2055
800.068	2027
800.56	2038
801.052	1984
801.544	1977
802.035	1992
802.527	1961
803.019	1948
803.511	1944
804.003	1924
804.495	1924
804.987	1888
805.479	1853
805.971	1861
806.464	1868
806.956	1828
807.448	1824
807.94	1821
808.433	1814
808.925	1827
809.417	1830
809.91	1817
810.402	1782
810.894	1801
811.387	1800
811.879	1758
812.372	1748
812.865	1730
813.357	1745
813.85	1742
814.342	1710
814.835	1693
815.328	1676
815.821	1641
816.313	1638
816.806	1631
817.299	1634
817.792	1662
818.285	1657
818.778	1682
819.271	1671
819.764	1636
820.257	1629
820.75	1615
821.243	1605
821.736	1578
822.229	1597
822.722	1599
823.216	1640
