Data from lamp1bck_noballon_Subt4__16__388.txt Node

Date: Fri Apr 04 11:11:12 CEST 2025
User: fys-lab-0081
Spectrometer: S04999
Trigger mode: 0
Resolution mode: 1024 pixels
Integration Time (sec): 1.000000E-1
Scans to average: 1
Nonlinearity correction enabled: false
Boxcar width: 0
Baseline correction enabled: true
XAxis mode: Wavelengths
Number of Pixels in Spectrum: 1024
>>>>>Begin Spectral Data<<<<<
336.42	5
336.877	4
337.334	3
337.792	7
338.249	7
338.706	9
339.164	9
339.621	6
340.079	6
340.536	6
340.994	4
341.452	10
341.909	5
342.367	7
342.825	10
343.283	10
343.741	13
344.198	5
344.656	8
345.114	12
345.572	5
346.03	7
346.488	7
346.947	10
347.405	11
347.863	12
348.321	9
348.779	10
349.238	16
349.696	16
350.154	18
350.613	11
351.071	16
351.53	11
351.988	19
352.447	19
352.905	17
353.364	17
353.823	25
354.282	17
354.74	19
355.199	23
355.658	22
356.117	22
356.576	19
357.035	24
357.494	22
357.953	22
358.412	24
358.871	24
359.33	29
359.789	27
360.249	29
360.708	33
361.167	27
361.626	32
362.086	31
362.545	32
363.005	32
363.464	38
363.924	35
364.383	37
364.843	37
365.303	34
365.762	42
366.222	41
366.682	40
367.142	43
367.601	42
368.061	45
368.521	43
368.981	46
369.441	45
369.901	38
370.361	47
370.821	57
371.282	47
371.742	43
372.202	49
372.662	51
373.123	52
373.583	51
374.043	55
374.504	52
374.964	59
375.425	54
375.885	60
376.346	61
376.806	58
377.267	64
377.728	60
378.188	66
378.649	69
379.11	62
379.571	63
380.032	70
380.493	71
380.954	78
381.414	74
381.876	80
382.337	79
382.798	78
383.259	85
383.72	87
384.181	95
384.642	92
385.104	96
385.565	96
386.026	101
386.488	112
386.949	107
387.411	112
387.872	107
388.334	113
388.795	116
389.257	119
389.719	121
390.181	124
390.642	131
391.104	132
391.566	129
392.028	138
392.49	140
392.952	140
393.414	141
393.876	150
394.338	150
394.8	149
395.262	152
395.724	157
396.186	163
396.648	166
397.111	161
397.573	168
398.035	164
398.498	177
398.96	176
399.423	177
399.885	182
400.348	183
400.81	187
401.273	189
401.736	185
402.198	200
402.661	209
403.124	210
403.587	213
404.049	219
404.512	225
404.975	233
405.438	221
405.901	225
406.364	226
406.827	233
407.29	227
407.754	230
408.217	226
408.68	234
409.143	233
409.607	234
410.07	233
410.533	240
410.997	245
411.46	252
411.924	242
412.387	242
412.851	257
413.314	269
413.778	269
414.242	272
414.705	283
415.169	275
415.633	279
416.097	280
416.561	282
417.024	288
417.488	282
417.952	284
418.416	282
418.88	291
419.344	287
419.809	289
420.273	295
420.737	282
421.201	291
421.665	296
422.13	299
422.594	305
423.059	312
423.523	314
423.987	321
424.452	335
424.916	336
425.381	345
425.846	351
426.31	345
426.775	353
427.24	360
427.704	358
428.169	370
428.634	366
429.099	351
429.564	356
430.029	366
430.494	360
430.959	362
431.424	353
431.889	372
432.354	368
432.819	368
433.284	381
433.75	378
434.215	396
434.68	402
435.146	409
435.611	423
436.077	436
436.542	444
437.008	455
437.473	454
437.939	459
438.404	473
438.87	475
439.336	468
439.801	465
440.267	477
440.733	483
441.199	486
441.665	483
442.131	497
442.596	484
443.062	510
443.529	514
443.995	520
444.461	531
444.927	547
445.393	555
445.859	581
446.325	584
446.792	617
447.258	619
447.724	632
448.191	652
448.657	666
449.124	687
449.59	680
450.057	713
450.523	722
450.99	739
451.457	733
451.923	739
452.39	726
452.857	749
453.324	746
453.791	755
454.257	758
454.724	771
455.191	764
455.658	757
456.125	794
456.592	772
457.059	784
457.527	794
457.994	814
458.461	817
458.928	830
459.396	828
459.863	867
460.33	863
460.798	856
461.265	865
461.732	858
462.2	874
462.668	881
463.135	894
463.603	860
464.07	895
464.538	867
465.006	888
465.474	868
465.941	878
466.409	885
466.877	861
467.345	890
467.813	874
468.281	872
468.749	890
469.217	886
469.685	895
470.153	898
470.621	900
471.09	901
471.558	941
472.026	932
472.494	959
472.963	974
473.431	1000
473.9	1012
474.368	1051
474.837	1060
475.305	1084
475.774	1098
476.242	1122
476.711	1132
477.18	1148
477.648	1127
478.117	1153
478.586	1137
479.055	1161
479.524	1167
479.993	1150
480.462	1160
480.93	1155
481.399	1158
481.869	1160
482.338	1140
482.807	1155
483.276	1150
483.745	1148
484.214	1178
484.684	1193
485.153	1183
485.622	1188
486.092	1223
486.561	1207
487.031	1247
487.5	1262
487.97	1261
488.439	1273
488.909	1304
489.378	1363
489.848	1355
490.318	1391
490.787	1449
491.257	1472
491.727	1497
492.197	1514
492.667	1504
493.137	1535
493.607	1526
494.077	1556
494.547	1555
495.017	1533
495.487	1550
495.957	1592
496.427	1554
496.897	1565
497.368	1571
497.838	1553
498.308	1576
498.779	1588
499.249	1587
499.719	1596
500.19	1608
500.66	1616
501.131	1639
501.602	1667
502.072	1667
502.543	1660
503.014	1724
503.484	1705
503.955	1744
504.426	1794
504.897	1784
505.368	1829
505.838	1878
506.309	1927
506.78	1988
507.251	2003
507.722	2052
508.194	2100
508.665	2108
509.136	2091
509.607	2162
510.078	2203
510.549	2241
511.021	2291
511.492	2287
511.964	2316
512.435	2316
512.906	2306
513.378	2333
513.849	2352
514.321	2364
514.793	2393
515.264	2421
515.736	2447
516.208	2500
516.679	2508
517.151	2534
517.623	2554
518.095	2564
518.567	2594
519.038	2655
519.51	2642
519.982	2681
520.454	2702
520.927	2706
521.399	2740
521.871	2780
522.343	2786
522.815	2816
523.287	2798
523.76	2827
524.232	2889
524.704	2923
525.177	2881
525.649	2873
526.122	2889
526.594	2837
527.067	2916
527.539	2931
528.012	2898
528.484	2902
528.957	2904
529.43	2892
529.903	2900
530.375	2974
530.848	2909
531.321	2963
531.794	2957
532.267	3009
532.74	2963
533.213	2935
533.686	2968
534.159	2956
534.632	3027
535.105	3027
535.578	3055
536.051	3085
536.525	3087
536.998	3069
537.471	3115
537.945	3082
538.418	3139
538.891	3158
539.365	3195
539.838	3220
540.312	3209
540.786	3247
541.259	3253
541.733	3286
542.206	3284
542.68	3239
543.154	3217
543.628	3211
544.101	3294
544.575	3270
545.049	3192
545.523	3264
545.997	3245
546.471	3254
546.945	3231
547.419	3295
547.893	3136
548.367	3184
548.842	3158
549.316	3168
549.79	3188
550.264	3190
550.739	3200
551.213	3202
551.687	3216
552.162	3218
552.636	3177
553.111	3176
553.585	3243
554.06	3187
554.534	3277
555.009	3249
555.484	3279
555.958	3307
556.433	3337
556.908	3369
557.383	3342
557.858	3423
558.333	3409
558.807	3359
559.282	3377
559.757	3474
560.232	3513
560.708	3450
561.183	3433
561.658	3473
562.133	3484
562.608	3459
563.083	3579
563.559	3467
564.034	3473
564.509	3460
564.985	3468
565.46	3426
565.936	3479
566.411	3488
566.887	3466
567.362	3500
567.838	3468
568.313	3505
568.789	3474
569.265	3491
569.74	3503
570.216	3460
570.692	3534
571.168	3535
571.644	3521
572.12	3487
572.596	3536
573.071	3522
573.547	3610
574.024	3630
574.5	3618
574.976	3627
575.452	3678
575.928	3670
576.404	3690
576.881	3817
577.357	3752
577.833	3777
578.31	3877
578.786	3921
579.262	3987
579.739	3921
580.215	4043
580.692	4058
581.169	4066
581.645	4079
582.122	4144
582.598	4137
583.075	4149
583.552	4198
584.029	4184
584.506	4182
584.982	4133
585.459	4204
585.936	4151
586.413	4210
586.89	4270
587.367	4221
587.844	4286
588.321	4230
588.799	4223
589.276	4174
589.753	4258
590.23	4269
590.707	4253
591.185	4247
591.662	4233
592.139	4258
592.617	4311
593.094	4307
593.572	4368
594.049	4404
594.527	4463
595.004	4446
595.482	4562
595.96	4500
596.437	4493
596.915	4606
597.393	4546
597.871	4648
598.349	4614
598.826	4738
599.304	4724
599.782	4806
600.26	4743
600.738	4814
601.216	4771
601.694	4814
602.173	4868
602.651	4872
603.129	4779
603.607	4805
604.085	4867
604.564	4892
605.042	4896
605.52	4858
605.999	4968
606.477	4866
606.956	4872
607.434	4868.5
607.913	4865
608.391	4856
608.87	4910
609.348	4875
609.827	4896
610.306	4926
610.785	4907
611.263	4914
611.742	4857
612.221	4739
612.7	4782
613.179	4803
613.658	4751
614.137	4882
614.616	4931
615.095	4810
615.574	4875
616.053	4942
616.532	4899
617.011	4880
617.491	4867
617.97	4832
618.449	4901
618.928	4953
619.408	4941
619.887	5009
620.367	5016
620.846	5027
621.326	5017
621.805	5149
622.285	5157
622.764	5167
623.244	5174
623.724	5211
624.203	5257
624.683	5124
625.163	5213
625.643	5216
626.123	5176
626.602	5291
627.082	5168
627.562	5181
628.042	5239
628.522	5179
629.002	5200
629.482	5243
629.963	5220
630.443	5136
630.923	5146
631.403	5184
631.883	5155
632.364	5194
632.844	5173
633.324	5151
633.805	5166
634.285	5115
634.766	5089
635.246	5087
635.727	5057
636.207	5080
636.688	5100
637.168	5132
637.649	5096
638.13	5081
638.611	5096
639.091	5083
639.572	5106
640.053	5101
640.534	5163
641.015	5128
641.496	5014
641.977	5095
642.458	5002
642.939	4960
643.42	4974
643.901	4999
644.382	5022
644.863	5029
645.345	5036
645.826	4977
646.307	4948
646.788	5076
647.27	5030
647.751	5090
648.233	5149
648.714	5051
649.196	5194
649.677	5150
650.159	5167
650.64	5105
651.122	5154
651.603	5055
652.085	5077
652.567	5065
653.049	5021
653.53	5032
654.012	5068
654.494	4912
654.976	4924
655.458	4907
655.94	4933
656.422	5021
656.904	4947
657.386	4891
657.868	4929
658.35	4972
658.833	5054
659.315	5031
659.797	4944
660.279	4955
660.762	4997
661.244	4948
661.726	4905
662.209	4899
662.691	4885
663.174	4791
663.656	4830
664.139	4851
664.621	4833
665.104	4791
665.587	4804
666.069	4790
666.552	4757
667.035	4688
667.517	4711
668	4763
668.483	4731
668.966	4671
669.449	4633
669.932	4686
670.415	4793
670.898	4753
671.381	4751
671.864	4754
672.347	4716
672.83	4706
673.313	4742
673.797	4682
674.28	4745
674.763	4704
675.247	4686
675.73	4705
676.213	4771
676.697	4794
677.18	4781
677.664	4800
678.147	4806
678.631	4817
679.114	4872
679.598	4926
680.082	5013
680.565	5007
681.049	4994
681.533	4971
682.017	5016
682.5	4973
682.984	4974
683.468	4930
683.952	4852
684.436	4950
684.92	4886
685.404	4892
685.888	4931
686.372	4876
686.856	4847
687.341	4903
687.825	4857
688.309	4898
688.793	4898
689.278	4882
689.762	4958
690.246	4934
690.731	4922
691.215	4893
691.7	4741
692.184	4766
692.669	4781
693.153	4800
693.638	4712
694.122	4705
694.607	4707
695.092	4600
695.577	4670
696.061	4603
696.546	4646
697.031	4648
697.516	4699
698.001	4684
698.486	4634
698.971	4694
699.456	4638
699.941	4648
700.426	4647
700.911	4698
701.396	4657
701.881	4674
702.366	4595
702.852	4578
703.337	4585
703.822	4573
704.308	4525
704.793	4520
705.278	4497
705.764	4498
706.249	4480
706.735	4493
707.22	4525
707.706	4442
708.191	4546
708.677	4561
709.163	4524
709.648	4532
710.134	4561
710.62	4515
711.106	4507
711.592	4542
712.077	4502
712.563	4390
713.049	4413
713.535	4546
714.021	4522
714.507	4474
714.993	4411
715.479	4503
715.966	4438
716.452	4435
716.938	4419
717.424	4301
717.91	4392
718.397	4317
718.883	4304
719.369	4334
719.856	4344
720.342	4407
720.829	4312
721.315	4287
721.802	4256
722.288	4280
722.775	4136
723.262	4031
723.748	4203
724.235	4174
724.722	4212
725.208	4134
725.695	4142
726.182	4128
726.669	4066
727.156	4085
727.643	4054
728.13	4069
728.617	4031
729.104	4014
729.591	3967
730.078	3999
730.565	4005
731.052	3987
731.539	4023
732.027	3972
732.514	3901
733.001	3930
733.488	3934
733.976	3952
734.463	3939
734.951	3930
735.438	3960
735.926	3895
736.413	3884
736.901	3811
737.388	3853
737.876	3815
738.364	3757
738.851	3764
739.339	3740
739.827	3770
740.314	3669
740.802	3700
741.29	3743
741.778	3700
742.266	3701
742.754	3721
743.242	3784
743.73	3726
744.218	3706
744.706	3637
745.194	3660
745.682	3644
746.17	3696
746.659	3749
747.147	3658
747.635	3683
748.123	3690
748.612	3656
749.1	3596
749.589	3584
750.077	3544
750.566	3493
751.054	3516
751.543	3522
752.031	3460
752.52	3470
753.008	3389
753.497	3365
753.986	3343
754.474	3328
754.963	3353
755.452	3316
755.941	3295
756.43	3278
756.919	3218
757.408	3168
757.896	3177
758.385	3217
758.875	3203
759.364	3186
759.853	3185
760.342	3139
760.831	3221
761.32	3212
761.809	3171
762.299	3187
762.788	3183
763.277	3165
763.767	3088
764.256	3052
764.745	2996
765.235	3038
765.724	2969
766.214	3020
766.703	2991
767.193	2947
767.683	2945
768.172	2894
768.662	2924
769.152	2925
769.641	2922
770.131	2826
770.621	2840
771.111	2789
771.601	2802
772.09	2787
772.58	2766
773.07	2776
773.56	2817
774.05	2737
774.54	2721
775.031	2687
775.521	2653
776.011	2649
776.501	2675
776.991	2653
777.482	2700
777.972	2602
778.462	2595
778.953	2633
779.443	2630
779.933	2644
780.424	2593
780.914	2596
781.405	2567
781.895	2515
782.386	2521
782.877	2496
783.367	2458
783.858	2465
784.349	2466
784.839	2447
785.33	2470
785.821	2445
786.312	2418
786.803	2407
787.293	2392
787.784	2358
788.275	2324
788.766	2290
789.257	2328
789.748	2266
790.24	2248
790.731	2262
791.222	2216
791.713	2208
792.204	2241
792.696	2220
793.187	2277
793.678	2255
794.169	2201
794.661	2207
795.152	2180
795.644	2155
796.135	2143
796.627	2147
797.118	2113
797.61	2111
798.101	2087
798.593	2101
799.085	2072
799.576	2057
800.068	2041
800.56	2037
801.052	1998
801.544	1996
802.035	1998
802.527	1966
803.019	1959
803.511	1954
804.003	1935
804.495	1921
804.987	1894
805.479	1852
805.971	1864
806.464	1876
806.956	1835
807.448	1826
807.94	1828
808.433	1824
808.925	1826
809.417	1831
809.91	1822
810.402	1789
810.894	1810
811.387	1805
811.879	1764
812.372	1762
812.865	1741
813.357	1748
813.85	1744
814.342	1717
814.835	1699
815.328	1680
815.821	1646
816.313	1637
816.806	1644
817.299	1637
817.792	1665
818.285	1669
818.778	1689
819.271	1673
819.764	1646
820.257	1636
820.75	1623
821.243	1602
821.736	1584
822.229	1609
822.722	1606
823.216	1648
