Data from lamp3bck_Subt4__18__266.txt Node

Date: Fri Apr 04 11:04:20 CEST 2025
User: fys-lab-0081
Spectrometer: S04999
Trigger mode: 0
Resolution mode: 1024 pixels
Integration Time (sec): 1.000000E-1
Scans to average: 1
Nonlinearity correction enabled: false
Boxcar width: 0
Baseline correction enabled: true
XAxis mode: Wavelengths
Number of Pixels in Spectrum: 1024
>>>>>Begin Spectral Data<<<<<
336.42	2
336.877	4
337.334	2
337.792	8
338.249	4
338.706	11
339.164	7
339.621	5
340.079	6
340.536	10
340.994	2
341.452	5
341.909	5
342.367	14
342.825	9
343.283	4
343.741	10
344.198	3
344.656	3
345.114	6
345.572	3
346.03	7
346.488	6
346.947	8
347.405	11
347.863	13
348.321	11
348.779	13
349.238	11
349.696	14
350.154	14
350.613	11
351.071	15
351.53	14
351.988	17
352.447	14
352.905	12
353.364	15
353.823	25
354.282	17
354.74	18
355.199	19
355.658	18
356.117	24
356.576	20
357.035	19
357.494	22
357.953	21
358.412	21
358.871	25
359.33	25
359.789	28
360.249	30
360.708	31
361.167	21
361.626	32
362.086	29
362.545	32
363.005	30
363.464	34
363.924	37
364.383	37
364.843	35
365.303	33
365.762	40
366.222	43
366.682	36
367.142	40
367.601	43
368.061	44
368.521	49
368.981	49
369.441	44
369.901	38
370.361	45
370.821	54
371.282	44
371.742	43
372.202	47
372.662	53
373.123	49
373.583	49
374.043	55
374.504	52
374.964	55
375.425	57
375.885	61
376.346	65
376.806	60
377.267	65
377.728	60
378.188	65
378.649	64
379.11	64
379.571	65
380.032	71
380.493	72
380.954	75
381.414	73
381.876	80
382.337	84
382.798	80
383.259	85
383.72	87
384.181	91
384.642	94
385.104	98
385.565	95
386.026	98
386.488	109
386.949	105
387.411	111
387.872	115
388.334	115
388.795	116
389.257	120
389.719	121
390.181	129
390.642	133
391.104	131
391.566	130
392.028	137
392.49	137
392.952	146
393.414	144
393.876	149
394.338	157
394.8	152
395.262	158
395.724	166
396.186	164
396.648	171
397.111	164
397.573	169
398.035	167
398.498	176
398.96	177
399.423	179
399.885	181
400.348	187
400.81	195
401.273	190
401.736	193
402.198	200
402.661	208
403.124	213
403.587	216
404.049	221
404.512	226
404.975	235
405.438	227
405.901	227
406.364	229
406.827	241
407.29	231
407.754	233
408.217	229
408.68	234
409.143	235
409.607	240
410.07	235
410.533	242
410.997	245
411.46	252
411.924	245
412.387	247
412.851	257
413.314	272
413.778	270
414.242	273
414.705	285
415.169	280
415.633	285
416.097	286
416.561	283
417.024	295
417.488	284
417.952	292
418.416	287
418.88	296
419.344	287
419.809	289
420.273	294
420.737	291
421.201	294
421.665	302
422.13	298
422.594	305
423.059	310
423.523	314
423.987	321
424.452	334
424.916	333
425.381	348
425.846	352
426.31	351
426.775	355
427.24	362
427.704	358
428.169	365
428.634	365
429.099	353
429.564	356
430.029	363
430.494	363
430.959	365
431.424	355
431.889	369
432.354	372
432.819	369
433.284	385
433.75	386
434.215	402
434.68	403
435.146	406
435.611	425
436.077	436
436.542	444
437.008	459
437.473	460
437.939	465
438.404	477
438.87	481
439.336	472
439.801	469
440.267	476
440.733	488
441.199	489
441.665	489
442.131	499
442.596	484
443.062	509
443.529	516
443.995	523
444.461	531
444.927	552
445.393	556
445.859	581
446.325	585
446.792	616
447.258	616
447.724	636
448.191	659
448.657	663
449.124	681
449.59	684
450.057	717
450.523	721
450.99	734
451.457	735
451.923	743
452.39	733
452.857	748
453.324	744
453.791	755
454.257	759
454.724	764
455.191	757
455.658	753
456.125	786
456.592	763
457.059	779
457.527	788
457.994	811
458.461	810
458.928	825
459.396	823
459.863	852
460.33	845
460.798	850
461.265	861
461.732	849
462.2	876
462.668	872
463.135	882
463.603	859
464.07	886
464.538	856
465.006	886
465.474	853
465.941	862
466.409	876
466.877	853
467.345	876
467.813	861
468.281	863
468.749	871
469.217	873
469.685	882
470.153	889
470.621	889
471.09	882
471.558	933
472.026	921
472.494	949
472.963	955
473.431	988
473.9	1002
474.368	1025
474.837	1044
475.305	1056
475.774	1078
476.242	1109
476.711	1110
477.18	1137
477.648	1118
478.117	1140
478.586	1127
479.055	1130
479.524	1134
479.993	1127
480.462	1131
480.93	1135
481.399	1136
481.869	1141
482.338	1128
482.807	1140
483.276	1136
483.745	1135
484.214	1161
484.684	1173
485.153	1174
485.622	1167
486.092	1204
486.561	1177
487.031	1216
487.5	1238
487.97	1239
488.439	1262
488.909	1292
489.378	1343
489.848	1335
490.318	1368
490.787	1413
491.257	1448
491.727	1459
492.197	1487
492.667	1480
493.137	1516
493.607	1512
494.077	1524
494.547	1518
495.017	1502
495.487	1536
495.957	1555
496.427	1520
496.897	1524
497.368	1543
497.838	1529
498.308	1545
498.779	1553
499.249	1561
499.719	1568
500.19	1574
500.66	1583
501.131	1594
501.602	1621
502.072	1623
502.543	1626
503.014	1680
503.484	1676
503.955	1718
504.426	1777
504.897	1772
505.368	1812
505.838	1835
506.309	1883
506.78	1942
507.251	1970
507.722	2010
508.194	2053
508.665	2077
509.136	2072
509.607	2136
510.078	2175
510.549	2192
511.021	2251
511.492	2240
511.964	2268
512.435	2285
512.906	2286
513.378	2304
513.849	2331
514.321	2339
514.793	2364
515.264	2374
515.736	2398
516.208	2432
516.679	2450
517.151	2484
517.623	2498
518.095	2530
518.567	2540
519.038	2583
519.51	2588
519.982	2620
520.454	2643
520.927	2655
521.399	2694
521.871	2706
522.343	2722
522.815	2750
523.287	2756
523.76	2778
524.232	2822
524.704	2839
525.177	2797
525.649	2814
526.122	2847
526.594	2782
527.067	2841
527.539	2874
528.012	2849
528.484	2839
528.957	2838
529.43	2844
529.903	2837
530.375	2923
530.848	2842
531.321	2874
531.794	2876
532.267	2927
532.74	2882
533.213	2878
533.686	2924
534.159	2904
534.632	2963
535.105	2962
535.578	3003
536.051	3013
536.525	3026
536.998	3015
537.471	3068
537.945	3031
538.418	3061
538.891	3080
539.365	3130
539.838	3152
540.312	3151
540.786	3161
541.259	3162
541.733	3198
542.206	3196
542.68	3147
543.154	3143
543.628	3130
544.101	3228
544.575	3196
545.049	3117
545.523	3180
545.997	3158
546.471	3174
546.945	3142
547.419	3185
547.893	3066
548.367	3115
548.842	3085
549.316	3099
549.79	3112
550.264	3081
550.739	3119
551.213	3121
551.687	3122
552.162	3149
552.636	3106
553.111	3093
553.585	3168
554.06	3111
554.534	3189
555.009	3148
555.484	3210
555.958	3245
556.433	3248
556.908	3288
557.383	3241
557.858	3324
558.333	3339
558.807	3307
559.282	3327
559.757	3412
560.232	3436
560.708	3376
561.183	3362
561.658	3399
562.133	3400
562.608	3375
563.083	3465
563.559	3368
564.034	3388
564.509	3392
564.985	3405
565.46	3356
565.936	3399
566.411	3422
566.887	3348
567.362	3381
567.838	3356
568.313	3406
568.789	3375
569.265	3371
569.74	3391
570.216	3359
570.692	3413
571.168	3401
571.644	3393
572.12	3381
572.596	3413
573.071	3396
573.547	3476
574.024	3494
574.5	3505
574.976	3514
575.452	3566
575.928	3595
576.404	3603
576.881	3721
577.357	3665
577.833	3685
578.31	3775
578.786	3820
579.262	3899
579.739	3835
580.215	3944
580.692	3936
581.169	3918
581.645	3923
582.122	4024
582.598	4002
583.075	3998
583.552	4032
584.029	4042
584.506	4023
584.982	3991
585.459	4085
585.936	4027
586.413	4073
586.89	4116
587.367	4056
587.844	4112
588.321	4076
588.799	4094
589.276	4042
589.753	4102
590.23	4122
590.707	4108
591.185	4105
591.662	4089
592.139	4137
592.617	4193
593.094	4174
593.572	4206
594.049	4228
594.527	4275
595.004	4267
595.482	4368
595.96	4328
596.437	4326
596.915	4439
597.393	4376
597.871	4468
598.349	4400
598.826	4497
599.304	4517
599.782	4597
600.26	4534
600.738	4605
601.216	4577
601.694	4619
602.173	4662
602.651	4696
603.129	4643
603.607	4677
604.085	4727
604.564	4707
605.042	4722
605.52	4683
605.999	4785
606.477	4692
606.956	4693
607.434	4707
607.913	4721
608.391	4704
608.87	4717
609.348	4661
609.827	4668
610.306	4687
610.785	4677
611.263	4709
611.742	4690
612.221	4598
612.7	4657
613.179	4670
613.658	4614
614.137	4712
614.616	4748
615.095	4629
615.574	4677
616.053	4713
616.532	4684
617.011	4698
617.491	4691
617.97	4684
618.449	4737
618.928	4790
619.408	4755
619.887	4782
620.367	4786
620.846	4832
621.326	4828
621.805	4913
622.285	4898
622.764	4926
623.244	4938
623.724	4958
624.203	4996
624.683	4906
625.163	4994
625.643	4982
626.123	4943
626.602	5053
627.082	4930
627.562	4931
628.042	5041
628.522	4989
629.002	4989
629.482	5030
629.963	4999
630.443	4928
630.923	4955
631.403	5005
631.883	4988
632.364	5012
632.844	4952
633.324	4935
633.805	4949
634.285	4895
634.766	4871
635.246	4871
635.727	4870
636.207	4880
636.688	4887
637.168	4904
637.649	4831
638.13	4790
638.611	4816
639.091	4822
639.572	4831
640.053	4798
640.534	4833
641.015	4805
641.496	4713
641.977	4784
642.458	4728
642.939	4721
643.42	4729
643.901	4743
644.382	4785
644.863	4766
645.345	4770
645.826	4754
646.307	4747
646.788	4812
647.27	4739
647.751	4785
648.233	4847
648.714	4724
649.196	4856
649.677	4827
650.159	4833
650.64	4775
651.122	4846
651.603	4754
652.085	4798
652.567	4788
653.049	4738
653.53	4744
654.012	4811
654.494	4706
654.976	4729
655.458	4705
655.94	4707
656.422	4783
656.904	4725
657.386	4674
657.868	4661
658.35	4643
658.833	4686
659.315	4696
659.797	4633
660.279	4632
660.762	4674
661.244	4641
661.726	4584
662.209	4610
662.691	4591
663.174	4491
663.656	4516
664.139	4517
664.621	4486
665.104	4453
665.587	4478
666.069	4460
666.552	4443
667.035	4400
667.517	4423
668	4454
668.483	4448
668.966	4404
669.449	4372
669.932	4384
670.415	4468
670.898	4421
671.381	4424
671.864	4420
672.347	4383
672.83	4401
673.313	4420
673.797	4391
674.28	4451
674.763	4438
675.247	4440
675.73	4428
676.213	4486
676.697	4505
677.18	4518
677.664	4516
678.147	4501
678.631	4507
679.114	4539
679.598	4523
680.082	4542
680.565	4534
681.049	4522
681.533	4521
682.017	4588
682.5	4578
682.984	4614
683.468	4571
683.952	4481
684.436	4543
684.92	4495
685.404	4520
685.888	4543
686.372	4508
686.856	4503
687.341	4538
687.825	4493
688.309	4515
688.793	4516
689.278	4454
689.762	4505
690.246	4488
690.731	4496
691.215	4503
691.7	4384
692.184	4421
692.669	4408
693.153	4432
693.638	4355
694.122	4369
694.607	4391
695.092	4332
695.577	4369
696.061	4299
696.546	4289
697.031	4262
697.516	4306
698.001	4308
698.486	4263
698.971	4318
699.456	4230
699.941	4224
700.426	4215
700.911	4256
701.396	4211
701.881	4235
702.366	4199
702.852	4176
703.337	4188
703.822	4181
704.308	4180
704.793	4204
705.278	4196
705.764	4184
706.249	4156
706.735	4164
707.22	4202
707.706	4132
708.191	4209
708.677	4197
709.163	4165
709.648	4195
710.134	4234
710.62	4165
711.106	4156
711.592	4185
712.077	4189
712.563	4090
713.049	4096
713.535	4176
714.021	4129
714.507	4100
714.993	4069
715.479	4133
715.966	4068
716.452	4064
716.938	4079
717.424	3963
717.91	4051
718.397	4001
718.883	3974
719.369	3982
719.856	3954
720.342	3996
720.829	3936
721.315	3940
721.802	3916
722.288	3956
722.775	3827
723.262	3740
723.748	3881
724.235	3840
724.722	3895
725.208	3824
725.695	3828
726.182	3819
726.669	3752
727.156	3773
727.643	3731
728.13	3737
728.617	3722
729.104	3717
729.591	3690
730.078	3714
730.565	3726
731.052	3654
731.539	3673
732.027	3637
732.514	3585
733.001	3631
733.488	3602
733.976	3603
734.463	3587
734.951	3574
735.438	3619
735.926	3572
736.413	3586
736.901	3521
737.388	3551
737.876	3526
738.364	3488
738.851	3492
739.339	3484
739.827	3524
740.314	3435
740.802	3463
741.29	3490
741.778	3441
742.266	3445
742.754	3448
743.242	3472
743.73	3406
744.218	3416
744.706	3356
745.194	3405
745.682	3381
746.17	3411
746.659	3420
747.147	3336
747.635	3347
748.123	3332
748.612	3305
749.1	3275
749.589	3286
750.077	3261
750.566	3227
751.054	3250
751.543	3269
752.031	3198
752.52	3184
753.008	3122
753.497	3114
753.986	3114
754.474	3103
754.963	3134
755.452	3084
755.941	3042
756.43	3033
756.919	3020
757.408	3000
757.896	3014
758.385	3012
758.875	2979
759.364	2963
759.853	2946
760.342	2906
760.831	2973
761.32	2960
761.809	2913
762.299	2932
762.788	2922
763.277	2911
763.767	2864
764.256	2858
764.745	2805
765.235	2856
765.724	2769
766.214	2808
766.703	2782
767.193	2744
767.683	2750
768.172	2705
768.662	2733
769.152	2730
769.641	2732
770.131	2663
770.621	2691
771.111	2654
771.601	2652
772.09	2623
772.58	2601
773.07	2605
773.56	2642
774.05	2577
774.54	2554
775.031	2537
775.521	2523
776.011	2526
776.501	2542
776.991	2503
777.482	2536
777.972	2462
778.462	2458
778.953	2481
779.443	2458
779.933	2462
780.424	2412
780.914	2437
781.405	2438
781.895	2397
782.386	2397
782.877	2388
783.367	2341
783.858	2324
784.349	2335
784.839	2319
785.33	2340
785.821	2313
786.312	2298
786.803	2288
787.293	2293
787.784	2257
788.275	2226
788.766	2209
789.257	2255
789.748	2197
790.24	2178
790.731	2190
791.222	2161
791.713	2153
792.204	2162
792.696	2105
793.187	2137
793.678	2126
794.169	2076
794.661	2103
795.152	2079
795.644	2065
796.135	2054
796.627	2063
797.118	2029
797.61	2025
798.101	2004
798.593	2020
799.085	1980
799.576	1975
800.068	1945
800.56	1948
801.052	1909
801.544	1900
802.035	1922
802.527	1901
803.019	1888
803.511	1876
804.003	1855
804.495	1861
804.987	1836
805.479	1795
805.971	1811
806.464	1827
806.956	1783
807.448	1777
807.94	1778
808.433	1763
808.925	1745
809.417	1749
809.91	1756
810.402	1711
810.894	1728
811.387	1738
811.879	1710
812.372	1693
812.865	1668
813.357	1658
813.85	1657
814.342	1647
814.835	1645
815.328	1648
815.821	1629
816.313	1623
816.806	1628
817.299	1614
817.792	1627
818.285	1617
818.778	1652
819.271	1647
819.764	1621
820.257	1616
820.75	1610
821.243	1600
821.736	1575
822.229	1606
822.722	1599
823.216	1633
