Data from lamp3bck_Subt4__6__254.txt Node

Date: Fri Apr 04 11:04:19 CEST 2025
User: fys-lab-0081
Spectrometer: S04999
Trigger mode: 0
Resolution mode: 1024 pixels
Integration Time (sec): 1.000000E-1
Scans to average: 1
Nonlinearity correction enabled: false
Boxcar width: 0
Baseline correction enabled: true
XAxis mode: Wavelengths
Number of Pixels in Spectrum: 1024
>>>>>Begin Spectral Data<<<<<
336.42	4
336.877	2
337.334	7
337.792	6
338.249	3
338.706	5
339.164	8
339.621	5
340.079	7
340.536	4
340.994	4
341.452	8
341.909	9
342.367	9
342.825	11
343.283	4
343.741	11
344.198	9
344.656	6
345.114	13
345.572	4
346.03	12
346.488	8
346.947	9
347.405	14
347.863	10
348.321	13
348.779	10
349.238	11
349.696	12
350.154	11
350.613	12
351.071	15
351.53	10
351.988	13
352.447	16
352.905	14
353.364	14
353.823	21
354.282	15
354.74	19
355.199	21
355.658	18
356.117	24
356.576	17
357.035	22
357.494	18
357.953	19
358.412	19
358.871	22
359.33	24
359.789	22
360.249	27
360.708	29
361.167	25
361.626	30
362.086	30
362.545	28
363.005	31
363.464	35
363.924	34
364.383	35
364.843	37
365.303	35
365.762	41
366.222	43
366.682	39
367.142	37
367.601	47
368.061	47
368.521	49
368.981	46
369.441	46
369.901	38
370.361	46
370.821	50
371.282	45
371.742	45
372.202	49
372.662	49
373.123	50
373.583	50
374.043	58
374.504	52
374.964	57
375.425	58
375.885	60
376.346	62
376.806	57
377.267	64
377.728	60
378.188	65
378.649	67
379.11	67
379.571	68
380.032	71
380.493	75
380.954	79
381.414	78
381.876	78
382.337	82
382.798	84
383.259	90
383.72	87
384.181	98
384.642	94
385.104	100
385.565	101
386.026	107
386.488	108
386.949	106
387.411	117
387.872	113
388.334	117
388.795	120
389.257	120
389.719	125
390.181	129
390.642	132
391.104	133
391.566	135
392.028	139
392.49	140
392.952	141
393.414	145
393.876	151
394.338	158
394.8	152
395.262	158
395.724	166
396.186	163
396.648	171
397.111	167
397.573	171
398.035	170
398.498	180
398.96	177
399.423	177
399.885	181
400.348	185
400.81	191
401.273	192
401.736	189
402.198	200
402.661	209
403.124	213
403.587	216
404.049	223.5
404.512	231
404.975	234
405.438	230
405.901	231
406.364	227
406.827	240
407.29	239
407.754	233
408.217	229
408.68	233
409.143	239
409.607	236
410.07	237
410.533	241
410.997	248
411.46	250
411.924	248
412.387	247
412.851	265
413.314	274
413.778	274
414.242	279
414.705	284
415.169	278
415.633	281
416.097	285
416.561	288
417.024	294
417.488	285
417.952	292
418.416	282
418.88	298
419.344	288
419.809	289
420.273	300
420.737	290
421.201	293
421.665	300
422.13	303
422.594	306
423.059	315
423.523	317
423.987	320
424.452	336
424.916	338
425.381	350
425.846	353
426.31	352
426.775	357
427.24	369
427.704	360
428.169	366
428.634	365
429.099	358
429.564	361
430.029	363
430.494	363
430.959	366
431.424	358
431.889	371
432.354	372
432.819	374
433.284	385
433.75	385
434.215	401
434.68	402
435.146	409
435.611	428
436.077	438
436.542	444
437.008	462
437.473	462
437.939	464
438.404	485
438.87	484
439.336	472
439.801	476
440.267	486
440.733	488
441.199	489
441.665	491
442.131	503
442.596	491
443.062	513
443.529	518
443.995	525
444.461	535
444.927	552
445.393	557
445.859	582
446.325	584
446.792	620
447.258	623
447.724	640
448.191	666
448.657	670
449.124	690
449.59	683
450.057	715
450.523	723
450.99	738
451.457	735
451.923	751
452.39	738
452.857	749
453.324	751
453.791	760
454.257	756
454.724	769
455.191	762
455.658	760
456.125	789
456.592	764
457.059	787
457.527	790
457.994	818
458.461	813
458.928	824
459.396	826
459.863	854
460.33	857
460.798	856
461.265	861
461.732	858
462.2	883
462.668	875
463.135	880
463.603	862
464.07	894
464.538	862
465.006	884
465.474	861
465.941	871
466.409	879
466.877	857
467.345	880
467.813	866
468.281	869
468.749	881
469.217	870
469.685	892
470.153	895
470.621	894
471.09	894
471.558	934
472.026	926
472.494	952
472.963	963
473.431	993
473.9	1007
474.368	1029
474.837	1042
475.305	1061
475.774	1086
476.242	1116
476.711	1124
477.18	1145
477.648	1134
478.117	1147
478.586	1138
479.055	1136
479.524	1145
479.993	1137
480.462	1138
480.93	1142
481.399	1141
481.869	1148
482.338	1138
482.807	1149
483.276	1138
483.745	1140
484.214	1169
484.684	1178
485.153	1174
485.622	1176
486.092	1211
486.561	1181
487.031	1219
487.5	1250
487.97	1244
488.439	1268
488.909	1293
489.378	1350
489.848	1343
490.318	1374
490.787	1428
491.257	1451
491.727	1469
492.197	1491
492.667	1490
493.137	1515
493.607	1521
494.077	1530
494.547	1512
495.017	1512
495.487	1536
495.957	1570
496.427	1530
496.897	1536
497.368	1552
497.838	1534
498.308	1551
498.779	1558
499.249	1564
499.719	1563
500.19	1577
500.66	1590
501.131	1599
501.602	1629
502.072	1623
502.543	1621
503.014	1690
503.484	1688
503.955	1730
504.426	1780
504.897	1779
505.368	1813
505.838	1850
506.309	1893
506.78	1949
507.251	1977
507.722	2016
508.194	2062
508.665	2082
509.136	2081
509.607	2155
510.078	2182
510.549	2201
511.021	2260
511.492	2248
511.964	2278
512.435	2310
512.906	2291
513.378	2315
513.849	2345
514.321	2350
514.793	2364
515.264	2386
515.736	2405
516.208	2435
516.679	2460
517.151	2494
517.623	2504
518.095	2533
518.567	2554
519.038	2603
519.51	2591
519.982	2627
520.454	2650
520.927	2668
521.399	2699
521.871	2726
522.343	2727
522.815	2771
523.287	2763
523.76	2779
524.232	2823
524.704	2845
525.177	2805
525.649	2824
526.122	2845
526.594	2786
527.067	2854
527.539	2890
528.012	2865
528.484	2852
528.957	2860
529.43	2850
529.903	2845
530.375	2925
530.848	2847
531.321	2890
531.794	2871
532.267	2932
532.74	2888
533.213	2885
533.686	2933
534.159	2911
534.632	2972
535.105	2964
535.578	3011
536.051	3021
536.525	3033
536.998	3022
537.471	3082
537.945	3040
538.418	3085
538.891	3088
539.365	3141
539.838	3164
540.312	3152
540.786	3171
541.259	3172
541.733	3218
542.206	3207
542.68	3153
543.154	3151
543.628	3154
544.101	3231
544.575	3211
545.049	3121
545.523	3184
545.997	3156
546.471	3184
546.945	3152
547.419	3199
547.893	3077
548.367	3120
548.842	3094
549.316	3103
549.79	3124
550.264	3087
550.739	3124
551.213	3125
551.687	3127
552.162	3150
552.636	3120
553.111	3099
553.585	3174
554.06	3128
554.534	3202
555.009	3159
555.484	3212
555.958	3238
556.433	3255
556.908	3303
557.383	3251
557.858	3337
558.333	3358
558.807	3310
559.282	3342
559.757	3428
560.232	3448
560.708	3377
561.183	3368
561.658	3410
562.133	3417
562.608	3382
563.083	3467
563.559	3375
564.034	3398
564.509	3397
564.985	3416
565.46	3361
565.936	3418
566.411	3424
566.887	3364
567.362	3376
567.838	3358
568.313	3416
568.789	3382
569.265	3382
569.74	3391
570.216	3363
570.692	3422
571.168	3405
571.644	3409
572.12	3393
572.596	3414
573.071	3405
573.547	3473
574.024	3505
574.5	3520
574.976	3519
575.452	3574
575.928	3599
576.404	3618
576.881	3728
577.357	3667
577.833	3696
578.31	3784
578.786	3830
579.262	3900
579.739	3839
580.215	3939
580.692	3950
581.169	3925
581.645	3941
582.122	4037
582.598	4011
583.075	4013
583.552	4040
584.029	4047
584.506	4018
584.982	4003
585.459	4098
585.936	4036
586.413	4070
586.89	4118
587.367	4058
587.844	4132
588.321	4095
588.799	4109
589.276	4055
589.753	4117
590.23	4139
590.707	4120
591.185	4116
591.662	4093
592.139	4139
592.617	4200
593.094	4187
593.572	4216
594.049	4239
594.527	4283
595.004	4276
595.482	4385
595.96	4340
596.437	4336
596.915	4448
597.393	4389
597.871	4477
598.349	4408
598.826	4500
599.304	4522
599.782	4610
600.26	4539
600.738	4609
601.216	4574
601.694	4626
602.173	4666
602.651	4709
603.129	4653
603.607	4690
604.085	4722
604.564	4714
605.042	4732
605.52	4682
605.999	4797
606.477	4705
606.956	4700
607.434	4712.5
607.913	4725
608.391	4717
608.87	4726
609.348	4660
609.827	4670
610.306	4688
610.785	4691
611.263	4708
611.742	4687
612.221	4604
612.7	4656
613.179	4681
613.658	4628
614.137	4722
614.616	4755
615.095	4643
615.574	4686
616.053	4719
616.532	4689
617.011	4702
617.491	4706
617.97	4681
618.449	4745
618.928	4787
619.408	4758
619.887	4784
620.367	4792
620.846	4842
621.326	4836
621.805	4915
622.285	4897
622.764	4933
623.244	4941
623.724	4969
624.203	5014
624.683	4909
625.163	5006
625.643	4985
626.123	4951
626.602	5074
627.082	4938
627.562	4932
628.042	5043
628.522	5002
629.002	4999
629.482	5033
629.963	5005
630.443	4929
630.923	4960
631.403	5000
631.883	4987
632.364	5005
632.844	4948
633.324	4949
633.805	4949
634.285	4897
634.766	4884
635.246	4881
635.727	4886
636.207	4890
636.688	4890
637.168	4912
637.649	4837
638.13	4798
638.611	4821
639.091	4837
639.572	4831
640.053	4799
640.534	4833
641.015	4807
641.496	4720
641.977	4783
642.458	4731
642.939	4733
643.42	4736
643.901	4754
644.382	4781
644.863	4772
645.345	4772
645.826	4770
646.307	4753
646.788	4826
647.27	4756
647.751	4794
648.233	4843
648.714	4737
649.196	4860
649.677	4824
650.159	4841
650.64	4777
651.122	4846
651.603	4761
652.085	4800
652.567	4803
653.049	4746
653.53	4740
654.012	4818
654.494	4710
654.976	4741
655.458	4710
655.94	4710
656.422	4791
656.904	4738
657.386	4675
657.868	4661
658.35	4640
658.833	4702
659.315	4710
659.797	4652
660.279	4650
660.762	4679
661.244	4645
661.726	4599
662.209	4609
662.691	4603
663.174	4498
663.656	4522
664.139	4523
664.621	4502
665.104	4455
665.587	4485
666.069	4471
666.552	4448
667.035	4401
667.517	4435
668	4459
668.483	4453
668.966	4410
669.449	4371
669.932	4399
670.415	4463
670.898	4425
671.381	4433
671.864	4430
672.347	4391
672.83	4397
673.313	4429
673.797	4392
674.28	4463
674.763	4457
675.247	4445
675.73	4434
676.213	4490
676.697	4524
677.18	4514
677.664	4522
678.147	4511
678.631	4518
679.114	4537
679.598	4530
680.082	4548
680.565	4547
681.049	4531
681.533	4526
682.017	4593
682.5	4587
682.984	4611
683.468	4573
683.952	4486
684.436	4545
684.92	4495
685.404	4523
685.888	4554
686.372	4513
686.856	4513
687.341	4555
687.825	4504
688.309	4526
688.793	4523
689.278	4458
689.762	4512
690.246	4482
690.731	4503
691.215	4512
691.7	4385
692.184	4428
692.669	4414
693.153	4415
693.638	4360
694.122	4356
694.607	4403
695.092	4335
695.577	4374
696.061	4298
696.546	4296
697.031	4273
697.516	4310
698.001	4314
698.486	4270
698.971	4330
699.456	4227
699.941	4220
700.426	4224
700.911	4250
701.396	4215
701.881	4230
702.366	4200
702.852	4182
703.337	4196
703.822	4197
704.308	4184
704.793	4203
705.278	4205
705.764	4201
706.249	4161
706.735	4170
707.22	4209
707.706	4142
708.191	4213
708.677	4214
709.163	4187
709.648	4200
710.134	4239
710.62	4172
711.106	4157
711.592	4202
712.077	4201
712.563	4096
713.049	4104
713.535	4177
714.021	4140
714.507	4117
714.993	4082
715.479	4127
715.966	4074
716.452	4079
716.938	4084
717.424	3976
717.91	4061
718.397	4016
718.883	3996
719.369	3997
719.856	3961
720.342	4007
720.829	3936
721.315	3945
721.802	3934
722.288	3982
722.775	3830
723.262	3737
723.748	3890
724.235	3845
724.722	3898
725.208	3832
725.695	3830
726.182	3821
726.669	3762
727.156	3767
727.643	3731
728.13	3736
728.617	3725
729.104	3729
729.591	3696
730.078	3720
730.565	3730
731.052	3672
731.539	3685
732.027	3644
732.514	3592
733.001	3627
733.488	3618
733.976	3603
734.463	3591
734.951	3583
735.438	3628
735.926	3576
736.413	3580
736.901	3521
737.388	3563
737.876	3536
738.364	3491
738.851	3500
739.339	3496
739.827	3539
740.314	3450
740.802	3480
741.29	3492
741.778	3457
742.266	3456
742.754	3454
743.242	3494
743.73	3419
744.218	3420
744.706	3367
745.194	3414
745.682	3389
746.17	3408
746.659	3423
747.147	3338
747.635	3363
748.123	3350
748.612	3306
749.1	3273
749.589	3302
750.077	3269
750.566	3238
751.054	3258
751.543	3274
752.031	3206
752.52	3205
753.008	3135
753.497	3123
753.986	3123
754.474	3115
754.963	3138
755.452	3085
755.941	3061
756.43	3047
756.919	3025
757.408	2998
757.896	3022
758.385	3024
758.875	2987
759.364	2979
759.853	2959
760.342	2917
760.831	2981
761.32	2965
761.809	2934
762.299	2942
762.788	2941
763.277	2917
763.767	2860
764.256	2857
764.745	2812
765.235	2854
765.724	2774
766.214	2810
766.703	2792
767.193	2751
767.683	2757
768.172	2714
768.662	2743
769.152	2740
769.641	2746
770.131	2676
770.621	2695
771.111	2651
771.601	2657
772.09	2643
772.58	2611
773.07	2620
773.56	2645
774.05	2587
774.54	2565
775.031	2544
775.521	2528
776.011	2532
776.501	2546
776.991	2509
777.482	2542
777.972	2464
778.462	2461
778.953	2489
779.443	2465
779.933	2463
780.424	2420
780.914	2441
781.405	2442
781.895	2409
782.386	2406
782.877	2388
783.367	2342
783.858	2335
784.349	2343
784.839	2326
785.33	2346
785.821	2316
786.312	2300
786.803	2291
787.293	2290
787.784	2265
788.275	2230
788.766	2207
789.257	2256
789.748	2203
790.24	2183
790.731	2201
791.222	2174
791.713	2160
792.204	2168
792.696	2111
793.187	2140
793.678	2128
794.169	2083
794.661	2103
795.152	2083
795.644	2070
796.135	2070
796.627	2070
797.118	2033
797.61	2025
798.101	2000
798.593	2023
799.085	1987
799.576	1975
800.068	1950
800.56	1949
801.052	1911
801.544	1908
802.035	1917
802.527	1899
803.019	1887
803.511	1874
804.003	1854
804.495	1865
804.987	1838
805.479	1799
805.971	1818
806.464	1826
806.956	1785
807.448	1786
807.94	1775
808.433	1758
808.925	1757
809.417	1750
809.91	1749
810.402	1709
810.894	1736
811.387	1732
811.879	1699
812.372	1690
812.865	1672
813.357	1657
813.85	1654
814.342	1648
814.835	1654
815.328	1657
815.821	1629
816.313	1632
816.806	1639
817.299	1618
817.792	1638
818.285	1621
818.778	1649
819.271	1648
819.764	1620
820.257	1614
820.75	1613
821.243	1607
821.736	1581
822.229	1608
822.722	1598
823.216	1634
