Data from lamp3bck_Subt4__12__260.txt Node

Date: Fri Apr 04 11:04:19 CEST 2025
User: fys-lab-0081
Spectrometer: S04999
Trigger mode: 0
Resolution mode: 1024 pixels
Integration Time (sec): 1.000000E-1
Scans to average: 1
Nonlinearity correction enabled: false
Boxcar width: 0
Baseline correction enabled: true
XAxis mode: Wavelengths
Number of Pixels in Spectrum: 1024
>>>>>Begin Spectral Data<<<<<
336.42	0
336.877	0
337.334	3
337.792	7
338.249	4
338.706	12
339.164	11
339.621	8
340.079	5
340.536	8
340.994	3
341.452	8
341.909	8
342.367	8
342.825	11
343.283	8
343.741	14
344.198	7
344.656	7
345.114	12
345.572	5
346.03	7
346.488	8
346.947	10
347.405	13
347.863	12
348.321	9
348.779	15
349.238	11
349.696	15
350.154	11
350.613	16
351.071	14
351.53	13
351.988	17
352.447	15
352.905	15
353.364	16
353.823	21
354.282	17
354.74	21
355.199	21
355.658	20
356.117	22
356.576	20
357.035	24
357.494	20
357.953	19
358.412	21
358.871	24
359.33	31
359.789	27
360.249	27
360.708	34
361.167	22
361.626	35
362.086	30
362.545	28
363.005	27
363.464	36
363.924	38
364.383	40
364.843	43
365.303	37
365.762	40
366.222	41
366.682	38
367.142	38
367.601	44
368.061	46
368.521	49
368.981	46
369.441	46
369.901	43
370.361	49
370.821	54
371.282	46
371.742	44
372.202	47
372.662	52
373.123	52
373.583	51
374.043	58
374.504	54
374.964	58
375.425	56
375.885	56
376.346	64
376.806	60
377.267	64
377.728	60
378.188	65
378.649	70
379.11	69
379.571	69
380.032	74
380.493	72
380.954	76
381.414	78
381.876	80
382.337	81
382.798	80
383.259	86
383.72	84
384.181	95
384.642	95
385.104	100
385.565	102
386.026	106
386.488	111
386.949	113
387.411	118
387.872	116
388.334	116
388.795	118
389.257	124
389.719	123
390.181	125
390.642	132
391.104	134
391.566	133
392.028	142
392.49	145
392.952	142
393.414	145
393.876	153
394.338	160
394.8	153
395.262	163
395.724	164
396.186	166
396.648	172
397.111	162
397.573	169
398.035	170
398.498	179
398.96	180
399.423	178
399.885	185
400.348	184
400.81	193
401.273	194
401.736	193
402.198	207
402.661	210
403.124	216
403.587	220
404.049	222.5
404.512	225
404.975	232
405.438	228
405.901	228
406.364	231
406.827	242
407.29	235
407.754	235
408.217	225
408.68	237
409.143	240
409.607	239
410.07	238
410.533	243
410.997	248
411.46	256
411.924	248
412.387	249
412.851	262
413.314	275
413.778	272
414.242	274
414.705	289
415.169	285
415.633	289
416.097	291
416.561	292
417.024	296
417.488	287
417.952	290
418.416	286
418.88	295
419.344	288
419.809	289
420.273	309
420.737	288
421.201	297
421.665	300
422.13	297
422.594	310
423.059	312
423.523	316
423.987	319
424.452	336
424.916	340
425.381	349
425.846	361
426.31	351
426.775	356
427.24	367
427.704	357
428.169	368
428.634	366
429.099	356
429.564	359
430.029	369
430.494	367
430.959	369
431.424	356
431.889	368
432.354	378
432.819	375
433.284	383
433.75	383
434.215	401
434.68	407
435.146	414
435.611	423
436.077	439
436.542	450
437.008	461
437.473	459
437.939	465
438.404	477
438.87	486
439.336	473
439.801	475
440.267	483
440.733	490
441.199	492
441.665	487
442.131	505
442.596	486
443.062	506
443.529	521
443.995	525
444.461	532
444.927	554
445.393	556
445.859	587
446.325	584
446.792	621
447.258	622
447.724	636
448.191	671
448.657	670
449.124	687
449.59	684
450.057	717
450.523	727
450.99	740
451.457	738
451.923	747
452.39	737
452.857	752
453.324	750
453.791	759
454.257	763
454.724	772
455.191	760
455.658	756
456.125	788
456.592	767
457.059	785
457.527	789
457.994	809
458.461	810
458.928	825
459.396	827
459.863	852
460.33	850
460.798	855
461.265	868
461.732	854
462.2	877
462.668	872
463.135	886
463.603	864
464.07	889
464.538	861
465.006	887
465.474	858
465.941	869
466.409	877
466.877	858
467.345	879
467.813	863
468.281	871
468.749	877
469.217	873
469.685	882
470.153	895
470.621	897
471.09	892
471.558	931
472.026	922
472.494	952
472.963	962
473.431	987
473.9	1005
474.368	1030
474.837	1048
475.305	1062
475.774	1086
476.242	1113
476.711	1118
477.18	1142
477.648	1124
478.117	1147
478.586	1133
479.055	1139
479.524	1139
479.993	1137
480.462	1136
480.93	1139
481.399	1141
481.869	1145
482.338	1130
482.807	1145
483.276	1136
483.745	1138
484.214	1167
484.684	1172
485.153	1163
485.622	1172
486.092	1212
486.561	1179
487.031	1218
487.5	1244
487.97	1240
488.439	1269
488.909	1295
489.378	1339
489.848	1339
490.318	1369
490.787	1427
491.257	1444
491.727	1462
492.197	1485
492.667	1487
493.137	1506
493.607	1520
494.077	1528
494.547	1516
495.017	1501
495.487	1529
495.957	1566
496.427	1526
496.897	1533
497.368	1544
497.838	1532
498.308	1549
498.779	1556
499.249	1553
499.719	1569
500.19	1577
500.66	1585
501.131	1594
501.602	1627
502.072	1625
502.543	1624
503.014	1686
503.484	1680
503.955	1724
504.426	1778
504.897	1777
505.368	1810
505.838	1843
506.309	1885
506.78	1951
507.251	1974
507.722	2013
508.194	2048
508.665	2081
509.136	2078
509.607	2144
510.078	2177
510.549	2201
511.021	2253
511.492	2245
511.964	2271
512.435	2296
512.906	2284
513.378	2308
513.849	2337
514.321	2345
514.793	2364
515.264	2376
515.736	2404
516.208	2441
516.679	2453
517.151	2481
517.623	2498
518.095	2522
518.567	2545
519.038	2588
519.51	2583
519.982	2620
520.454	2648
520.927	2659
521.399	2688
521.871	2706
522.343	2724
522.815	2763
523.287	2762
523.76	2779
524.232	2815
524.704	2841
525.177	2797
525.649	2816
526.122	2845
526.594	2784
527.067	2852
527.539	2878
528.012	2853
528.484	2850
528.957	2848
529.43	2845
529.903	2833
530.375	2927
530.848	2843
531.321	2892
531.794	2882
532.267	2924
532.74	2885
533.213	2878
533.686	2919
534.159	2896
534.632	2961
535.105	2958
535.578	3011
536.051	3014
536.525	3020
536.998	3022
537.471	3073
537.945	3032
538.418	3067
538.891	3080
539.365	3135
539.838	3161
540.312	3152
540.786	3170
541.259	3162
541.733	3198
542.206	3199
542.68	3152
543.154	3139
543.628	3140
544.101	3223
544.575	3204
545.049	3118
545.523	3177
545.997	3156
546.471	3181
546.945	3142
547.419	3190
547.893	3065
548.367	3118
548.842	3092
549.316	3094
549.79	3113
550.264	3082
550.739	3127
551.213	3123
551.687	3119
552.162	3140
552.636	3114
553.111	3102
553.585	3174
554.06	3119
554.534	3189
555.009	3155
555.484	3212
555.958	3240
556.433	3247
556.908	3291
557.383	3246
557.858	3331
558.333	3333
558.807	3303
559.282	3327
559.757	3415
560.232	3440
560.708	3375
561.183	3368
561.658	3413
562.133	3399
562.608	3382
563.083	3468
563.559	3384
564.034	3391
564.509	3396
564.985	3409
565.46	3359
565.936	3412
566.411	3413
566.887	3359
567.362	3385
567.838	3358
568.313	3408
568.789	3378
569.265	3375
569.74	3384
570.216	3356
570.692	3411
571.168	3404
571.644	3400
572.12	3393
572.596	3423
573.071	3398
573.547	3476
574.024	3499
574.5	3503
574.976	3522
575.452	3573
575.928	3594
576.404	3608
576.881	3726
577.357	3669
577.833	3692
578.31	3774
578.786	3821
579.262	3901
579.739	3834
580.215	3938
580.692	3944
581.169	3928
581.645	3936
582.122	4031
582.598	3995
583.075	4008
583.552	4043
584.029	4045
584.506	4019
584.982	3997
585.459	4090
585.936	4033
586.413	4072
586.89	4116
587.367	4064
587.844	4115
588.321	4088
588.799	4102
589.276	4055
589.753	4108
590.23	4128
590.707	4119
591.185	4108
591.662	4090
592.139	4135
592.617	4193
593.094	4180
593.572	4200
594.049	4229
594.527	4271
595.004	4268
595.482	4373
595.96	4329
596.437	4322
596.915	4431
597.393	4377
597.871	4482
598.349	4409
598.826	4501
599.304	4510
599.782	4592
600.26	4528
600.738	4610
601.216	4582
601.694	4623
602.173	4672
602.651	4691
603.129	4640
603.607	4681
604.085	4723
604.564	4713
605.042	4711
605.52	4681
605.999	4789
606.477	4696
606.956	4693
607.434	4707.5
607.913	4722
608.391	4707
608.87	4710
609.348	4651
609.827	4668
610.306	4686
610.785	4678
611.263	4709
611.742	4673
612.221	4607
612.7	4650
613.179	4666
613.658	4615
614.137	4714
614.616	4756
615.095	4631
615.574	4686
616.053	4712
616.532	4674
617.011	4705
617.491	4703
617.97	4675
618.449	4749
618.928	4798
619.408	4753
619.887	4787
620.367	4786
620.846	4835
621.326	4832
621.805	4922
622.285	4901
622.764	4930
623.244	4941
623.724	4971
624.203	5009
624.683	4918
625.163	5012
625.643	4986
626.123	4949
626.602	5073
627.082	4940
627.562	4933
628.042	5039
628.522	5001
629.002	4999
629.482	5037
629.963	4998
630.443	4941
630.923	4955
631.403	5012
631.883	4987
632.364	4998
632.844	4951
633.324	4947
633.805	4950
634.285	4904
634.766	4886
635.246	4873
635.727	4873
636.207	4881
636.688	4899
637.168	4902
637.649	4832
638.13	4786
638.611	4815
639.091	4830
639.572	4840
640.053	4799
640.534	4833
641.015	4808
641.496	4717
641.977	4793
642.458	4733
642.939	4728
643.42	4731
643.901	4748
644.382	4785
644.863	4775
645.345	4776
645.826	4769
646.307	4764
646.788	4821
647.27	4756
647.751	4793
648.233	4843
648.714	4739
649.196	4863
649.677	4826
650.159	4830
650.64	4775
651.122	4857
651.603	4757
652.085	4792
652.567	4796
653.049	4738
653.53	4762
654.012	4807
654.494	4706
654.976	4740
655.458	4708
655.94	4711
656.422	4800
656.904	4735
657.386	4683
657.868	4678
658.35	4656
658.833	4698
659.315	4713
659.797	4649
660.279	4647
660.762	4678
661.244	4649
661.726	4602
662.209	4604
662.691	4605
663.174	4498
663.656	4509
664.139	4515
664.621	4492
665.104	4450
665.587	4479
666.069	4468
666.552	4453
667.035	4399
667.517	4428
668	4462
668.483	4450
668.966	4403
669.449	4383
669.932	4401
670.415	4459
670.898	4431
671.381	4432
671.864	4436
672.347	4394
672.83	4398
673.313	4422
673.797	4397
674.28	4461
674.763	4444
675.247	4434
675.73	4446
676.213	4489
676.697	4515
677.18	4516
677.664	4521
678.147	4513
678.631	4504
679.114	4545
679.598	4523
680.082	4546
680.565	4542
681.049	4529
681.533	4530
682.017	4587
682.5	4585
682.984	4602
683.468	4567
683.952	4484
684.436	4553
684.92	4489
685.404	4516
685.888	4546
686.372	4513
686.856	4521
687.341	4564
687.825	4503
688.309	4525
688.793	4526
689.278	4457
689.762	4510
690.246	4487
690.731	4500
691.215	4507
691.7	4377
692.184	4422
692.669	4410
693.153	4426
693.638	4357
694.122	4366
694.607	4400
695.092	4341
695.577	4379
696.061	4300
696.546	4288
697.031	4266
697.516	4303
698.001	4305
698.486	4269
698.971	4319
699.456	4221
699.941	4231
700.426	4219
700.911	4244
701.396	4207
701.881	4222
702.366	4188
702.852	4176
703.337	4192
703.822	4190
704.308	4181
704.793	4203
705.278	4200
705.764	4197
706.249	4159
706.735	4171
707.22	4206
707.706	4139
708.191	4214
708.677	4195
709.163	4167
709.648	4186
710.134	4231
710.62	4176
711.106	4142
711.592	4199
712.077	4191
712.563	4092
713.049	4094
713.535	4174
714.021	4134
714.507	4112
714.993	4074
715.479	4129
715.966	4079
716.452	4062
716.938	4073
717.424	3968
717.91	4058
718.397	4017
718.883	3985
719.369	3993
719.856	3971
720.342	3999
720.829	3928
721.315	3946
721.802	3923
722.288	3972
722.775	3833
723.262	3740
723.748	3894
724.235	3848
724.722	3899
725.208	3821
725.695	3837
726.182	3825
726.669	3763
727.156	3770
727.643	3734
728.13	3735
728.617	3722
729.104	3722
729.591	3689
730.078	3705
730.565	3718
731.052	3661
731.539	3682
732.027	3636
732.514	3590
733.001	3628
733.488	3613
733.976	3606
734.463	3597
734.951	3572
735.438	3618
735.926	3569
736.413	3578
736.901	3534
737.388	3563
737.876	3532
738.364	3489
738.851	3503
739.339	3498
739.827	3531
740.314	3437
740.802	3470
741.29	3500
741.778	3445
742.266	3451
742.754	3453
743.242	3485
743.73	3409
744.218	3410
744.706	3370
745.194	3404
745.682	3384
746.17	3413
746.659	3428
747.147	3333
747.635	3342
748.123	3340
748.612	3299
749.1	3272
749.589	3284
750.077	3258
750.566	3247
751.054	3259
751.543	3264
752.031	3200
752.52	3193
753.008	3130
753.497	3122
753.986	3122
754.474	3102
754.963	3140
755.452	3097
755.941	3059
756.43	3037
756.919	3024
757.408	3002
757.896	3016
758.385	3022
758.875	2999
759.364	2971
759.853	2953
760.342	2914
760.831	2975
761.32	2958
761.809	2915
762.299	2928
762.788	2935
763.277	2915
763.767	2850
764.256	2858
764.745	2808
765.235	2849
765.724	2770
766.214	2805
766.703	2789
767.193	2751
767.683	2753
768.172	2707
768.662	2734
769.152	2727
769.641	2744
770.131	2670
770.621	2689
771.111	2649
771.601	2654
772.09	2633
772.58	2609
773.07	2608
773.56	2634
774.05	2583
774.54	2570
775.031	2547
775.521	2527
776.011	2529
776.501	2545
776.991	2505
777.482	2527
777.972	2458
778.462	2455
778.953	2485
779.443	2455
779.933	2465
780.424	2422
780.914	2440
781.405	2444
781.895	2408
782.386	2402
782.877	2382
783.367	2337
783.858	2327
784.349	2336
784.839	2320
785.33	2338
785.821	2319
786.312	2296
786.803	2289
787.293	2282
787.784	2252
788.275	2228
788.766	2205
789.257	2254
789.748	2196
790.24	2176
790.731	2192
791.222	2165
791.713	2152
792.204	2163
792.696	2113
793.187	2147
793.678	2134
794.169	2084
794.661	2110
795.152	2091
795.644	2067
796.135	2065
796.627	2076
797.118	2035
797.61	2031
798.101	2001
798.593	2025
799.085	1984
799.576	1981
800.068	1950
800.56	1951
801.052	1907
801.544	1904
802.035	1919
802.527	1901
803.019	1888
803.511	1877
804.003	1857
804.495	1868
804.987	1840
805.479	1798
805.971	1816
806.464	1829
806.956	1784
807.448	1784
807.94	1780
808.433	1756
808.925	1759
809.417	1750
809.91	1753
810.402	1712
810.894	1732
811.387	1743
811.879	1700
812.372	1694
812.865	1667
813.357	1658
813.85	1651
814.342	1647
814.835	1649
815.328	1651
815.821	1631
816.313	1632
816.806	1629
817.299	1612
817.792	1632
818.285	1612
818.778	1644
819.271	1643
819.764	1615
820.257	1609
820.75	1610
821.243	1598
821.736	1586
822.229	1604
822.722	1599
823.216	1637
