Data from lamp3bck_Subt4__20__268.txt Node

Date: Fri Apr 04 11:04:20 CEST 2025
User: fys-lab-0081
Spectrometer: S04999
Trigger mode: 0
Resolution mode: 1024 pixels
Integration Time (sec): 1.000000E-1
Scans to average: 1
Nonlinearity correction enabled: false
Boxcar width: 0
Baseline correction enabled: true
XAxis mode: Wavelengths
Number of Pixels in Spectrum: 1024
>>>>>Begin Spectral Data<<<<<
336.42	2
336.877	2
337.334	3
337.792	6
338.249	4
338.706	9
339.164	8
339.621	5
340.079	8
340.536	8
340.994	4
341.452	10
341.909	8
342.367	8
342.825	11
343.283	6
343.741	10
344.198	2
344.656	8
345.114	12
345.572	4
346.03	11
346.488	6
346.947	10
347.405	12
347.863	11
348.321	7
348.779	9
349.238	15
349.696	13
350.154	12
350.613	15
351.071	13
351.53	9
351.988	15
352.447	14
352.905	14
353.364	16
353.823	26
354.282	19
354.74	20
355.199	19
355.658	19
356.117	24
356.576	21
357.035	20
357.494	19
357.953	17
358.412	24
358.871	25
359.33	25
359.789	26
360.249	28
360.708	32
361.167	27
361.626	32
362.086	27
362.545	32
363.005	29
363.464	35
363.924	32
364.383	36
364.843	38
365.303	38
365.762	40
366.222	43
366.682	38
367.142	38
367.601	43
368.061	47
368.521	45
368.981	44
369.441	43
369.901	40
370.361	45
370.821	49
371.282	48
371.742	47
372.202	49
372.662	54
373.123	48
373.583	51
374.043	55
374.504	57
374.964	53
375.425	57
375.885	64
376.346	67
376.806	59
377.267	64
377.728	60
378.188	66
378.649	68
379.11	64
379.571	67
380.032	71
380.493	73
380.954	78
381.414	77
381.876	83
382.337	81
382.798	77
383.259	89
383.72	88
384.181	97
384.642	95
385.104	94
385.565	104
386.026	105
386.488	109
386.949	108
387.411	116
387.872	112
388.334	116
388.795	115
389.257	123
389.719	122
390.181	130
390.642	131
391.104	133
391.566	134
392.028	136
392.49	144
392.952	143
393.414	144
393.876	150
394.338	156
394.8	153
395.262	153
395.724	164
396.186	163
396.648	172
397.111	170
397.573	170
398.035	166
398.498	179
398.96	177
399.423	180
399.885	183
400.348	183
400.81	192
401.273	189
401.736	189
402.198	203
402.661	209
403.124	215
403.587	215
404.049	221.5
404.512	228
404.975	232
405.438	231
405.901	230
406.364	227
406.827	239
407.29	231
407.754	232
408.217	225
408.68	231
409.143	237
409.607	238
410.07	234
410.533	237
410.997	245
411.46	253
411.924	247
412.387	250
412.851	259
413.314	272
413.778	272
414.242	274
414.705	280
415.169	280
415.633	283
416.097	287
416.561	285
417.024	294
417.488	281
417.952	290
418.416	285
418.88	293
419.344	285
419.809	286
420.273	299
420.737	287
421.201	296
421.665	302
422.13	299
422.594	306
423.059	312
423.523	316
423.987	318
424.452	335
424.916	338
425.381	345
425.846	354
426.31	349
426.775	358
427.24	365
427.704	355
428.169	362
428.634	366
429.099	357
429.564	358
430.029	364
430.494	362
430.959	359
431.424	358
431.889	369
432.354	370
432.819	368
433.284	384
433.75	385
434.215	399
434.68	398
435.146	408
435.611	427
436.077	440
436.542	445
437.008	458
437.473	460
437.939	463
438.404	479
438.87	472
439.336	468
439.801	471
440.267	480
440.733	487
441.199	483
441.665	488
442.131	500
442.596	488
443.062	507
443.529	511
443.995	522
444.461	536
444.927	552
445.393	550
445.859	577
446.325	583
446.792	620
447.258	619
447.724	635
448.191	659
448.657	662
449.124	681
449.59	680
450.057	705
450.523	719
450.99	734
451.457	731
451.923	747
452.39	730
452.857	749
453.324	746
453.791	748
454.257	752
454.724	766
455.191	760
455.658	745
456.125	779
456.592	761
457.059	778
457.527	785
457.994	807
458.461	808
458.928	819
459.396	821
459.863	848
460.33	846
460.798	849
461.265	861
461.732	854
462.2	879
462.668	869
463.135	877
463.603	857
464.07	887
464.538	857
465.006	874
465.474	851
465.941	865
466.409	871
466.877	845
467.345	875
467.813	859
468.281	862
468.749	875
469.217	871
469.685	879
470.153	886
470.621	887
471.09	886
471.558	924
472.026	920
472.494	944
472.963	959
473.431	981
473.9	999
474.368	1022
474.837	1036
475.305	1053
475.774	1083
476.242	1106
476.711	1109
477.18	1135
477.648	1123
478.117	1141
478.586	1128
479.055	1131
479.524	1133
479.993	1126
480.462	1129
480.93	1135
481.399	1132
481.869	1143
482.338	1121
482.807	1135
483.276	1139
483.745	1136
484.214	1160
484.684	1167
485.153	1160
485.622	1170
486.092	1203
486.561	1175
487.031	1211
487.5	1233
487.97	1239
488.439	1260
488.909	1289
489.378	1341
489.848	1336
490.318	1363
490.787	1419
491.257	1435
491.727	1457
492.197	1483
492.667	1474
493.137	1500
493.607	1511
494.077	1519
494.547	1506
495.017	1500
495.487	1528
495.957	1556
496.427	1523
496.897	1519
497.368	1536
497.838	1523
498.308	1536
498.779	1547
499.249	1560
499.719	1562
500.19	1565
500.66	1582
501.131	1585
501.602	1621
502.072	1614
502.543	1624
503.014	1681
503.484	1672
503.955	1715
504.426	1768
504.897	1768
505.368	1799
505.838	1834
506.309	1878
506.78	1936
507.251	1962
507.722	1998
508.194	2045
508.665	2072
509.136	2067
509.607	2133
510.078	2178
510.549	2187
511.021	2241
511.492	2240
511.964	2256
512.435	2292
512.906	2276
513.378	2297
513.849	2331
514.321	2333
514.793	2350
515.264	2365
515.736	2386
516.208	2426
516.679	2435
517.151	2473
517.623	2480
518.095	2517
518.567	2534
519.038	2575
519.51	2575
519.982	2612
520.454	2636
520.927	2648
521.399	2674
521.871	2695
522.343	2713
522.815	2748
523.287	2752
523.76	2769
524.232	2810
524.704	2825
525.177	2789
525.649	2799
526.122	2839
526.594	2768
527.067	2844
527.539	2871
528.012	2840
528.484	2834
528.957	2834
529.43	2829
529.903	2827
530.375	2917
530.848	2832
531.321	2868
531.794	2868
532.267	2926
532.74	2870
533.213	2865
533.686	2908
534.159	2888
534.632	2949
535.105	2952
535.578	2988
536.051	2994
536.525	3016
536.998	3003
537.471	3060
537.945	3013
538.418	3056
538.891	3069
539.365	3108
539.838	3142
540.312	3136
540.786	3155
541.259	3144
541.733	3188
542.206	3179
542.68	3133
543.154	3126
543.628	3124
544.101	3208
544.575	3184
545.049	3112
545.523	3164
545.997	3142
546.471	3170
546.945	3134
547.419	3178
547.893	3053
548.367	3101
548.842	3073
549.316	3085
549.79	3097
550.264	3070
550.739	3114
551.213	3106
551.687	3102
552.162	3131
552.636	3107
553.111	3086
553.585	3158
554.06	3104
554.534	3180
555.009	3137
555.484	3190
555.958	3218
556.433	3233
556.908	3277
557.383	3226
557.858	3316
558.333	3320
558.807	3291
559.282	3321
559.757	3402
560.232	3434
560.708	3358
561.183	3347
561.658	3392
562.133	3392
562.608	3364
563.083	3452
563.559	3356
564.034	3374
564.509	3378
564.985	3385
565.46	3338
565.936	3389
566.411	3399
566.887	3343
567.362	3365
567.838	3341
568.313	3386
568.789	3360
569.265	3352
569.74	3367
570.216	3344
570.692	3404
571.168	3385
571.644	3378
572.12	3372
572.596	3395
573.071	3379
573.547	3455
574.024	3483
574.5	3489
574.976	3507
575.452	3558
575.928	3574
576.404	3593
576.881	3709
577.357	3645
577.833	3664
578.31	3763
578.786	3808
579.262	3881
579.739	3821
580.215	3918
580.692	3917
581.169	3901
581.645	3914
582.122	4006
582.598	3974
583.075	3990
583.552	4020
584.029	4024
584.506	3999
584.982	3983
585.459	4067
585.936	4015
586.413	4054
586.89	4098
587.367	4035
587.844	4094
588.321	4063
588.799	4081
589.276	4027
589.753	4082
590.23	4113
590.707	4093
591.185	4093
591.662	4071
592.139	4116
592.617	4171
593.094	4163
593.572	4184
594.049	4208
594.527	4246
595.004	4250
595.482	4350
595.96	4314
596.437	4316
596.915	4415
597.393	4362
597.871	4450
598.349	4380
598.826	4471
599.304	4492
599.782	4570
600.26	4510
600.738	4585
601.216	4554
601.694	4594
602.173	4643
602.651	4674
603.129	4617
603.607	4657
604.085	4694
604.564	4690
605.042	4700
605.52	4664
605.999	4773
606.477	4662
606.956	4677
607.434	4683
607.913	4689
608.391	4682
608.87	4696
609.348	4633
609.827	4653
610.306	4665
610.785	4653
611.263	4676
611.742	4654
612.221	4586
612.7	4633
613.179	4646
613.658	4597
614.137	4696
614.616	4725
615.095	4610
615.574	4660
616.053	4690
616.532	4662
617.011	4681
617.491	4672
617.97	4662
618.449	4711
618.928	4757
619.408	4728
619.887	4766
620.367	4765
620.846	4805
621.326	4807
621.805	4892
622.285	4877
622.764	4916
623.244	4916
623.724	4937
624.203	4975
624.683	4885
625.163	4972
625.643	4958
626.123	4917
626.602	5044
627.082	4915
627.562	4913
628.042	5011
628.522	4984
629.002	4982
629.482	5010
629.963	4970
630.443	4912
630.923	4929
631.403	4974
631.883	4958
632.364	4979
632.844	4923
633.324	4917
633.805	4918
634.285	4881
634.766	4847
635.246	4854
635.727	4853
636.207	4862
636.688	4861
637.168	4879
637.649	4808
638.13	4757
638.611	4790
639.091	4800
639.572	4798
640.053	4777
640.534	4806
641.015	4776
641.496	4688
641.977	4761
642.458	4716
642.939	4712
643.42	4707
643.901	4731
644.382	4763
644.863	4752
645.345	4759
645.826	4741
646.307	4729
646.788	4793
647.27	4720
647.751	4767
648.233	4812
648.714	4712
649.196	4831
649.677	4810
650.159	4824
650.64	4754
651.122	4821
651.603	4727
652.085	4774
652.567	4778
653.049	4733
653.53	4726
654.012	4789
654.494	4691
654.976	4716
655.458	4691
655.94	4688
656.422	4767
656.904	4713
657.386	4656
657.868	4641
658.35	4628
658.833	4682
659.315	4684
659.797	4628
660.279	4621
660.762	4643
661.244	4609
661.726	4573
662.209	4576
662.691	4579
663.174	4473
663.656	4484
664.139	4498
664.621	4471
665.104	4431
665.587	4468
666.069	4449
666.552	4440
667.035	4384
667.517	4403
668	4440
668.483	4426
668.966	4370
669.449	4356
669.932	4376
670.415	4441
670.898	4402
671.381	4413
671.864	4407
672.347	4370
672.83	4380
673.313	4403
673.797	4377
674.28	4438
674.763	4424
675.247	4423
675.73	4408
676.213	4458
676.697	4499
677.18	4493
677.664	4501
678.147	4479
678.631	4491
679.114	4505
679.598	4505
680.082	4530
680.565	4522
681.049	4502
681.533	4508
682.017	4564
682.5	4566
682.984	4588
683.468	4556
683.952	4463
684.436	4520
684.92	4477
685.404	4504
685.888	4526
686.372	4478
686.856	4482
687.341	4538
687.825	4482
688.309	4500
688.793	4501
689.278	4442
689.762	4492
690.246	4466
690.731	4477
691.215	4489
691.7	4367
692.184	4397
692.669	4387
693.153	4399
693.638	4332
694.122	4336
694.607	4370
695.092	4320
695.577	4351
696.061	4273
696.546	4272
697.031	4244
697.516	4289
698.001	4288
698.486	4252
698.971	4298
699.456	4195
699.941	4200
700.426	4203
700.911	4231
701.396	4189
701.881	4214
702.366	4183
702.852	4168
703.337	4176
703.822	4162
704.308	4157
704.793	4184
705.278	4176
705.764	4179
706.249	4142
706.735	4155
707.22	4182
707.706	4112
708.191	4198
708.677	4186
709.163	4157
709.648	4177
710.134	4203
710.62	4150
711.106	4131
711.592	4183
712.077	4178
712.563	4083
713.049	4070
713.535	4156
714.021	4122
714.507	4091
714.993	4062
715.479	4116
715.966	4062
716.452	4060
716.938	4061
717.424	3935
717.91	4034
718.397	4000
718.883	3967
719.369	3972
719.856	3947
720.342	3991
720.829	3913
721.315	3914
721.802	3899
722.288	3948
722.775	3818
723.262	3726
723.748	3868
724.235	3827
724.722	3882
725.208	3803
725.695	3807
726.182	3801
726.669	3749
727.156	3754
727.643	3715
728.13	3721
728.617	3700
729.104	3694
729.591	3665
730.078	3691
730.565	3704
731.052	3657
731.539	3657
732.027	3625
732.514	3570
733.001	3610
733.488	3592
733.976	3578
734.463	3569
734.951	3562
735.438	3603
735.926	3558
736.413	3565
736.901	3511
737.388	3535
737.876	3515
738.364	3479
738.851	3484
739.339	3471
739.827	3504
740.314	3426
740.802	3453
741.29	3476
741.778	3429
742.266	3434
742.754	3433
743.242	3473
743.73	3398
744.218	3397
744.706	3351
745.194	3389
745.682	3367
746.17	3383
746.659	3396
747.147	3317
747.635	3331
748.123	3325
748.612	3279
749.1	3253
749.589	3270
750.077	3246
750.566	3219
751.054	3236
751.543	3242
752.031	3182
752.52	3184
753.008	3118
753.497	3105
753.986	3101
754.474	3087
754.963	3115
755.452	3071
755.941	3048
756.43	3032
756.919	3001
757.408	2984
757.896	3006
758.385	3008
758.875	2974
759.364	2955
759.853	2938
760.342	2890
760.831	2953
761.32	2948
761.809	2912
762.299	2917
762.788	2914
763.277	2902
763.767	2847
764.256	2836
764.745	2800
765.235	2833
765.724	2759
766.214	2794
766.703	2784
767.193	2731
767.683	2741
768.172	2695
768.662	2730
769.152	2718
769.641	2727
770.131	2644
770.621	2673
771.111	2629
771.601	2638
772.09	2620
772.58	2600
773.07	2595
773.56	2620
774.05	2569
774.54	2548
775.031	2534
775.521	2519
776.011	2515
776.501	2533
776.991	2490
777.482	2525
777.972	2460
778.462	2446
778.953	2471
779.443	2451
779.933	2449
780.424	2403
780.914	2420
781.405	2426
781.895	2400
782.386	2393
782.877	2370
783.367	2326
783.858	2313
784.349	2330
784.839	2312
785.33	2328
785.821	2305
786.312	2287
786.803	2277
787.293	2276
787.784	2238
788.275	2212
788.766	2196
789.257	2239
789.748	2185
790.24	2166
790.731	2190
791.222	2153
791.713	2151
792.204	2149
792.696	2095
793.187	2129
793.678	2114
794.169	2065
794.661	2093
795.152	2072
795.644	2044
796.135	2046
796.627	2059
797.118	2019
797.61	2017
798.101	1993
798.593	2019
799.085	1973
799.576	1957
800.068	1938
800.56	1938
801.052	1897
801.544	1895
802.035	1902
802.527	1888
803.019	1868
803.511	1863
804.003	1849
804.495	1853
804.987	1836
805.479	1791
805.971	1806
806.464	1815
806.956	1773
807.448	1774
807.94	1767
808.433	1753
808.925	1743
809.417	1741
809.91	1738
810.402	1699
810.894	1721
811.387	1721
811.879	1687
812.372	1682
812.865	1656
813.357	1644
813.85	1653
814.342	1642
814.835	1641
815.328	1635
815.821	1617
816.313	1619
816.806	1626
817.299	1607
817.792	1616
818.285	1601
818.778	1636
819.271	1635
819.764	1599
820.257	1604
820.75	1604
821.243	1593
821.736	1576
822.229	1593
822.722	1591
823.216	1625
