Data from lamp3bck_Subt4__26__274.txt Node

Date: Fri Apr 04 11:04:21 CEST 2025
User: fys-lab-0081
Spectrometer: S04999
Trigger mode: 0
Resolution mode: 1024 pixels
Integration Time (sec): 1.000000E-1
Scans to average: 1
Nonlinearity correction enabled: false
Boxcar width: 0
Baseline correction enabled: true
XAxis mode: Wavelengths
Number of Pixels in Spectrum: 1024
>>>>>Begin Spectral Data<<<<<
336.42	5
336.877	6
337.334	6
337.792	8
338.249	7
338.706	12
339.164	8
339.621	5
340.079	9
340.536	2
340.994	8
341.452	7
341.909	8
342.367	7
342.825	12
343.283	8
343.741	10
344.198	8
344.656	8
345.114	8
345.572	7
346.03	11
346.488	6
346.947	11
347.405	14
347.863	12
348.321	11
348.779	13
349.238	15
349.696	14
350.154	9
350.613	10
351.071	15
351.53	16
351.988	18
352.447	17
352.905	14
353.364	16
353.823	23
354.282	19
354.74	18
355.199	18
355.658	22
356.117	20
356.576	23
357.035	21
357.494	21
357.953	20
358.412	23
358.871	29
359.33	30
359.789	25
360.249	31
360.708	32
361.167	26
361.626	31
362.086	34
362.545	30
363.005	30
363.464	38
363.924	33
364.383	38
364.843	40
365.303	33
365.762	41
366.222	40
366.682	41
367.142	40
367.601	45
368.061	44
368.521	44
368.981	46
369.441	45
369.901	44
370.361	50
370.821	53
371.282	46
371.742	48
372.202	51
372.662	47
373.123	54
373.583	54
374.043	53
374.504	57
374.964	53
375.425	56
375.885	59
376.346	61
376.806	57
377.267	64
377.728	55
378.188	63
378.649	67
379.11	69
379.571	66
380.032	73
380.493	73
380.954	77
381.414	76
381.876	83
382.337	81
382.798	83
383.259	89
383.72	87
384.181	95
384.642	95
385.104	95
385.565	99
386.026	104
386.488	109
386.949	108
387.411	114
387.872	112
388.334	116
388.795	116
389.257	122
389.719	121
390.181	128
390.642	130
391.104	132
391.566	130
392.028	141
392.49	141
392.952	138
393.414	141
393.876	156
394.338	159
394.8	152
395.262	160
395.724	166
396.186	165
396.648	171
397.111	162
397.573	168
398.035	168
398.498	182
398.96	172
399.423	177
399.885	181
400.348	186
400.81	195
401.273	196
401.736	189
402.198	204
402.661	210
403.124	209
403.587	217
404.049	222
404.512	227
404.975	230
405.438	226
405.901	225
406.364	228
406.827	241
407.29	234
407.754	232
408.217	227
408.68	231
409.143	236
409.607	234
410.07	236
410.533	240
410.997	253
411.46	249
411.924	246
412.387	246
412.851	262
413.314	269
413.778	266
414.242	268
414.705	288
415.169	282
415.633	286
416.097	285
416.561	286
417.024	297
417.488	284
417.952	293
418.416	282
418.88	294
419.344	286
419.809	288
420.273	295
420.737	285
421.201	293
421.665	299
422.13	296
422.594	308
423.059	313
423.523	313
423.987	315
424.452	329
424.916	333
425.381	345
425.846	351
426.31	355
426.775	356
427.24	367
427.704	359
428.169	367
428.634	364
429.099	356
429.564	356
430.029	358
430.494	360
430.959	364
431.424	356
431.889	368
432.354	370
432.819	367
433.284	378
433.75	382
434.215	401
434.68	396
435.146	408
435.611	424
436.077	438
436.542	444
437.008	453
437.473	460
437.939	462
438.404	473
438.87	478
439.336	467
439.801	471
440.267	474
440.733	484
441.199	485
441.665	490
442.131	500
442.596	484
443.062	502
443.529	513
443.995	521
444.461	529
444.927	545
445.393	549
445.859	581
446.325	582
446.792	619
447.258	613
447.724	634
448.191	658
448.657	662
449.124	684
449.59	674
450.057	708
450.523	716
450.99	733
451.457	729
451.923	742
452.39	733
452.857	751
453.324	740
453.791	750
454.257	748
454.724	764
455.191	760
455.658	754
456.125	779
456.592	765
457.059	783
457.527	781
457.994	810
458.461	804
458.928	819
459.396	819
459.863	848
460.33	844
460.798	851
461.265	856
461.732	849
462.2	875
462.668	863
463.135	881
463.603	853
464.07	882
464.538	856
465.006	881
465.474	856
465.941	859
466.409	872
466.877	845
467.345	870
467.813	853
468.281	855
468.749	873
469.217	866
469.685	874
470.153	882
470.621	881
471.09	892
471.558	927
472.026	918
472.494	941
472.963	951
473.431	979
473.9	998
474.368	1017
474.837	1040
475.305	1057
475.774	1078
476.242	1099
476.711	1106
477.18	1133
477.648	1116
478.117	1130
478.586	1120
479.055	1127
479.524	1131
479.993	1126
480.462	1129
480.93	1133
481.399	1134
481.869	1135
482.338	1117
482.807	1137
483.276	1133
483.745	1127
484.214	1153
484.684	1160
485.153	1160
485.622	1166
486.092	1198
486.561	1174
487.031	1210
487.5	1237
487.97	1234
488.439	1257
488.909	1284
489.378	1338
489.848	1339
490.318	1356
490.787	1408
491.257	1445
491.727	1454
492.197	1483
492.667	1476
493.137	1504
493.607	1508
494.077	1518
494.547	1494
495.017	1490
495.487	1520
495.957	1554
496.427	1520
496.897	1514
497.368	1539
497.838	1523
498.308	1533
498.779	1549
499.249	1548
499.719	1554
500.19	1564
500.66	1579
501.131	1579
501.602	1618
502.072	1615
502.543	1618
503.014	1676
503.484	1664
503.955	1709
504.426	1766
504.897	1763
505.368	1805
505.838	1833
506.309	1873
506.78	1938
507.251	1963
507.722	1999
508.194	2043
508.665	2065
509.136	2062
509.607	2137
510.078	2161
510.549	2182
511.021	2239
511.492	2238
511.964	2252
512.435	2284
512.906	2262
513.378	2282
513.849	2325
514.321	2334
514.793	2342
515.264	2361
515.736	2387
516.208	2423
516.679	2433
517.151	2467
517.623	2480
518.095	2508
518.567	2525
519.038	2574
519.51	2570
519.982	2604
520.454	2632
520.927	2645
521.399	2673
521.871	2702
522.343	2706
522.815	2738
523.287	2749
523.76	2753
524.232	2802
524.704	2825
525.177	2780
525.649	2802
526.122	2827
526.594	2756
527.067	2837
527.539	2857
528.012	2835
528.484	2818
528.957	2829
529.43	2827
529.903	2814
530.375	2903
530.848	2824
531.321	2857
531.794	2858
532.267	2910
532.74	2863
533.213	2861
533.686	2905
534.159	2883
534.632	2946
535.105	2943
535.578	2982
536.051	2977
536.525	3001
536.998	2993
537.471	3053
537.945	3015
538.418	3056
538.891	3068
539.365	3115
539.838	3134
540.312	3125
540.786	3147
541.259	3140
541.733	3187
542.206	3180
542.68	3118
543.154	3114
543.628	3118
544.101	3207
544.575	3182
545.049	3097
545.523	3161
545.997	3138
546.471	3159
546.945	3116
547.419	3167
547.893	3044
548.367	3101
548.842	3068
549.316	3080
549.79	3097
550.264	3063
550.739	3106
551.213	3106
551.687	3096
552.162	3125
552.636	3087
553.111	3077
553.585	3146
554.06	3097
554.534	3169
555.009	3133
555.484	3189
555.958	3214
556.433	3232
556.908	3272
557.383	3224
557.858	3308
558.333	3312
558.807	3280
559.282	3314
559.757	3399
560.232	3421
560.708	3357
561.183	3339
561.658	3376
562.133	3377
562.608	3356
563.083	3430
563.559	3349
564.034	3369
564.509	3372
564.985	3388
565.46	3335
565.936	3381
566.411	3395
566.887	3333
567.362	3346
567.838	3331
568.313	3389
568.789	3362
569.265	3358
569.74	3358
570.216	3336
570.692	3387
571.168	3377
571.644	3385
572.12	3365
572.596	3399
573.071	3385
573.547	3447
574.024	3479
574.5	3485
574.976	3498
575.452	3546
575.928	3571
576.404	3581
576.881	3691
577.357	3637
577.833	3665
578.31	3752
578.786	3797
579.262	3880
579.739	3814
580.215	3918
580.692	3920
581.169	3895
581.645	3898
582.122	3999
582.598	3969
583.075	3978
583.552	4006
584.029	4023
584.506	3996
584.982	3968
585.459	4059
585.936	4010
586.413	4041
586.89	4085
587.367	4036
587.844	4085
588.321	4065
588.799	4074
589.276	4033
589.753	4079
590.23	4100
590.707	4082
591.185	4083
591.662	4062
592.139	4101
592.617	4165
593.094	4152
593.572	4168
594.049	4202
594.527	4251
595.004	4242
595.482	4341
595.96	4309
596.437	4300
596.915	4412
597.393	4347
597.871	4443
598.349	4381
598.826	4469
599.304	4483
599.782	4567
600.26	4501
600.738	4569
601.216	4553
601.694	4588
602.173	4631
602.651	4673
603.129	4619
603.607	4643
604.085	4686
604.564	4685
605.042	4691
605.52	4649
605.999	4761
606.477	4663
606.956	4661
607.434	4667.5
607.913	4674
608.391	4676
608.87	4687
609.348	4627
609.827	4648
610.306	4656
610.785	4652
611.263	4670
611.742	4650
612.221	4566
612.7	4621
613.179	4638
613.658	4584
614.137	4685
614.616	4721
615.095	4603
615.574	4649
616.053	4682
616.532	4665
617.011	4669
617.491	4666
617.97	4644
618.449	4705
618.928	4741
619.408	4724
619.887	4759
620.367	4766
620.846	4802
621.326	4789
621.805	4873
622.285	4863
622.764	4901
623.244	4908
623.724	4942
624.203	4973
624.683	4875
625.163	4968
625.643	4946
626.123	4903
626.602	5029
627.082	4908
627.562	4901
628.042	5007
628.522	4973
629.002	4967
629.482	4989
629.963	4969
630.443	4902
630.923	4920
631.403	4966
631.883	4949
632.364	4966
632.844	4919
633.324	4905
633.805	4914
634.285	4864
634.766	4847
635.246	4844
635.727	4845
636.207	4849
636.688	4863
637.168	4876
637.649	4814
638.13	4758
638.611	4784
639.091	4796
639.572	4800
640.053	4768
640.534	4801
641.015	4764
641.496	4690
641.977	4758
642.458	4713
642.939	4697
643.42	4707
643.901	4713
644.382	4747
644.863	4745
645.345	4745
645.826	4737
646.307	4726
646.788	4799
647.27	4723
647.751	4755
648.233	4819
648.714	4707
649.196	4828
649.677	4798
650.159	4809
650.64	4746
651.122	4820
651.603	4729
652.085	4762
652.567	4766
653.049	4717
653.53	4715
654.012	4777
654.494	4681
654.976	4706
655.458	4684
655.94	4684
656.422	4754
656.904	4706
657.386	4645
657.868	4633
658.35	4613
658.833	4665
659.315	4672
659.797	4605
660.279	4610
660.762	4644
661.244	4603
661.726	4579
662.209	4575
662.691	4570
663.174	4478
663.656	4484
664.139	4497
664.621	4455
665.104	4414
665.587	4446
666.069	4441
666.552	4421
667.035	4376
667.517	4391
668	4434
668.483	4424
668.966	4369
669.449	4351
669.932	4377
670.415	4443
670.898	4393
671.381	4401
671.864	4398
672.347	4358
672.83	4366
673.313	4386
673.797	4372
674.28	4428
674.763	4415
675.247	4405
675.73	4403
676.213	4438
676.697	4484
677.18	4477
677.664	4479
678.147	4483
678.631	4480
679.114	4508
679.598	4496
680.082	4530
680.565	4508
681.049	4492
681.533	4492
682.017	4560
682.5	4557
682.984	4575
683.468	4550
683.952	4455
684.436	4524
684.92	4460
685.404	4482
685.888	4511
686.372	4480
686.856	4487
687.341	4535
687.825	4468
688.309	4488
688.793	4488
689.278	4434
689.762	4480
690.246	4457
690.731	4470
691.215	4479
691.7	4359
692.184	4389
692.669	4376
693.153	4384
693.638	4325
694.122	4338
694.607	4363
695.092	4303
695.577	4343
696.061	4273
696.546	4277
697.031	4242
697.516	4283
698.001	4295
698.486	4247
698.971	4291
699.456	4194
699.941	4192
700.426	4185
700.911	4227
701.396	4189
701.881	4199
702.366	4182
702.852	4155
703.337	4177
703.822	4163
704.308	4153
704.793	4178
705.278	4167
705.764	4170
706.249	4138
706.735	4142
707.22	4180
707.706	4111
708.191	4182
708.677	4178
709.163	4149
709.648	4167
710.134	4209
710.62	4145
711.106	4124
711.592	4166
712.077	4163
712.563	4068
713.049	4070
713.535	4134
714.021	4116
714.507	4093
714.993	4052
715.479	4105
715.966	4044
716.452	4042
716.938	4051
717.424	3941
717.91	4038
718.397	3991
718.883	3960
719.369	3959
719.856	3941
720.342	3976
720.829	3907
721.315	3912
721.802	3898
722.288	3947
722.775	3802
723.262	3704
723.748	3858
724.235	3817
724.722	3858
725.208	3789
725.695	3802
726.182	3794
726.669	3734
727.156	3743
727.643	3710
728.13	3718
728.617	3701
729.104	3689
729.591	3659
730.078	3685
730.565	3693
731.052	3636
731.539	3650
732.027	3613
732.514	3568
733.001	3603
733.488	3583
733.976	3576
734.463	3569
734.951	3556
735.438	3589
735.926	3554
736.413	3554
736.901	3501
737.388	3537
737.876	3513
738.364	3480
738.851	3477
739.339	3468
739.827	3512
740.314	3417
740.802	3446
741.29	3477
741.778	3426
742.266	3423
742.754	3424
743.242	3456
743.73	3393
744.218	3395
744.706	3345
745.194	3375
745.682	3365
746.17	3389
746.659	3403
747.147	3320
747.635	3331
748.123	3316
748.612	3275
749.1	3245
749.589	3259
750.077	3231
750.566	3210
751.054	3225
751.543	3236
752.031	3175
752.52	3162
753.008	3108
753.497	3099
753.986	3100
754.474	3090
754.963	3115
755.452	3063
755.941	3031
756.43	3019
756.919	3003
757.408	2978
757.896	2986
758.385	3000
758.875	2971
759.364	2949
759.853	2932
760.342	2892
760.831	2953
761.32	2934
761.809	2902
762.299	2918
762.788	2912
763.277	2900
763.767	2838
764.256	2836
764.745	2790
765.235	2834
765.724	2756
766.214	2793
766.703	2767
767.193	2724
767.683	2735
768.172	2687
768.662	2706
769.152	2717
769.641	2719
770.131	2645
770.621	2666
771.111	2629
771.601	2629
772.09	2610
772.58	2585
773.07	2594
773.56	2617
774.05	2560
774.54	2544
775.031	2522
775.521	2504
776.011	2505
776.501	2522
776.991	2482
777.482	2514
777.972	2438
778.462	2431
778.953	2456
779.443	2448
779.933	2445
780.424	2396
780.914	2416
781.405	2424
781.895	2390
782.386	2386
782.877	2373
783.367	2323
783.858	2305
784.349	2309
784.839	2299
785.33	2319
785.821	2306
786.312	2273
786.803	2278
787.293	2275
787.784	2234
788.275	2208
788.766	2199
789.257	2236
789.748	2183
790.24	2164
790.731	2172
791.222	2145
791.713	2133
792.204	2144
792.696	2096
793.187	2125
793.678	2110
794.169	2060
794.661	2087
795.152	2066
795.644	2049
796.135	2046
796.627	2056
797.118	2013
797.61	2002
798.101	1988
798.593	2011
799.085	1962
799.576	1954
800.068	1932
800.56	1936
801.052	1893
801.544	1881
802.035	1894
802.527	1876
803.019	1863
803.511	1847
804.003	1842
804.495	1850
804.987	1820
805.479	1783
805.971	1794
806.464	1809
806.956	1767
807.448	1768
807.94	1760
808.433	1742
808.925	1739
809.417	1738
809.91	1738
810.402	1696
810.894	1713
811.387	1721
811.879	1682
812.372	1673
812.865	1658
813.357	1646
813.85	1639
814.342	1627
814.835	1631
815.328	1637
815.821	1613
816.313	1610
816.806	1610
817.299	1600
817.792	1613
818.285	1600
818.778	1629
819.271	1633
819.764	1597
820.257	1598
820.75	1599
821.243	1579
821.736	1565
822.229	1585
822.722	1587
823.216	1618
