Data from lamp5helium_zwak_Subt4__40__195.txt Node

Date: Wed Apr 09 10:14:04 CEST 2025
User: fys-lab-0081
Spectrometer: S04999
Trigger mode: 0
Resolution mode: 1024 pixels
Integration Time (sec): 1.000000E-1
Scans to average: 1
Nonlinearity correction enabled: false
Boxcar width: 0
Baseline correction enabled: true
XAxis mode: Wavelengths
Number of Pixels in Spectrum: 1024
>>>>>Begin Spectral Data<<<<<
336.42	2
336.877	-2
337.334	-1
337.792	1
338.249	4
338.706	4
339.164	-2
339.621	-1
340.079	0
340.536	3
340.994	8
341.452	-5
341.909	-3
342.367	-2
342.825	0
343.283	-1
343.741	-3
344.198	1
344.656	0
345.114	0
345.572	3
346.03	2
346.488	2
346.947	-3
347.405	2
347.863	0
348.321	7
348.779	-1
349.238	2
349.696	2
350.154	-1
350.613	4
351.071	1
351.53	4
351.988	4
352.447	2
352.905	0
353.364	-5
353.823	4
354.282	1
354.74	-1
355.199	5
355.658	0
356.117	1
356.576	8
357.035	2
357.494	4
357.953	4
358.412	3
358.871	-5
359.33	-3
359.789	1
360.249	-1
360.708	2
361.167	-1
361.626	4
362.086	4
362.545	4
363.005	4
363.464	-5
363.924	-4
364.383	5
364.843	1
365.303	1
365.762	0
366.222	-1
366.682	3
367.142	6
367.601	3
368.061	-3
368.521	5
368.981	3
369.441	2
369.901	4
370.361	4
370.821	4
371.282	5
371.742	0
372.202	4
372.662	6
373.123	6
373.583	-1
374.043	2
374.504	1
374.964	1
375.425	0
375.885	1
376.346	6
376.806	1
377.267	6
377.728	6
378.188	1
378.649	7
379.11	4
379.571	4
380.032	1
380.493	0
380.954	6
381.414	2
381.876	6
382.337	6
382.798	6
383.259	14
383.72	1
384.181	5
384.642	2
385.104	12
385.565	14
386.026	7
386.488	5
386.949	8
387.411	7
387.872	2
388.334	7
388.795	7
389.257	6
389.719	8
390.181	5
390.642	8
391.104	4
391.566	7
392.028	12
392.49	3
392.952	9
393.414	13
393.876	12
394.338	8
394.8	5
395.262	9
395.724	14
396.186	10
396.648	11
397.111	13
397.573	8
398.035	18
398.498	13
398.96	9
399.423	11
399.885	12
400.348	17
400.81	18
401.273	8
401.736	14
402.198	12
402.661	12
403.124	13
403.587	15
404.049	15
404.512	15
404.975	18
405.438	13
405.901	19
406.364	21
406.827	17
407.29	18
407.754	17
408.217	18
408.68	14
409.143	16
409.607	22
410.07	21
410.533	20
410.997	22
411.46	19
411.924	19
412.387	21
412.851	17
413.314	22
413.778	19
414.242	20
414.705	21
415.169	24
415.633	19
416.097	20
416.561	21
417.024	29
417.488	30
417.952	26
418.416	28
418.88	22
419.344	27
419.809	22
420.273	26
420.737	24
421.201	22
421.665	30
422.13	26
422.594	27
423.059	27
423.523	29
423.987	31
424.452	29
424.916	27
425.381	28
425.846	30
426.31	32
426.775	34
427.24	32
427.704	28
428.169	38
428.634	32
429.099	31
429.564	30
430.029	38
430.494	35
430.959	33
431.424	35
431.889	36
432.354	36
432.819	34
433.284	39
433.75	36
434.215	38
434.68	43
435.146	41
435.611	43
436.077	41
436.542	46
437.008	45
437.473	48
437.939	49
438.404	49
438.87	50
439.336	47
439.801	50
440.267	48
440.733	53
441.199	59
441.665	52
442.131	56
442.596	52
443.062	51
443.529	57
443.995	54
444.461	54
444.927	61
445.393	63
445.859	64
446.325	65
446.792	75
447.258	67
447.724	73
448.191	76
448.657	73
449.124	77
449.59	78
450.057	83
450.523	78
450.99	80
451.457	80
451.923	86
452.39	84
452.857	88
453.324	80
453.791	85
454.257	93
454.724	89
455.191	87
455.658	89
456.125	93
456.592	93
457.059	95
457.527	94
457.994	101
458.461	99
458.928	103
459.396	101
459.863	105
460.33	107
460.798	106
461.265	104
461.732	109
462.2	110
462.668	112
463.135	112
463.603	107
464.07	104
464.538	113
465.006	119
465.474	108
465.941	109
466.409	110
466.877	109
467.345	119
467.813	110
468.281	115
468.749	114
469.217	114
469.685	113
470.153	117
470.621	116
471.09	123
471.558	123
472.026	127
472.494	127
472.963	131
473.431	136
473.9	140
474.368	146
474.837	147
475.305	144
475.774	149
476.242	162
476.711	154
477.18	158
477.648	154
478.117	162
478.586	160
479.055	153
479.524	162
479.993	164
480.462	156
480.93	163
481.399	158
481.869	165
482.338	168
482.807	163
483.276	165
483.745	168
484.214	168
484.684	172
485.153	170
485.622	173
486.092	181
486.561	178
487.031	174
487.5	183
487.97	189
488.439	199
488.909	204
489.378	207
489.848	206
490.318	216
490.787	219
491.257	232
491.727	227
492.197	234
492.667	235
493.137	235
493.607	239
494.077	238
494.547	234
495.017	241
495.487	245
495.957	250
496.427	244
496.897	243
497.368	249
497.838	252
498.308	254
498.779	248
499.249	257
499.719	252
500.19	264
500.66	264
501.131	263
501.602	270
502.072	268
502.543	277
503.014	289
503.484	284
503.955	294
504.426	305
504.897	310
505.368	313
505.838	316
506.309	329
506.78	339
507.251	347
507.722	351
508.194	362
508.665	367
509.136	362
509.607	376
510.078	384
510.549	391
511.021	399
511.492	398
511.964	406
512.435	411
512.906	407
513.378	417
513.849	422
514.321	424
514.793	426
515.264	436
515.736	438
516.208	443
516.679	451
517.151	449
517.623	454
518.095	463
518.567	475
519.038	482
519.51	480
519.982	497
520.454	498
520.927	503
521.399	508
521.871	517
522.343	528
522.815	529
523.287	524
523.76	531
524.232	537
524.704	544
525.177	537
525.649	544
526.122	547
526.594	540
527.067	557
527.539	561
528.012	558
528.484	559
528.957	566
529.43	562
529.903	557
530.375	582
530.848	575
531.321	579
531.794	571
532.267	586
532.74	587
533.213	586
533.686	599
534.159	585
534.632	603
535.105	602
535.578	617
536.051	626
536.525	621
536.998	633
537.471	645
537.945	639
538.418	654
538.891	651
539.365	666
539.838	670
540.312	669
540.786	679
541.259	673
541.733	679
542.206	680
542.68	667
543.154	677
543.628	669
544.101	694
544.575	693
545.049	676
545.523	688
545.997	693
546.471	699
546.945	695
547.419	706
547.893	684
548.367	687
548.842	687
549.316	691
549.79	702
550.264	692
550.739	703
551.213	699
551.687	700
552.162	709
552.636	711
553.111	703
553.585	724
554.06	715
554.534	724
555.009	726
555.484	743
555.958	751
556.433	752
556.908	753
557.383	755
557.858	781
558.333	781
558.807	780
559.282	783
559.757	811
560.232	813
560.708	795
561.183	795
561.658	805
562.133	807
562.608	799
563.083	819
563.559	800
564.034	815
564.509	804
564.985	813
565.46	812
565.936	824
566.411	831
566.887	825
567.362	825
567.838	824
568.313	832
568.789	820
569.265	827
569.74	836
570.216	829
570.692	846
571.168	844
571.644	838
572.12	843
572.596	855
573.071	856
573.547	873
574.024	890
574.5	901
574.976	906
575.452	923
575.928	930
576.404	930
576.881	955
577.357	943
577.833	949
578.31	973
578.786	993
579.262	1012
579.739	1002
580.215	1028
580.692	1014
581.169	1014
581.645	1019
582.122	1049
582.598	1040
583.075	1043
583.552	1053
584.029	1053
584.506	1056
584.982	1049
585.459	1072
585.936	1066
586.413	1073
586.89	1096
587.367	1088
587.844	1106
588.321	1100
588.799	1100
589.276	1085
589.753	1102
590.23	1108
590.707	1113
591.185	1108
591.662	1106
592.139	1126
592.617	1147
593.094	1144
593.572	1146
594.049	1159
594.527	1171
595.004	1187
595.482	1215
595.96	1199
596.437	1197
596.915	1234
597.393	1218
597.871	1253
598.349	1231
598.826	1260
599.304	1261
599.782	1286
600.26	1272
600.738	1302
601.216	1300
601.694	1318
602.173	1340
602.651	1343
603.129	1320
603.607	1335
604.085	1338
604.564	1337
605.042	1346
605.52	1330
605.999	1373
606.477	1341
606.956	1349
607.434	1357
607.913	1365
608.391	1365
608.87	1368
609.348	1357
609.827	1357
610.306	1361
610.785	1365
611.263	1377
611.742	1367
612.221	1355
612.7	1367
613.179	1380
613.658	1356
614.137	1382
614.616	1387
615.095	1362
615.574	1382
616.053	1407
616.532	1393
617.011	1396
617.491	1400
617.97	1416
618.449	1442
618.928	1449
619.408	1435
619.887	1446
620.367	1459
620.846	1479
621.326	1467
621.805	1508
622.285	1504
622.764	1518
623.244	1518
623.724	1525
624.203	1529
624.683	1504
625.163	1536
625.643	1536
626.123	1528
626.602	1561
627.082	1522
627.562	1530
628.042	1565
628.522	1548
629.002	1544
629.482	1555
629.963	1557
630.443	1546
630.923	1563
631.403	1566
631.883	1571
632.364	1574
632.844	1547
633.324	1567
633.805	1574
634.285	1566
634.766	1558
635.246	1551
635.727	1555
636.207	1561
636.688	1572
637.168	1577
637.649	1544
638.13	1536
638.611	1559
639.091	1560
639.572	1541
640.053	1542
640.534	1556
641.015	1549
641.496	1537
641.977	1560
642.458	1543
642.939	1547
643.42	1553
643.901	1569
644.382	1586
644.863	1580
645.345	1594
645.826	1594
646.307	1608
646.788	1632
647.27	1615
647.751	1619
648.233	1628
648.714	1584
649.196	1624
649.677	1631
650.159	1633
650.64	1615
651.122	1636
651.603	1612
652.085	1630
652.567	1625
653.049	1614
653.53	1611
654.012	1633
654.494	1612
654.976	1624
655.458	1630
655.94	1632
656.422	1659
656.904	1633
657.386	1614
657.868	1628
658.35	1621
658.833	1636
659.315	1641
659.797	1631
660.279	1629
660.762	1649
661.244	1632
661.726	1621
662.209	1624
662.691	1626
663.174	1592
663.656	1604
664.139	1600
664.621	1589
665.104	1575
665.587	1590
666.069	1600
666.552	1602
667.035	1583
667.517	1590
668	1607
668.483	1605
668.966	1597
669.449	1588
669.932	1590
670.415	1603
670.898	1593
671.381	1603
671.864	1618
672.347	1607
672.83	1597
673.313	1607
673.797	1604
674.28	1634
674.763	1643
675.247	1662
675.73	1658
676.213	1680
676.697	1690
677.18	1689
677.664	1696
678.147	1695
678.631	1697
679.114	1702
679.598	1692
680.082	1716
680.565	1718
681.049	1708
681.533	1705
682.017	1718
682.5	1716
682.984	1730
683.468	1728
683.952	1684
684.436	1725
684.92	1712
685.404	1723
685.888	1745
686.372	1735
686.856	1750
687.341	1780
687.825	1761
688.309	1760
688.793	1759
689.278	1743
689.762	1766
690.246	1747
690.731	1756
691.215	1763
691.7	1718
692.184	1741
692.669	1755
693.153	1771
693.638	1750
694.122	1745
694.607	1749
695.092	1730
695.577	1754
696.061	1721
696.546	1711
697.031	1690
697.516	1706
698.001	1706
698.486	1699
698.971	1730
699.456	1692
699.941	1699
700.426	1693
700.911	1714
701.396	1706
701.881	1727
702.366	1726
702.852	1721
703.337	1735
703.822	1731
704.308	1740
704.793	1747
705.278	1751
705.764	1754
706.249	1751
706.735	1738
707.22	1763
707.706	1735
708.191	1767
708.677	1768
709.163	1756
709.648	1766
710.134	1783
710.62	1764
711.106	1766
711.592	1783
712.077	1781
712.563	1741
713.049	1734
713.535	1770
714.021	1761
714.507	1761
714.993	1746
715.479	1761
715.966	1746
716.452	1747
716.938	1742
717.424	1703
717.91	1746
718.397	1735
718.883	1726
719.369	1723
719.856	1700
720.342	1740
720.829	1727
721.315	1741
721.802	1739
722.288	1746
722.775	1678
723.262	1628
723.748	1706
724.235	1714
724.722	1741
725.208	1715
725.695	1709
726.182	1699
726.669	1669
727.156	1678
727.643	1667
728.13	1655
728.617	1635
729.104	1635
729.591	1620
730.078	1630
730.565	1638
731.052	1606
731.539	1615
732.027	1610
732.514	1601
733.001	1618
733.488	1612
733.976	1594
734.463	1589
734.951	1585
735.438	1599
735.926	1595
736.413	1620
736.901	1605
737.388	1634
737.876	1639
738.364	1629
738.851	1643
739.339	1631
739.827	1644
740.314	1588
740.802	1617
741.29	1632
741.778	1608
742.266	1611
742.754	1625
743.242	1634
743.73	1582
744.218	1581
744.706	1562
745.194	1584
745.682	1579
746.17	1574
746.659	1579
747.147	1537
747.635	1548
748.123	1550
748.612	1526
749.1	1536
749.589	1551
750.077	1531
750.566	1526
751.054	1527
751.543	1524
752.031	1508
752.52	1517
753.008	1489
753.497	1493
753.986	1481
754.474	1476
754.963	1491
755.452	1473
755.941	1472
756.43	1469
756.919	1459
757.408	1454
757.896	1461
758.385	1471
758.875	1457
759.364	1445
759.853	1438
760.342	1414
760.831	1439
761.32	1429
761.809	1398
762.299	1404
762.788	1417
763.277	1403
763.767	1389
764.256	1393
764.745	1370
765.235	1394
765.724	1356
766.214	1375
766.703	1367
767.193	1351
767.683	1352
768.172	1331
768.662	1344
769.152	1342
769.641	1335
770.131	1304
770.621	1320
771.111	1304
771.601	1302
772.09	1295
772.58	1284
773.07	1298
773.56	1312
774.05	1295
774.54	1287
775.031	1284
775.521	1277
776.011	1271
776.501	1283
776.991	1257
777.482	1269
777.972	1243
778.462	1235
778.953	1238
779.443	1229
779.933	1223
780.424	1208
780.914	1209
781.405	1214
781.895	1206
782.386	1210
782.877	1208
783.367	1179
783.858	1166
784.349	1169
784.839	1156
785.33	1171
785.821	1166
786.312	1156
786.803	1164
787.293	1159
787.784	1141
788.275	1129
788.766	1115
789.257	1141
789.748	1127
790.24	1111
790.731	1124
791.222	1109
791.713	1110
792.204	1119
792.696	1089
793.187	1096
793.678	1087
794.169	1062
794.661	1072
795.152	1072
795.644	1057
796.135	1056
796.627	1068
797.118	1049
797.61	1043
798.101	1020
798.593	1025
799.085	1016
799.576	1024
800.068	1006
800.56	1009
801.052	988
801.544	985
802.035	989
802.527	967
803.019	957
803.511	954
804.003	954
804.495	957
804.987	949
805.479	919
805.971	940
806.464	933
806.956	915
807.448	912
807.94	924
808.433	919
808.925	914
809.417	902
809.91	898
810.402	877
810.894	877
811.387	881
811.879	858
812.372	874
812.865	864
813.357	869
813.85	854
814.342	853
814.835	852
815.328	851
815.821	836
816.313	840
816.806	847
817.299	839
817.792	842
818.285	837
818.778	847
819.271	847
819.764	829
820.257	831
820.75	834
821.243	831
821.736	816
822.229	819
822.722	822
823.216	844
