Data from lamp5helium_zwak_Subt4__32__187.txt Node

Date: Wed Apr 09 10:14:03 CEST 2025
User: fys-lab-0081
Spectrometer: S04999
Trigger mode: 0
Resolution mode: 1024 pixels
Integration Time (sec): 1.000000E-1
Scans to average: 1
Nonlinearity correction enabled: false
Boxcar width: 0
Baseline correction enabled: true
XAxis mode: Wavelengths
Number of Pixels in Spectrum: 1024
>>>>>Begin Spectral Data<<<<<
336.42	5
336.877	-3
337.334	2
337.792	-5
338.249	6
338.706	3
339.164	-4
339.621	-6
340.079	4
340.536	9
340.994	5
341.452	-6
341.909	2
342.367	0
342.825	-4
343.283	-1
343.741	-4
344.198	2
344.656	0
345.114	0
345.572	0
346.03	4
346.488	4
346.947	-1
347.405	-2
347.863	0
348.321	6
348.779	0
349.238	-1
349.696	0
350.154	-4
350.613	5
351.071	-1
351.53	0
351.988	4
352.447	0
352.905	0
353.364	-1
353.823	-2
354.282	7
354.74	-3
355.199	0
355.658	4
356.117	2
356.576	9
357.035	1
357.494	2
357.953	6
358.412	7
358.871	0
359.33	-2
359.789	0
360.249	1
360.708	7
361.167	-3
361.626	6
362.086	1
362.545	0
363.005	3
363.464	-4
363.924	3
364.383	3
364.843	1
365.303	3
365.762	2
366.222	-1
366.682	2
367.142	6
367.601	3
368.061	0
368.521	6
368.981	4
369.441	6
369.901	6
370.361	0
370.821	-1
371.282	3
371.742	3
372.202	2
372.662	6
373.123	1
373.583	0
374.043	8
374.504	-3
374.964	4
375.425	5
375.885	2
376.346	4
376.806	1
377.267	2
377.728	7
378.188	1
378.649	3
379.11	5
379.571	2
380.032	7
380.493	4
380.954	9
381.414	-1
381.876	5
382.337	4
382.798	5
383.259	8
383.72	2
384.181	7
384.642	5
385.104	8
385.565	15
386.026	7
386.488	10
386.949	3
387.411	9
387.872	7
388.334	13
388.795	6
389.257	13
389.719	8
390.181	2
390.642	13
391.104	7
391.566	4
392.028	14
392.49	7
392.952	12
393.414	8
393.876	9
394.338	9
394.8	9
395.262	10
395.724	10
396.186	10
396.648	11
397.111	8
397.573	15
398.035	9
398.498	15
398.96	11
399.423	11
399.885	14
400.348	13
400.81	19
401.273	9
401.736	15
402.198	9
402.661	15
403.124	11
403.587	14
404.049	16.5
404.512	19
404.975	17
405.438	15
405.901	10
406.364	18
406.827	14
407.29	24
407.754	21
408.217	19
408.68	15
409.143	16
409.607	22
410.07	22
410.533	18
410.997	21
411.46	16
411.924	17
412.387	17
412.851	17
413.314	20
413.778	19
414.242	22
414.705	18
415.169	23
415.633	23
416.097	27
416.561	23
417.024	25
417.488	29
417.952	29
418.416	30
418.88	22
419.344	22
419.809	25
420.273	22
420.737	22
421.201	18
421.665	24
422.13	24
422.594	27
423.059	27
423.523	23
423.987	24
424.452	28
424.916	33
425.381	28
425.846	30
426.31	28
426.775	31
427.24	33
427.704	29
428.169	31
428.634	36
429.099	32
429.564	31
430.029	35
430.494	39
430.959	37
431.424	32
431.889	34
432.354	34
432.819	32
433.284	32
433.75	34
434.215	36
434.68	40
435.146	38
435.611	37
436.077	42
436.542	42
437.008	42
437.473	45
437.939	47
438.404	49
438.87	48
439.336	46
439.801	45
440.267	43
440.733	51
441.199	55
441.665	42
442.131	52
442.596	52
443.062	47
443.529	54
443.995	54
444.461	51
444.927	62
445.393	58
445.859	64
446.325	60
446.792	70
447.258	67
447.724	67
448.191	71
448.657	70
449.124	75
449.59	78
450.057	80
450.523	76
450.99	82
451.457	79
451.923	86
452.39	79
452.857	86
453.324	78
453.791	85
454.257	87
454.724	84
455.191	81
455.658	85
456.125	92
456.592	88
457.059	95
457.527	94
457.994	94
458.461	95
458.928	103
459.396	97
459.863	103
460.33	101
460.798	101
461.265	100
461.732	103
462.2	103
462.668	106
463.135	111
463.603	102
464.07	101
464.538	107
465.006	111
465.474	105
465.941	111
466.409	107
466.877	106
467.345	114
467.813	114
468.281	107
468.749	107
469.217	105
469.685	112
470.153	111
470.621	114
471.09	116
471.558	119
472.026	121
472.494	122
472.963	123
473.431	135
473.9	137
474.368	136
474.837	139
475.305	137
475.774	146
476.242	155
476.711	150
477.18	155
477.648	153
478.117	150
478.586	156
479.055	154
479.524	156
479.993	159
480.462	152
480.93	160
481.399	158
481.869	160
482.338	161
482.807	161
483.276	161
483.745	162
484.214	166
484.684	171
485.153	166
485.622	167
486.092	174
486.561	171
487.031	176
487.5	176
487.97	185
488.439	187
488.909	198
489.378	198
489.848	205
490.318	207
490.787	210
491.257	220
491.727	222
492.197	228
492.667	223
493.137	223
493.607	228
494.077	233
494.547	227
495.017	228
495.487	234
495.957	245
496.427	234
496.897	237
497.368	241
497.838	242
498.308	244
498.779	244
499.249	247
499.719	246
500.19	251
500.66	256
501.131	256
501.602	260
502.072	260
502.543	268
503.014	280
503.484	278
503.955	286
504.426	296
504.897	302
505.368	308
505.838	307
506.309	319
506.78	328
507.251	335
507.722	337
508.194	348
508.665	353
509.136	350
509.607	368
510.078	370
510.549	374
511.021	385
511.492	382
511.964	391
512.435	400
512.906	393
513.378	402
513.849	407
514.321	410
514.793	414
515.264	423
515.736	423
516.208	428
516.679	437
517.151	435
517.623	436
518.095	454
518.567	458
519.038	461
519.51	470
519.982	485
520.454	485
520.927	489
521.399	493
521.871	505
522.343	507
522.815	513
523.287	504
523.76	512
524.232	519
524.704	528
525.177	521
525.649	525
526.122	533
526.594	523
527.067	540
527.539	546
528.012	537
528.484	541
528.957	546
529.43	544
529.903	539
530.375	562
530.848	551
531.321	558
531.794	557
532.267	567
532.74	558
533.213	561
533.686	576
534.159	568
534.632	584
535.105	594
535.578	595
536.051	603
536.525	605
536.998	607
537.471	627
537.945	621
538.418	631
538.891	634
539.365	643
539.838	648
540.312	653
540.786	659
541.259	651
541.733	653
542.206	662
542.68	656
543.154	646
543.628	656
544.101	680
544.575	673
545.049	653
545.523	662
545.997	668
546.471	673
546.945	671
547.419	683
547.893	657
548.367	669
548.842	666
549.316	666
549.79	680
550.264	670
550.739	686
551.213	680
551.687	677
552.162	684
552.636	686
553.111	684
553.585	708
554.06	693
554.534	705
555.009	700
555.484	712
555.958	728
556.433	732
556.908	737
557.383	734
557.858	753
558.333	763
558.807	755
559.282	758
559.757	789
560.232	793
560.708	773
561.183	771
561.658	780
562.133	783
562.608	776
563.083	794
563.559	781
564.034	786
564.509	785
564.985	794
565.46	782
565.936	797
566.411	802
566.887	799
567.362	802
567.838	796
568.313	810
568.789	799
569.265	794
569.74	809
570.216	802
570.692	819
571.168	816
571.644	815
572.12	818
572.596	822
573.071	832
573.547	854
574.024	861
574.5	872
574.976	881
575.452	895
575.928	896
576.404	900
576.881	929
577.357	915
577.833	918
578.31	948
578.786	962
579.262	983
579.739	970
580.215	993
580.692	983
581.169	987
581.645	989
582.122	1015
582.598	1012
583.075	1008
583.552	1029
584.029	1023
584.506	1023
584.982	1012
585.459	1041
585.936	1032
586.413	1047
586.89	1064
587.367	1052
587.844	1075
588.321	1072
588.799	1069
589.276	1050
589.753	1070
590.23	1079
590.707	1081
591.185	1074
591.662	1069
592.139	1094
592.617	1112
593.094	1115
593.572	1114
594.049	1125
594.527	1142
595.004	1148
595.482	1175
595.96	1161
596.437	1163
596.915	1201
597.393	1184
597.871	1216
598.349	1196
598.826	1226
599.304	1226
599.782	1246
600.26	1231
600.738	1271
601.216	1268
601.694	1283
602.173	1301
602.651	1306
603.129	1285
603.607	1301
604.085	1306
604.564	1297
605.042	1303
605.52	1295
605.999	1334
606.477	1304
606.956	1313
607.434	1319
607.913	1325
608.391	1330
608.87	1330
609.348	1313
609.827	1317
610.306	1322
610.785	1335
611.263	1342
611.742	1334
612.221	1317
612.7	1333
613.179	1337
613.658	1323
614.137	1337
614.616	1357
615.095	1325
615.574	1345
616.053	1368
616.532	1352
617.011	1359
617.491	1364
617.97	1376
618.449	1403
618.928	1414
619.408	1398
619.887	1411
620.367	1417
620.846	1443
621.326	1432
621.805	1474
622.285	1460
622.764	1475
623.244	1474
623.724	1484
624.203	1492
624.683	1460
625.163	1491
625.643	1497
626.123	1480
626.602	1513
627.082	1487
627.562	1493
628.042	1528
628.522	1511
629.002	1503
629.482	1507
629.963	1511
630.443	1505
630.923	1519
631.403	1531
631.883	1525
632.364	1527
632.844	1509
633.324	1527
633.805	1537
634.285	1519
634.766	1510
635.246	1516
635.727	1512
636.207	1521
636.688	1531
637.168	1535
637.649	1507
638.13	1498
638.611	1513
639.091	1518
639.572	1506
640.053	1494
640.534	1518
641.015	1512
641.496	1498
641.977	1523
642.458	1499
642.939	1508
643.42	1520
643.901	1528
644.382	1541
644.863	1534
645.345	1549
645.826	1558
646.307	1569
646.788	1585
647.27	1565
647.751	1571
648.233	1584
648.714	1547
649.196	1578
649.677	1585
650.159	1593
650.64	1570
651.122	1588
651.603	1569
652.085	1584
652.567	1592
653.049	1573
653.53	1571
654.012	1594
654.494	1566
654.976	1587
655.458	1591
655.94	1590
656.422	1621
656.904	1597
657.386	1577
657.868	1584
658.35	1583
658.833	1593
659.315	1597
659.797	1590
660.279	1582
660.762	1602
661.244	1591
661.726	1575
662.209	1577
662.691	1575
663.174	1557
663.656	1562
664.139	1559
664.621	1546
665.104	1532
665.587	1552
666.069	1559
666.552	1559
667.035	1538
667.517	1544
668	1571
668.483	1572
668.966	1554
669.449	1541
669.932	1551
670.415	1562
670.898	1555
671.381	1563
671.864	1581
672.347	1566
672.83	1560
673.313	1569
673.797	1561
674.28	1596
674.763	1606
675.247	1625
675.73	1616
676.213	1630
676.697	1647
677.18	1654
677.664	1656
678.147	1654
678.631	1654
679.114	1659
679.598	1653
680.082	1676
680.565	1668
681.049	1663
681.533	1656
682.017	1676
682.5	1668
682.984	1680
683.468	1678
683.952	1647
684.436	1685
684.92	1673
685.404	1682
685.888	1703
686.372	1693
686.856	1703
687.341	1731
687.825	1714
688.309	1719
688.793	1715
689.278	1694
689.762	1716
690.246	1713
690.731	1707
691.215	1723
691.7	1676
692.184	1694
692.669	1702
693.153	1729
693.638	1706
694.122	1706
694.607	1704
695.092	1692
695.577	1713
696.061	1684
696.546	1663
697.031	1650
697.516	1662
698.001	1663
698.486	1659
698.971	1694
699.456	1649
699.941	1653
700.426	1655
700.911	1675
701.396	1665
701.881	1682
702.366	1684
702.852	1679
703.337	1692
703.822	1687
704.308	1698
704.793	1708
705.278	1705
705.764	1718
706.249	1712
706.735	1699
707.22	1718
707.706	1699
708.191	1726
708.677	1726
709.163	1719
709.648	1718
710.134	1740
710.62	1721
711.106	1723
711.592	1746
712.077	1734
712.563	1702
713.049	1691
713.535	1731
714.021	1722
714.507	1728
714.993	1708
715.479	1716
715.966	1703
716.452	1703
716.938	1710
717.424	1663
717.91	1702
718.397	1690
718.883	1683
719.369	1686
719.856	1661
720.342	1692
720.829	1680
721.315	1695
721.802	1689
722.288	1705
722.775	1638
723.262	1589
723.748	1666
724.235	1669
724.722	1708
725.208	1676
725.695	1674
726.182	1658
726.669	1635
727.156	1636
727.643	1625
728.13	1615
728.617	1599
729.104	1589
729.591	1581
730.078	1594
730.565	1600
731.052	1571
731.539	1578
732.027	1572
732.514	1563
733.001	1578
733.488	1569
733.976	1556
734.463	1550
734.951	1538
735.438	1566
735.926	1562
736.413	1582
736.901	1574
737.388	1590
737.876	1600
738.364	1599
738.851	1602
739.339	1590
739.827	1601
740.314	1553
740.802	1570
741.29	1593
741.778	1567
742.266	1578
742.754	1587
743.242	1598
743.73	1550
744.218	1544
744.706	1529
745.194	1545
745.682	1533
746.17	1541
746.659	1543
747.147	1509
747.635	1517
748.123	1509
748.612	1498
749.1	1502
749.589	1517
750.077	1506
750.566	1487
751.054	1489
751.543	1492
752.031	1477
752.52	1481
753.008	1454
753.497	1460
753.986	1442
754.474	1443
754.963	1458
755.452	1438
755.941	1434
756.43	1432
756.919	1426
757.408	1422
757.896	1432
758.385	1439
758.875	1422
759.364	1404
759.853	1413
760.342	1384
760.831	1407
761.32	1397
761.809	1365
762.299	1373
762.788	1376
763.277	1372
763.767	1355
764.256	1364
764.745	1340
765.235	1362
765.724	1321
766.214	1343
766.703	1330
767.193	1317
767.683	1324
768.172	1299
768.662	1313
769.152	1312
769.641	1308
770.131	1276
770.621	1295
771.111	1276
771.601	1272
772.09	1267
772.58	1258
773.07	1270
773.56	1273
774.05	1255
774.54	1258
775.031	1256
775.521	1247
776.011	1244
776.501	1255
776.991	1233
777.482	1238
777.972	1211
778.462	1200
778.953	1216
779.443	1208
779.933	1194
780.424	1183
780.914	1187
781.405	1188
781.895	1178
782.386	1181
782.877	1179
783.367	1159
783.858	1145
784.349	1144
784.839	1134
785.33	1135
785.821	1142
786.312	1131
786.803	1135
787.293	1137
787.784	1109
788.275	1100
788.766	1098
789.257	1117
789.748	1101
790.24	1092
790.731	1106
791.222	1086
791.713	1082
792.204	1095
792.696	1062
793.187	1076
793.678	1059
794.169	1040
794.661	1055
795.152	1043
795.644	1033
796.135	1033
796.627	1040
797.118	1034
797.61	1019
798.101	1000
798.593	1009
799.085	995
799.576	997
800.068	984
800.56	993
801.052	965
801.544	965
802.035	969
802.527	946
803.019	937
803.511	931
804.003	930
804.495	939
804.987	929
805.479	904
805.971	912
806.464	913
806.956	891
807.448	901
807.94	900
808.433	902
808.925	899
809.417	886
809.91	881
810.402	852
810.894	854
811.387	856
811.879	845
812.372	858
812.865	840
813.357	845
813.85	834
814.342	837
814.835	838
815.328	832
815.821	823
816.313	823
816.806	824
817.299	820
817.792	825
818.285	821
818.778	827
819.271	829
819.764	811
820.257	815
820.75	812
821.243	812
821.736	803
822.229	808
822.722	803
823.216	828
