Data from lamp5helium_zwak_Subt4__71__226.txt Node

Date: Wed Apr 09 10:14:08 CEST 2025
User: fys-lab-0081
Spectrometer: S04999
Trigger mode: 0
Resolution mode: 1024 pixels
Integration Time (sec): 1.000000E-1
Scans to average: 1
Nonlinearity correction enabled: false
Boxcar width: 0
Baseline correction enabled: true
XAxis mode: Wavelengths
Number of Pixels in Spectrum: 1024
>>>>>Begin Spectral Data<<<<<
336.42	2
336.877	-2
337.334	-3
337.792	-2
338.249	5
338.706	4
339.164	-2
339.621	-2
340.079	1
340.536	8
340.994	9
341.452	-7
341.909	-3
342.367	-1
342.825	-2
343.283	-3
343.741	-1
344.198	3
344.656	0
345.114	1
345.572	2
346.03	4
346.488	-2
346.947	-2
347.405	2
347.863	-2
348.321	8
348.779	-1
349.238	4
349.696	1
350.154	3
350.613	1
351.071	1
351.53	4
351.988	2
352.447	0
352.905	1
353.364	-4
353.823	3
354.282	3
354.74	-1
355.199	0
355.658	4
356.117	4
356.576	4
357.035	2
357.494	-1
357.953	2
358.412	8
358.871	0
359.33	-5
359.789	1
360.249	-2
360.708	5
361.167	2
361.626	8
362.086	-4
362.545	2
363.005	10
363.464	-4
363.924	-2
364.383	-1
364.843	0
365.303	5
365.762	1
366.222	-5
366.682	4
367.142	6
367.601	2
368.061	0
368.521	3
368.981	5
369.441	4
369.901	5
370.361	2
370.821	3
371.282	3
371.742	6
372.202	4
372.662	4
373.123	2
373.583	2
374.043	1
374.504	-4
374.964	2
375.425	-1
375.885	5
376.346	4
376.806	4
377.267	5
377.728	11
378.188	4
378.649	4
379.11	3
379.571	2
380.032	3
380.493	-3
380.954	10
381.414	-1
381.876	8
382.337	8
382.798	5
383.259	10
383.72	2
384.181	9
384.642	5
385.104	8
385.565	15
386.026	3
386.488	7
386.949	6
387.411	5
387.872	6
388.334	6
388.795	8
389.257	14
389.719	10
390.181	6
390.642	7
391.104	7
391.566	11
392.028	17
392.49	10
392.952	6
393.414	13
393.876	13
394.338	8
394.8	6
395.262	7
395.724	9
396.186	14
396.648	11
397.111	12
397.573	11
398.035	13
398.498	12
398.96	6
399.423	12
399.885	21
400.348	13
400.81	19
401.273	9
401.736	16
402.198	11
402.661	13
403.124	16
403.587	13
404.049	16
404.512	19
404.975	17
405.438	18
405.901	16
406.364	15
406.827	21
407.29	19
407.754	16
408.217	21
408.68	17
409.143	17
409.607	19
410.07	17
410.533	15
410.997	18
411.46	19
411.924	16
412.387	18
412.851	21
413.314	21
413.778	21
414.242	22
414.705	18
415.169	25
415.633	19
416.097	26
416.561	27
417.024	28
417.488	26
417.952	24
418.416	28
418.88	24
419.344	25
419.809	24
420.273	22
420.737	27
421.201	18
421.665	30
422.13	25
422.594	30
423.059	28
423.523	28
423.987	28
424.452	25
424.916	31
425.381	34
425.846	31
426.31	28
426.775	31
427.24	37
427.704	30
428.169	35
428.634	31
429.099	31
429.564	31
430.029	37
430.494	36
430.959	33
431.424	32
431.889	34
432.354	39
432.819	34
433.284	35
433.75	36
434.215	37
434.68	43
435.146	39
435.611	44
436.077	48
436.542	47
437.008	44
437.473	51
437.939	52
438.404	49
438.87	53
439.336	49
439.801	47
440.267	47
440.733	59
441.199	56
441.665	48
442.131	55
442.596	56
443.062	50
443.529	57
443.995	57
444.461	57
444.927	66
445.393	60
445.859	61
446.325	64
446.792	77
447.258	71
447.724	71
448.191	72
448.657	79
449.124	80
449.59	78
450.057	87
450.523	83
450.99	82
451.457	85
451.923	87
452.39	86
452.857	90
453.324	81
453.791	88
454.257	90
454.724	90
455.191	89
455.658	87
456.125	92
456.592	93
457.059	96
457.527	94
457.994	100
458.461	96
458.928	107
459.396	103
459.863	107
460.33	103
460.798	106
461.265	110
461.732	108
462.2	105
462.668	110
463.135	116
463.603	112
464.07	109
464.538	118
465.006	116
465.474	112
465.941	112
466.409	113
466.877	107
467.345	117
467.813	118
468.281	115
468.749	113
469.217	116
469.685	115
470.153	119
470.621	119
471.09	125
471.558	125
472.026	121
472.494	129
472.963	133
473.431	137
473.9	143
474.368	145
474.837	147
475.305	146
475.774	154
476.242	160
476.711	158
477.18	157
477.648	158
478.117	164
478.586	164
479.055	157
479.524	165
479.993	164
480.462	165
480.93	168
481.399	166
481.869	164
482.338	167
482.807	169
483.276	169
483.745	169
484.214	167
484.684	176
485.153	176
485.622	169
486.092	177
486.561	177
487.031	181
487.5	185
487.97	194
488.439	198
488.909	208
489.378	206
489.848	207
490.318	220
490.787	225
491.257	230
491.727	231
492.197	242
492.667	233
493.137	237
493.607	236
494.077	241
494.547	241
495.017	244
495.487	248
495.957	253
496.427	247
496.897	246
497.368	250
497.838	249
498.308	251
498.779	256
499.249	259
499.719	259
500.19	266
500.66	265
501.131	263
501.602	274
502.072	271
502.543	280
503.014	290
503.484	286
503.955	298
504.426	309
504.897	314
505.368	321
505.838	321
506.309	332
506.78	343
507.251	351
507.722	352
508.194	364
508.665	367
509.136	366
509.607	381
510.078	388
510.549	398
511.021	403
511.492	402
511.964	408
512.435	416
512.906	412
513.378	424
513.849	426
514.321	433
514.793	433
515.264	435
515.736	439
516.208	452
516.679	455
517.151	454
517.623	460
518.095	474
518.567	480
519.038	484
519.51	488
519.982	506
520.454	506
520.927	515
521.399	516
521.871	532
522.343	534
522.815	531
523.287	528
523.76	542
524.232	547
524.704	552
525.177	544
525.649	543
526.122	558
526.594	545
527.067	564
527.539	571
528.012	568
528.484	566
528.957	574
529.43	574
529.903	568
530.375	586
530.848	576
531.321	588
531.794	584
532.267	596
532.74	588
533.213	589
533.686	603
534.159	594
534.632	618
535.105	618
535.578	621
536.051	626
536.525	629
536.998	641
537.471	652
537.945	642
538.418	659
538.891	662
539.365	673
539.838	681
540.312	676
540.786	679
541.259	683
541.733	685
542.206	688
542.68	681
543.154	680
543.628	683
544.101	710
544.575	700
545.049	683
545.523	695
545.997	701
546.471	704
546.945	694
547.419	713
547.893	687
548.367	705
548.842	693
549.316	699
549.79	704
550.264	704
550.739	715
551.213	706
551.687	704
552.162	713
552.636	710
553.111	707
553.585	739
554.06	723
554.534	733
555.009	731
555.484	755
555.958	758
556.433	762
556.908	768
557.383	763
557.858	788
558.333	790
558.807	788
559.282	788
559.757	818
560.232	824
560.708	807
561.183	801
561.658	813
562.133	813
562.608	808
563.083	833
563.559	813
564.034	819
564.509	814
564.985	814
565.46	811
565.936	831
566.411	836
566.887	830
567.362	834
567.838	832
568.313	840
568.789	834
569.265	834
569.74	845
570.216	836
570.692	852
571.168	849
571.644	848
572.12	849
572.596	864
573.071	862
573.547	886
574.024	893
574.5	908
574.976	918
575.452	925
575.928	933
576.404	939
576.881	970
577.357	951
577.833	958
578.31	982
578.786	1010
579.262	1029
579.739	1011
580.215	1036
580.692	1026
581.169	1027
581.645	1029
582.122	1055
582.598	1054
583.075	1056
583.552	1074
584.029	1070
584.506	1062
584.982	1056
585.459	1077
585.936	1070
586.413	1091
586.89	1106
587.367	1098
587.844	1119
588.321	1113
588.799	1105
589.276	1101
589.753	1109
590.23	1121
590.707	1124
591.185	1121
591.662	1116
592.139	1136
592.617	1155
593.094	1156
593.572	1159
594.049	1170
594.527	1186
595.004	1194
595.482	1221
595.96	1209
596.437	1215
596.915	1250
597.393	1227
597.871	1263
598.349	1240
598.826	1274
599.304	1272
599.782	1305
600.26	1284
600.738	1310
601.216	1314
601.694	1331
602.173	1346
602.651	1351
603.129	1328
603.607	1349
604.085	1354
604.564	1349
605.042	1351
605.52	1343
605.999	1385
606.477	1351
606.956	1362
607.434	1370.5
607.913	1379
608.391	1376
608.87	1380
609.348	1366
609.827	1366
610.306	1372
610.785	1382
611.263	1396
611.742	1382
612.221	1368
612.7	1378
613.179	1391
613.658	1374
614.137	1391
614.616	1402
615.095	1374
615.574	1394
616.053	1420
616.532	1401
617.011	1412
617.491	1418
617.97	1429
618.449	1456
618.928	1467
619.408	1447
619.887	1461
620.367	1480
620.846	1497
621.326	1488
621.805	1526
622.285	1521
622.764	1533
623.244	1531
623.724	1540
624.203	1549
624.683	1521
625.163	1555
625.643	1546
626.123	1535
626.602	1568
627.082	1536
627.562	1539
628.042	1581
628.522	1564
629.002	1566
629.482	1570
629.963	1565
630.443	1562
630.923	1571
631.403	1581
631.883	1583
632.364	1586
632.844	1569
633.324	1580
633.805	1587
634.285	1567
634.766	1570
635.246	1569
635.727	1570
636.207	1576
636.688	1592
637.168	1594
637.649	1567
638.13	1553
638.611	1571
639.091	1573
639.572	1561
640.053	1558
640.534	1574
641.015	1568
641.496	1551
641.977	1585
642.458	1558
642.939	1570
643.42	1573
643.901	1589
644.382	1601
644.863	1592
645.345	1605
645.826	1610
646.307	1617
646.788	1646
647.27	1632
647.751	1633
648.233	1643
648.714	1603
649.196	1639
649.677	1642
650.159	1649
650.64	1628
651.122	1649
651.603	1623
652.085	1640
652.567	1652
653.049	1628
653.53	1624
654.012	1653
654.494	1630
654.976	1643
655.458	1649
655.94	1651
656.422	1681
656.904	1659
657.386	1626
657.868	1631
658.35	1630
658.833	1649
659.315	1656
659.797	1638
660.279	1648
660.762	1664
661.244	1653
661.726	1627
662.209	1630
662.691	1628
663.174	1610
663.656	1614
664.139	1613
664.621	1608
665.104	1589
665.587	1608
666.069	1617
666.552	1615
667.035	1604
667.517	1601
668	1615
668.483	1626
668.966	1612
669.449	1600
669.932	1604
670.415	1617
670.898	1612
671.381	1623
671.864	1629
672.347	1620
672.83	1613
673.313	1614
673.797	1620
674.28	1653
674.763	1666
675.247	1676
675.73	1671
676.213	1693
676.697	1708
677.18	1709
677.664	1714
678.147	1721
678.631	1715
679.114	1716
679.598	1716
680.082	1728
680.565	1728
681.049	1727
681.533	1718
682.017	1733
682.5	1729
682.984	1737
683.468	1740
683.952	1703
684.436	1739
684.92	1727
685.404	1739
685.888	1760
686.372	1752
686.856	1762
687.341	1797
687.825	1770
688.309	1783
688.793	1777
689.278	1752
689.762	1776
690.246	1760
690.731	1770
691.215	1784
691.7	1737
692.184	1756
692.669	1764
693.153	1790
693.638	1760
694.122	1766
694.607	1756
695.092	1738
695.577	1772
696.061	1738
696.546	1721
697.031	1703
697.516	1720
698.001	1725
698.486	1716
698.971	1743
699.456	1710
699.941	1712
700.426	1712
700.911	1736
701.396	1716
701.881	1735
702.366	1739
702.852	1739
703.337	1750
703.822	1747
704.308	1748
704.793	1766
705.278	1762
705.764	1771
706.249	1762
706.735	1753
707.22	1775
707.706	1744
708.191	1782
708.677	1785
709.163	1773
709.648	1787
710.134	1799
710.62	1780
711.106	1780
711.592	1805
712.077	1795
712.563	1758
713.049	1757
713.535	1789
714.021	1781
714.507	1775
714.993	1765
715.479	1776
715.966	1760
716.452	1764
716.938	1752
717.424	1719
717.91	1760
718.397	1751
718.883	1741
719.369	1740
719.856	1718
720.342	1753
720.829	1739
721.315	1751
721.802	1747
722.288	1768
722.775	1690
723.262	1644
723.748	1724
724.235	1726
724.722	1756
725.208	1729
725.695	1735
726.182	1717
726.669	1684
727.156	1692
727.643	1674
728.13	1670
728.617	1648
729.104	1647
729.591	1634
730.078	1648
730.565	1651
731.052	1626
731.539	1628
732.027	1617
732.514	1615
733.001	1631
733.488	1631
733.976	1610
734.463	1594
734.951	1588
735.438	1625
735.926	1610
736.413	1632
736.901	1622
737.388	1646
737.876	1648
738.364	1646
738.851	1656
739.339	1644
739.827	1655
740.314	1607
740.802	1617
741.29	1637
741.778	1622
742.266	1629
742.754	1632
743.242	1653
743.73	1603
744.218	1592
744.706	1575
745.194	1596
745.682	1583
746.17	1594
746.659	1597
747.147	1552
747.635	1563
748.123	1553
748.612	1546
749.1	1539
749.589	1570
750.077	1546
750.566	1536
751.054	1535
751.543	1542
752.031	1518
752.52	1525
753.008	1502
753.497	1504
753.986	1495
754.474	1482
754.963	1502
755.452	1488
755.941	1483
756.43	1480
756.919	1467
757.408	1467
757.896	1474
758.385	1479
758.875	1474
759.364	1455
759.853	1444
760.342	1430
760.831	1459
761.32	1432
761.809	1407
762.299	1417
762.788	1424
763.277	1414
763.767	1401
764.256	1405
764.745	1383
765.235	1406
765.724	1362
766.214	1380
766.703	1370
767.193	1362
767.683	1368
768.172	1336
768.662	1350
769.152	1345
769.641	1345
770.131	1314
770.621	1330
771.111	1318
771.601	1307
772.09	1304
772.58	1289
773.07	1301
773.56	1318
774.05	1298
774.54	1297
775.031	1295
775.521	1281
776.011	1282
776.501	1291
776.991	1265
777.482	1282
777.972	1248
778.462	1240
778.953	1253
779.443	1243
779.933	1231
780.424	1219
780.914	1218
781.405	1227
781.895	1221
782.386	1220
782.877	1212
783.367	1195
783.858	1181
784.349	1179
784.839	1164
785.33	1172
785.821	1180
786.312	1166
786.803	1167
787.293	1170
787.784	1145
788.275	1138
788.766	1121
789.257	1148
789.748	1132
790.24	1128
790.731	1137
791.222	1118
791.713	1116
792.204	1125
792.696	1101
793.187	1104
793.678	1101
794.169	1074
794.661	1084
795.152	1075
795.644	1063
796.135	1059
796.627	1069
797.118	1057
797.61	1047
798.101	1030
798.593	1030
799.085	1022
799.576	1031
800.068	1018
800.56	1014
801.052	992
801.544	992
802.035	994
802.527	973
803.019	965
803.511	961
804.003	959
804.495	965
804.987	955
805.479	931
805.971	943
806.464	942
806.956	919
807.448	922
807.94	923
808.433	927
808.925	924
809.417	910
809.91	905
810.402	872
810.894	885
811.387	880
811.879	864
812.372	878
812.865	866
813.357	869
813.85	861
814.342	860
814.835	861
815.328	852
815.821	845
816.313	848
816.806	849
817.299	844
817.792	852
818.285	840
818.778	857
819.271	847
819.764	840
820.257	838
820.75	837
821.243	832
821.736	822
822.229	833
822.722	829
823.216	846
