Data from lamp5helium_zwak_Subt4__53__208.txt Node

Date: Wed Apr 09 10:14:06 CEST 2025
User: fys-lab-0081
Spectrometer: S04999
Trigger mode: 0
Resolution mode: 1024 pixels
Integration Time (sec): 1.000000E-1
Scans to average: 1
Nonlinearity correction enabled: false
Boxcar width: 0
Baseline correction enabled: true
XAxis mode: Wavelengths
Number of Pixels in Spectrum: 1024
>>>>>Begin Spectral Data<<<<<
336.42	-2
336.877	-1
337.334	0
337.792	-1
338.249	6
338.706	-1
339.164	0
339.621	1
340.079	0
340.536	4
340.994	2
341.452	-6
341.909	4
342.367	1
342.825	1
343.283	-1
343.741	1
344.198	3
344.656	-2
345.114	-2
345.572	2
346.03	3
346.488	4
346.947	0
347.405	3
347.863	0
348.321	8
348.779	-2
349.238	2
349.696	1
350.154	1
350.613	0
351.071	2
351.53	3
351.988	0
352.447	-3
352.905	0
353.364	-6
353.823	-4
354.282	2
354.74	0
355.199	1
355.658	4
356.117	2
356.576	5
357.035	-3
357.494	5
357.953	5
358.412	4
358.871	-8
359.33	-1
359.789	3
360.249	-1
360.708	3
361.167	0
361.626	5
362.086	2
362.545	2
363.005	3
363.464	-2
363.924	3
364.383	5
364.843	-1
365.303	-1
365.762	0
366.222	1
366.682	2
367.142	2
367.601	3
368.061	0
368.521	6
368.981	-1
369.441	1
369.901	6
370.361	5
370.821	1
371.282	3
371.742	5
372.202	6
372.662	8
373.123	3
373.583	0
374.043	0
374.504	1
374.964	4
375.425	1
375.885	-1
376.346	1
376.806	3
377.267	5
377.728	4
378.188	7
378.649	1
379.11	0
379.571	1
380.032	0
380.493	6
380.954	0
381.414	4
381.876	1
382.337	6
382.798	8
383.259	9
383.72	3
384.181	7
384.642	6
385.104	5
385.565	15
386.026	6
386.488	6
386.949	11
387.411	5
387.872	5
388.334	8
388.795	8
389.257	10
389.719	7
390.181	6
390.642	12
391.104	6
391.566	9
392.028	12
392.49	9
392.952	12
393.414	7
393.876	12
394.338	7
394.8	11
395.262	13
395.724	8
396.186	13
396.648	11
397.111	10
397.573	17
398.035	8
398.498	13
398.96	9
399.423	15
399.885	13
400.348	10
400.81	18
401.273	12
401.736	18
402.198	16
402.661	10
403.124	17
403.587	13
404.049	13.5
404.512	14
404.975	17
405.438	16
405.901	17
406.364	20
406.827	16
407.29	16
407.754	20
408.217	23
408.68	17
409.143	15
409.607	21
410.07	20
410.533	19
410.997	22
411.46	16
411.924	17
412.387	18
412.851	19
413.314	20
413.778	19
414.242	24
414.705	19
415.169	20
415.633	20
416.097	22
416.561	25
417.024	27
417.488	30
417.952	27
418.416	28
418.88	24
419.344	22
419.809	23
420.273	28
420.737	24
421.201	19
421.665	27
422.13	28
422.594	29
423.059	31
423.523	25
423.987	28
424.452	28
424.916	30
425.381	25
425.846	35
426.31	29
426.775	29
427.24	32
427.704	29
428.169	39
428.634	34
429.099	34
429.564	34
430.029	31
430.494	32
430.959	38
431.424	33
431.889	34
432.354	35
432.819	38
433.284	35
433.75	33
434.215	40
434.68	38
435.146	40
435.611	40
436.077	41
436.542	47
437.008	44
437.473	45
437.939	51
438.404	51
438.87	50
439.336	52
439.801	48
440.267	48
440.733	53
441.199	52
441.665	48
442.131	53
442.596	51
443.062	51
443.529	55
443.995	56
444.461	56
444.927	62
445.393	63
445.859	64
446.325	60
446.792	72
447.258	73
447.724	74
448.191	74
448.657	75
449.124	77
449.59	74
450.057	80
450.523	80
450.99	85
451.457	88
451.923	83
452.39	83
452.857	87
453.324	84
453.791	88
454.257	85
454.724	89
455.191	90
455.658	89
456.125	93
456.592	86
457.059	95
457.527	95
457.994	102
458.461	102
458.928	104
459.396	98
459.863	103
460.33	109
460.798	101
461.265	107
461.732	108
462.2	108
462.668	111
463.135	106
463.603	111
464.07	106
464.538	113
465.006	114
465.474	110
465.941	109
466.409	113
466.877	110
467.345	116
467.813	111
468.281	109
468.749	110
469.217	116
469.685	119
470.153	119
470.621	123
471.09	118
471.558	121
472.026	129
472.494	129
472.963	132
473.431	136
473.9	142
474.368	146
474.837	146
475.305	147
475.774	153
476.242	161
476.711	156
477.18	154
477.648	160
478.117	165
478.586	159
479.055	155
479.524	161
479.993	161
480.462	162
480.93	163
481.399	158
481.869	162
482.338	164
482.807	164
483.276	161
483.745	170
484.214	176
484.684	177
485.153	172
485.622	172
486.092	179
486.561	184
487.031	177
487.5	184
487.97	190
488.439	193
488.909	203
489.378	200
489.848	208
490.318	212
490.787	219
491.257	232
491.727	225
492.197	238
492.667	228
493.137	235
493.607	236
494.077	238
494.547	238
495.017	239
495.487	242
495.957	247
496.427	245
496.897	241
497.368	246
497.838	246
498.308	252
498.779	249
499.249	256
499.719	256
500.19	260
500.66	263
501.131	267
501.602	269
502.072	269
502.543	275
503.014	287
503.484	283
503.955	292
504.426	305
504.897	308
505.368	316
505.838	315
506.309	331
506.78	332
507.251	344
507.722	350
508.194	356
508.665	366
509.136	362
509.607	377
510.078	386
510.549	390
511.021	400
511.492	400
511.964	407
512.435	413
512.906	409
513.378	417
513.849	423
514.321	427
514.793	424
515.264	435
515.736	435
516.208	449
516.679	450
517.151	456
517.623	451
518.095	466
518.567	472
519.038	478
519.51	484
519.982	498
520.454	496
520.927	507
521.399	507
521.871	522
522.343	529
522.815	531
523.287	521
523.76	529
524.232	540
524.704	549
525.177	540
525.649	539
526.122	550
526.594	540
527.067	558
527.539	563
528.012	562
528.484	561
528.957	565
529.43	565
529.903	557
530.375	575
530.848	572
531.321	581
531.794	581
532.267	586
532.74	581
533.213	583
533.686	600
534.159	585
534.632	604
535.105	608
535.578	622
536.051	618
536.525	627
536.998	630
537.471	646
537.945	640
538.418	651
538.891	657
539.365	663
539.838	676
540.312	671
540.786	681
541.259	670
541.733	679
542.206	682
542.68	676
543.154	672
543.628	671
544.101	698
544.575	690
545.049	676
545.523	684
545.997	689
546.471	702
546.945	695
547.419	706
547.893	681
548.367	692
548.842	687
549.316	691
549.79	701
550.264	691
550.739	705
551.213	697
551.687	701
552.162	707
552.636	706
553.111	709
553.585	726
554.06	715
554.534	726
555.009	718
555.484	742
555.958	752
556.433	753
556.908	758
557.383	752
557.858	777
558.333	782
558.807	777
559.282	780
559.757	813
560.232	816
560.708	799
561.183	787
561.658	800
562.133	810
562.608	798
563.083	822
563.559	803
564.034	814
564.509	804
564.985	814
565.46	805
565.936	826
566.411	827
566.887	826
567.362	821
567.838	823
568.313	838
568.789	819
569.265	823
569.74	831
570.216	830
570.692	845
571.168	839
571.644	836
572.12	834
572.596	852
573.071	856
573.547	880
574.024	886
574.5	899
574.976	903
575.452	923
575.928	920
576.404	923
576.881	953
577.357	939
577.833	946
578.31	975
578.786	991
579.262	1015
579.739	1003
580.215	1025
580.692	1014
581.169	1015
581.645	1022
582.122	1044
582.598	1045
583.075	1041
583.552	1059
584.029	1052
584.506	1055
584.982	1047
585.459	1069
585.936	1063
586.413	1081
586.89	1095
587.367	1086
587.844	1107
588.321	1105
588.799	1099
589.276	1081
589.753	1098
590.23	1109
590.707	1111
591.185	1108
591.662	1104
592.139	1124
592.617	1143
593.094	1146
593.572	1143
594.049	1158
594.527	1169
595.004	1181
595.482	1206
595.96	1192
596.437	1201
596.915	1233
597.393	1216
597.871	1244
598.349	1233
598.826	1254
599.304	1257
599.782	1289
600.26	1267
600.738	1296
601.216	1301
601.694	1316
602.173	1331
602.651	1333
603.129	1322
603.607	1337
604.085	1339
604.564	1340
605.042	1337
605.52	1332
605.999	1372
606.477	1336
606.956	1343
607.434	1353.5
607.913	1364
608.391	1360
608.87	1367
609.348	1353
609.827	1352
610.306	1355
610.785	1371
611.263	1385
611.742	1365
612.221	1349
612.7	1364
613.179	1382
613.658	1361
614.137	1379
614.616	1385
615.095	1356
615.574	1392
616.053	1408
616.532	1390
617.011	1398
617.491	1404
617.97	1414
618.449	1438
618.928	1449
619.408	1435
619.887	1449
620.367	1457
620.846	1483
621.326	1470
621.805	1507
622.285	1505
622.764	1512
623.244	1512
623.724	1529
624.203	1533
624.683	1500
625.163	1532
625.643	1536
626.123	1528
626.602	1558
627.082	1519
627.562	1526
628.042	1574
628.522	1551
629.002	1545
629.482	1555
629.963	1550
630.443	1544
630.923	1560
631.403	1573
631.883	1566
632.364	1572
632.844	1547
633.324	1566
633.805	1579
634.285	1559
634.766	1549
635.246	1555
635.727	1557
636.207	1555
636.688	1573
637.168	1579
637.649	1553
638.13	1537
638.611	1551
639.091	1559
639.572	1542
640.053	1536
640.534	1554
641.015	1548
641.496	1533
641.977	1568
642.458	1542
642.939	1550
643.42	1557
643.901	1571
644.382	1587
644.863	1578
645.345	1592
645.826	1597
646.307	1606
646.788	1636
647.27	1611
647.751	1614
648.233	1624
648.714	1587
649.196	1622
649.677	1626
650.159	1633
650.64	1610
651.122	1639
651.603	1609
652.085	1626
652.567	1637
653.049	1616
653.53	1607
654.012	1633
654.494	1613
654.976	1623
655.458	1628
655.94	1631
656.422	1661
656.904	1640
657.386	1615
657.868	1628
658.35	1619
658.833	1631
659.315	1634
659.797	1631
660.279	1634
660.762	1640
661.244	1628
661.726	1621
662.209	1615
662.691	1612
663.174	1590
663.656	1600
664.139	1603
664.621	1588
665.104	1569
665.587	1593
666.069	1606
666.552	1596
667.035	1582
667.517	1587
668	1604
668.483	1605
668.966	1594
669.449	1582
669.932	1584
670.415	1600
670.898	1595
671.381	1607
671.864	1616
672.347	1601
672.83	1600
673.313	1604
673.797	1609
674.28	1641
674.763	1646
675.247	1661
675.73	1654
676.213	1680
676.697	1692
677.18	1691
677.664	1698
678.147	1694
678.631	1698
679.114	1701
679.598	1695
680.082	1717
680.565	1711
681.049	1708
681.533	1702
682.017	1718
682.5	1714
682.984	1723
683.468	1727
683.952	1688
684.436	1726
684.92	1713
685.404	1723
685.888	1743
686.372	1740
686.856	1750
687.341	1776
687.825	1755
688.309	1768
688.793	1757
689.278	1739
689.762	1761
690.246	1750
690.731	1754
691.215	1765
691.7	1713
692.184	1740
692.669	1750
693.153	1776
693.638	1746
694.122	1744
694.607	1749
695.092	1727
695.577	1749
696.061	1719
696.546	1710
697.031	1693
697.516	1702
698.001	1707
698.486	1702
698.971	1729
699.456	1686
699.941	1696
700.426	1695
700.911	1712
701.396	1706
701.881	1719
702.366	1720
702.852	1716
703.337	1730
703.822	1726
704.308	1736
704.793	1744
705.278	1749
705.764	1753
706.249	1752
706.735	1741
707.22	1757
707.706	1735
708.191	1767
708.677	1762
709.163	1754
709.648	1767
710.134	1782
710.62	1766
711.106	1770
711.592	1784
712.077	1778
712.563	1738
713.049	1734
713.535	1772
714.021	1765
714.507	1756
714.993	1746
715.479	1762
715.966	1738
716.452	1748
716.938	1739
717.424	1703
717.91	1748
718.397	1740
718.883	1725
719.369	1722
719.856	1709
720.342	1737
720.829	1728
721.315	1733
721.802	1731
722.288	1754
722.775	1675
723.262	1632
723.748	1705
724.235	1712
724.722	1737
725.208	1718
725.695	1720
726.182	1703
726.669	1667
727.156	1683
727.643	1660
728.13	1652
728.617	1638
729.104	1630
729.591	1620
730.078	1629
730.565	1633
731.052	1608
731.539	1610
732.027	1610
732.514	1599
733.001	1615
733.488	1612
733.976	1593
734.463	1586
734.951	1575
735.438	1606
735.926	1595
736.413	1618
736.901	1602
737.388	1637
737.876	1645
738.364	1631
738.851	1636
739.339	1627
739.827	1642
740.314	1590
740.802	1612
741.29	1618
741.778	1608
742.266	1614
742.754	1621
743.242	1630
743.73	1590
744.218	1579
744.706	1566
745.194	1580
745.682	1577
746.17	1577
746.659	1582
747.147	1539
747.635	1547
748.123	1548
748.612	1534
749.1	1534
749.589	1550
750.077	1534
750.566	1524
751.054	1528
751.543	1531
752.031	1505
752.52	1510
753.008	1485
753.497	1494
753.986	1479
754.474	1472
754.963	1490
755.452	1470
755.941	1474
756.43	1468
756.919	1459
757.408	1452
757.896	1465
758.385	1470
758.875	1456
759.364	1446
759.853	1439
760.342	1415
760.831	1442
761.32	1429
761.809	1396
762.299	1408
762.788	1411
763.277	1400
763.767	1388
764.256	1396
764.745	1367
765.235	1390
765.724	1349
766.214	1369
766.703	1360
767.193	1349
767.683	1354
768.172	1324
768.662	1342
769.152	1336
769.641	1343
770.131	1302
770.621	1326
771.111	1301
771.601	1300
772.09	1293
772.58	1285
773.07	1295
773.56	1305
774.05	1294
774.54	1285
775.031	1280
775.521	1274
776.011	1266
776.501	1284
776.991	1258
777.482	1266
777.972	1240
778.462	1231
778.953	1238
779.443	1233
779.933	1225
780.424	1206
780.914	1211
781.405	1218
781.895	1207
782.386	1207
782.877	1204
783.367	1187
783.858	1172
784.349	1165
784.839	1155
785.33	1164
785.821	1164
786.312	1155
786.803	1161
787.293	1164
787.784	1141
788.275	1127
788.766	1111
789.257	1139
789.748	1117
790.24	1111
790.731	1128
791.222	1110
791.713	1109
792.204	1110
792.696	1083
793.187	1096
793.678	1082
794.169	1056
794.661	1075
795.152	1064
795.644	1054
796.135	1051
796.627	1068
797.118	1049
797.61	1037
798.101	1020
798.593	1030
799.085	1019
799.576	1023
800.068	1010
800.56	1006
801.052	988
801.544	982
802.035	990
802.527	967
803.019	957
803.511	958
804.003	951
804.495	956
804.987	945
805.479	921
805.971	936
806.464	936
806.956	913
807.448	917
807.94	913
808.433	914
808.925	919
809.417	902
809.91	895
810.402	875
810.894	872
811.387	876
811.879	860
812.372	871
812.865	863
813.357	865
813.85	858
814.342	848
814.835	857
815.328	849
815.821	839
816.313	837
816.806	844
817.299	843
817.792	843
818.285	837
818.778	848
819.271	848
819.764	827
820.257	826
820.75	832
821.243	826
821.736	818
822.229	824
822.722	820
823.216	842
