Data from lamp5helium_zwak_Subt4__48__203.txt Node

Date: Wed Apr 09 10:14:05 CEST 2025
User: fys-lab-0081
Spectrometer: S04999
Trigger mode: 0
Resolution mode: 1024 pixels
Integration Time (sec): 1.000000E-1
Scans to average: 1
Nonlinearity correction enabled: false
Boxcar width: 0
Baseline correction enabled: true
XAxis mode: Wavelengths
Number of Pixels in Spectrum: 1024
>>>>>Begin Spectral Data<<<<<
336.42	3
336.877	-3
337.334	-3
337.792	-1
338.249	5
338.706	1
339.164	-3
339.621	-1
340.079	4
340.536	2
340.994	7
341.452	-7
341.909	-2
342.367	1
342.825	2
343.283	0
343.741	1
344.198	3
344.656	-1
345.114	0
345.572	1
346.03	8
346.488	4
346.947	-1
347.405	-5
347.863	1
348.321	9
348.779	1
349.238	5
349.696	3
350.154	1
350.613	3
351.071	-2
351.53	4
351.988	-1
352.447	2
352.905	5
353.364	-2
353.823	1
354.282	5
354.74	-2
355.199	1
355.658	3
356.117	2
356.576	4
357.035	2
357.494	1
357.953	5
358.412	3
358.871	0
359.33	0
359.789	2
360.249	-3
360.708	5
361.167	4
361.626	4
362.086	1
362.545	-1
363.005	8
363.464	0
363.924	1
364.383	0
364.843	1
365.303	3
365.762	1
366.222	0
366.682	4
367.142	4
367.601	3
368.061	3
368.521	3
368.981	1
369.441	7
369.901	8
370.361	-2
370.821	1
371.282	4
371.742	6
372.202	7
372.662	8
373.123	4
373.583	1
374.043	7
374.504	-3
374.964	1
375.425	0
375.885	3
376.346	3
376.806	3
377.267	5
377.728	9
378.188	5
378.649	3
379.11	3
379.571	4
380.032	2
380.493	6
380.954	11
381.414	3
381.876	4
382.337	4
382.798	6
383.259	10
383.72	3
384.181	6
384.642	4
385.104	9
385.565	19
386.026	6
386.488	2
386.949	7
387.411	11
387.872	3
388.334	10
388.795	8
389.257	12
389.719	10
390.181	5
390.642	9
391.104	7
391.566	8
392.028	12
392.49	7
392.952	8
393.414	12
393.876	6
394.338	9
394.8	12
395.262	11
395.724	7
396.186	18
396.648	12
397.111	8
397.573	13
398.035	15
398.498	14
398.96	5
399.423	8
399.885	18
400.348	13
400.81	16
401.273	9
401.736	14
402.198	18
402.661	18
403.124	13
403.587	15
404.049	16
404.512	17
404.975	16
405.438	14
405.901	17
406.364	21
406.827	16
407.29	20
407.754	19
408.217	20
408.68	13
409.143	20
409.607	22
410.07	16
410.533	22
410.997	21
411.46	16
411.924	19
412.387	23
412.851	20
413.314	23
413.778	19
414.242	19
414.705	20
415.169	21
415.633	21
416.097	25
416.561	24
417.024	27
417.488	31
417.952	28
418.416	27
418.88	25
419.344	23
419.809	23
420.273	25
420.737	27
421.201	21
421.665	29
422.13	27
422.594	31
423.059	30
423.523	29
423.987	26
424.452	27
424.916	34
425.381	30
425.846	33
426.31	29
426.775	30
427.24	34
427.704	29
428.169	33
428.634	36
429.099	38
429.564	35
430.029	37
430.494	33
430.959	36
431.424	34
431.889	38
432.354	35
432.819	37
433.284	34
433.75	38
434.215	40
434.68	41
435.146	41
435.611	45
436.077	39
436.542	46
437.008	43
437.473	48
437.939	53
438.404	51
438.87	52
439.336	52
439.801	50
440.267	45
440.733	54
441.199	59
441.665	47
442.131	52
442.596	56
443.062	49
443.529	62
443.995	58
444.461	51
444.927	64
445.393	62
445.859	62
446.325	66
446.792	73
447.258	71
447.724	77
448.191	74
448.657	77
449.124	83
449.59	81
450.057	88
450.523	84
450.99	83
451.457	83
451.923	89
452.39	86
452.857	85
453.324	82
453.791	88
454.257	92
454.724	93
455.191	88
455.658	87
456.125	97
456.592	97
457.059	96
457.527	94
457.994	101
458.461	102
458.928	105
459.396	99
459.863	110
460.33	107
460.798	106
461.265	108
461.732	105
462.2	110
462.668	114
463.135	116
463.603	109
464.07	107
464.538	115
465.006	117
465.474	116
465.941	111
466.409	112
466.877	109
467.345	121
467.813	116
468.281	116
468.749	119
469.217	120
469.685	118
470.153	120
470.621	120
471.09	121
471.558	129
472.026	125
472.494	129
472.963	133
473.431	141
473.9	144
474.368	144
474.837	148
475.305	146
475.774	158
476.242	161
476.711	157
477.18	162
477.648	164
478.117	163
478.586	159
479.055	160
479.524	163
479.993	162
480.462	163
480.93	165
481.399	164
481.869	161
482.338	165
482.807	166
483.276	168
483.745	170
484.214	172
484.684	181
485.153	175
485.622	177
486.092	180
486.561	184
487.031	182
487.5	187
487.97	194
488.439	197
488.909	206
489.378	210
489.848	210
490.318	215
490.787	224
491.257	235
491.727	232
492.197	239
492.667	237
493.137	238
493.607	234
494.077	246
494.547	237
495.017	243
495.487	246
495.957	257
496.427	248
496.897	246
497.368	252
497.838	253
498.308	251
498.779	251
499.249	259
499.719	261
500.19	267
500.66	265
501.131	268
501.602	269
502.072	269
502.543	280
503.014	293
503.484	284
503.955	298
504.426	308
504.897	317
505.368	319
505.838	321
506.309	331
506.78	341
507.251	352
507.722	357
508.194	364
508.665	371
509.136	368
509.607	386
510.078	390
510.549	395
511.021	404
511.492	404
511.964	409
512.435	421
512.906	412
513.378	419
513.849	427
514.321	437
514.793	433
515.264	438
515.736	445
516.208	447
516.679	456
517.151	455
517.623	461
518.095	474
518.567	479
519.038	488
519.51	489
519.982	503
520.454	506
520.927	513
521.399	520
521.871	535
522.343	532
522.815	540
523.287	525
523.76	543
524.232	544
524.704	548
525.177	545
525.649	546
526.122	555
526.594	550
527.067	565
527.539	569
528.012	568
528.484	568
528.957	573
529.43	571
529.903	561
530.375	588
530.848	578
531.321	587
531.794	578
532.267	598
532.74	590
533.213	594
533.686	604
534.159	592
534.632	611
535.105	617
535.578	621
536.051	631
536.525	635
536.998	640
537.471	652
537.945	645
538.418	663
538.891	662
539.365	667
539.838	681
540.312	672
540.786	687
541.259	684
541.733	687
542.206	694
542.68	679
543.154	679
543.628	684
544.101	706
544.575	699
545.049	686
545.523	690
545.997	698
546.471	710
546.945	698
547.419	714
547.893	694
548.367	699
548.842	697
549.316	705
549.79	712
550.264	702
550.739	713
551.213	711
551.687	707
552.162	721
552.636	715
553.111	715
553.585	740
554.06	727
554.534	735
555.009	731
555.484	752
555.958	762
556.433	761
556.908	765
557.383	764
557.858	787
558.333	793
558.807	790
559.282	793
559.757	819
560.232	822
560.708	803
561.183	800
561.658	817
562.133	817
562.608	811
563.083	836
563.559	816
564.034	825
564.509	816
564.985	822
565.46	819
565.936	837
566.411	839
566.887	835
567.362	835
567.838	838
568.313	848
568.789	836
569.265	836
569.74	844
570.216	843
570.692	850
571.168	852
571.644	852
572.12	849
572.596	860
573.071	863
573.547	883
574.024	897
574.5	911
574.976	918
575.452	931
575.928	937
576.404	941
576.881	973
577.357	953
577.833	960
578.31	988
578.786	1008
579.262	1027
579.739	1015
580.215	1039
580.692	1027
581.169	1029
581.645	1032
582.122	1061
582.598	1056
583.075	1055
583.552	1072
584.029	1065
584.506	1064
584.982	1060
585.459	1082
585.936	1079
586.413	1092
586.89	1107
587.367	1100
587.844	1118
588.321	1111
588.799	1108
589.276	1097
589.753	1112
590.23	1129
590.707	1128
591.185	1121
591.662	1117
592.139	1139
592.617	1161
593.094	1157
593.572	1164
594.049	1174
594.527	1189
595.004	1190
595.482	1230
595.96	1211
596.437	1218
596.915	1256
597.393	1230
597.871	1267
598.349	1253
598.826	1272
599.304	1275
599.782	1300
600.26	1287
600.738	1312
601.216	1318
601.694	1335
602.173	1358
602.651	1353
603.129	1332
603.607	1353
604.085	1351
604.564	1355
605.042	1356
605.52	1346
605.999	1384
606.477	1357
606.956	1360
607.434	1371
607.913	1382
608.391	1379
608.87	1378
609.348	1371
609.827	1365
610.306	1371
610.785	1383
611.263	1394
611.742	1384
612.221	1371
612.7	1383
613.179	1395
613.658	1373
614.137	1397
614.616	1407
615.095	1379
615.574	1399
616.053	1415
616.532	1402
617.011	1414
617.491	1424
617.97	1426
618.449	1455
618.928	1469
619.408	1453
619.887	1465
620.367	1475
620.846	1502
621.326	1491
621.805	1528
622.285	1527
622.764	1532
623.244	1530
623.724	1545
624.203	1549
624.683	1517
625.163	1557
625.643	1555
626.123	1536
626.602	1571
627.082	1545
627.562	1549
628.042	1589
628.522	1565
629.002	1564
629.482	1572
629.963	1566
630.443	1568
630.923	1575
631.403	1587
631.883	1587
632.364	1590
632.844	1567
633.324	1585
633.805	1592
634.285	1584
634.766	1565
635.246	1574
635.727	1572
636.207	1580
636.688	1593
637.168	1600
637.649	1570
638.13	1556
638.611	1574
639.091	1576
639.572	1560
640.053	1553
640.534	1577
641.015	1567
641.496	1553
641.977	1578
642.458	1562
642.939	1562
643.42	1578
643.901	1589
644.382	1606
644.863	1599
645.345	1612
645.826	1613
646.307	1621
646.788	1654
647.27	1628
647.751	1635
648.233	1646
648.714	1604
649.196	1643
649.677	1651
650.159	1647
650.64	1634
651.122	1652
651.603	1630
652.085	1640
652.567	1656
653.049	1635
653.53	1631
654.012	1654
654.494	1634
654.976	1651
655.458	1652
655.94	1649
656.422	1683
656.904	1657
657.386	1643
657.868	1648
658.35	1641
658.833	1649
659.315	1656
659.797	1647
660.279	1645
660.762	1663
661.244	1660
661.726	1636
662.209	1639
662.691	1632
663.174	1609
663.656	1624
664.139	1617
664.621	1608
665.104	1588
665.587	1610
666.069	1617
666.552	1610
667.035	1594
667.517	1607
668	1624
668.483	1624
668.966	1615
669.449	1608
669.932	1603
670.415	1621
670.898	1607
671.381	1617
671.864	1632
672.347	1625
672.83	1621
673.313	1623
673.797	1619
674.28	1661
674.763	1665
675.247	1686
675.73	1675
676.213	1693
676.697	1707
677.18	1707
677.664	1718
678.147	1714
678.631	1715
679.114	1715
679.598	1717
680.082	1732
680.565	1729
681.049	1719
681.533	1722
682.017	1741
682.5	1734
682.984	1747
683.468	1744
683.952	1709
684.436	1746
684.92	1736
685.404	1749
685.888	1763
686.372	1758
686.856	1771
687.341	1794
687.825	1773
688.309	1784
688.793	1783
689.278	1760
689.762	1784
690.246	1759
690.731	1774
691.215	1794
691.7	1735
692.184	1758
692.669	1765
693.153	1795
693.638	1774
694.122	1765
694.607	1763
695.092	1746
695.577	1770
696.061	1742
696.546	1730
697.031	1711
697.516	1722
698.001	1725
698.486	1713
698.971	1752
699.456	1708
699.941	1713
700.426	1712
700.911	1735
701.396	1726
701.881	1739
702.366	1738
702.852	1743
703.337	1751
703.822	1748
704.308	1748
704.793	1764
705.278	1763
705.764	1777
706.249	1764
706.735	1759
707.22	1780
707.706	1748
708.191	1785
708.677	1784
709.163	1772
709.648	1792
710.134	1808
710.62	1778
711.106	1784
711.592	1805
712.077	1801
712.563	1760
713.049	1748
713.535	1784
714.021	1784
714.507	1776
714.993	1767
715.479	1783
715.966	1766
716.452	1766
716.938	1761
717.424	1716
717.91	1763
718.397	1760
718.883	1745
719.369	1743
719.856	1724
720.342	1762
720.829	1745
721.315	1756
721.802	1754
722.288	1761
722.775	1694
723.262	1645
723.748	1727
724.235	1730
724.722	1756
725.208	1739
725.695	1737
726.182	1715
726.669	1684
727.156	1692
727.643	1684
728.13	1670
728.617	1652
729.104	1648
729.591	1634
730.078	1648
730.565	1653
731.052	1624
731.539	1632
732.027	1628
732.514	1615
733.001	1636
733.488	1630
733.976	1613
734.463	1603
734.951	1597
735.438	1614
735.926	1613
736.413	1633
736.901	1624
737.388	1649
737.876	1659
738.364	1651
738.851	1659
739.339	1651
739.827	1657
740.314	1606
740.802	1631
741.29	1642
741.778	1625
742.266	1628
742.754	1643
743.242	1649
743.73	1603
744.218	1596
744.706	1580
745.194	1601
745.682	1592
746.17	1593
746.659	1596
747.147	1553
747.635	1569
748.123	1567
748.612	1545
749.1	1546
749.589	1570
750.077	1555
750.566	1536
751.054	1538
751.543	1542
752.031	1526
752.52	1526
753.008	1499
753.497	1504
753.986	1499
754.474	1486
754.963	1501
755.452	1485
755.941	1484
756.43	1481
756.919	1477
757.408	1467
757.896	1478
758.385	1485
758.875	1473
759.364	1453
759.853	1448
760.342	1432
760.831	1454
761.32	1443
761.809	1411
762.299	1418
762.788	1430
763.277	1419
763.767	1404
764.256	1404
764.745	1382
765.235	1409
765.724	1365
766.214	1384
766.703	1376
767.193	1357
767.683	1367
768.172	1340
768.662	1351
769.152	1348
769.641	1348
770.131	1320
770.621	1337
771.111	1315
771.601	1314
772.09	1306
772.58	1293
773.07	1304
773.56	1320
774.05	1298
774.54	1295
775.031	1292
775.521	1289
776.011	1278
776.501	1292
776.991	1267
777.482	1283
777.972	1250
778.462	1239
778.953	1257
779.443	1245
779.933	1229
780.424	1218
780.914	1223
781.405	1229
781.895	1220
782.386	1220
782.877	1216
783.367	1191
783.858	1182
784.349	1184
784.839	1171
785.33	1172
785.821	1179
786.312	1174
786.803	1171
787.293	1168
787.784	1156
788.275	1140
788.766	1127
789.257	1151
789.748	1134
790.24	1124
790.731	1136
791.222	1121
791.713	1119
792.204	1121
792.696	1101
793.187	1112
793.678	1102
794.169	1076
794.661	1081
795.152	1073
795.644	1068
796.135	1067
796.627	1074
797.118	1061
797.61	1056
798.101	1031
798.593	1044
799.085	1021
799.576	1033
800.068	1022
800.56	1014
801.052	996
801.544	993
802.035	997
802.527	975
803.019	975
803.511	969
804.003	958
804.495	966
804.987	954
805.479	927
805.971	947
806.464	944
806.956	918
807.448	922
807.94	926
808.433	921
808.925	934
809.417	907
809.91	907
810.402	877
810.894	883
811.387	887
811.879	869
812.372	881
812.865	869
813.357	874
813.85	866
814.342	860
814.835	862
815.328	861
815.821	843
816.313	845
816.806	849
817.299	845
817.792	850
818.285	845
818.778	849
819.271	852
819.764	841
820.257	839
820.75	838
821.243	835
821.736	823
822.229	832
822.722	831
823.216	846
