Data from lamp5helium_zwak_Subt4__27__182.txt Node

Date: Wed Apr 09 10:14:03 CEST 2025
User: fys-lab-0081
Spectrometer: S04999
Trigger mode: 0
Resolution mode: 1024 pixels
Integration Time (sec): 1.000000E-1
Scans to average: 1
Nonlinearity correction enabled: false
Boxcar width: 0
Baseline correction enabled: true
XAxis mode: Wavelengths
Number of Pixels in Spectrum: 1024
>>>>>Begin Spectral Data<<<<<
336.42	-1
336.877	-5
337.334	1
337.792	-2
338.249	2
338.706	-1
339.164	-6
339.621	0
340.079	4
340.536	4
340.994	9
341.452	-6
341.909	0
342.367	-4
342.825	2
343.283	-1
343.741	-2
344.198	3
344.656	-3
345.114	0
345.572	0
346.03	1
346.488	0
346.947	-3
347.405	1
347.863	-2
348.321	2
348.779	-2
349.238	1
349.696	3
350.154	0
350.613	-1
351.071	1
351.53	1
351.988	1
352.447	-1
352.905	3
353.364	-5
353.823	5
354.282	2
354.74	-4
355.199	2
355.658	2
356.117	-2
356.576	5
357.035	4
357.494	4
357.953	6
358.412	2
358.871	-7
359.33	-1
359.789	3
360.249	0
360.708	1
361.167	2
361.626	5
362.086	-1
362.545	0
363.005	4
363.464	-7
363.924	1
364.383	1
364.843	1
365.303	3
365.762	-1
366.222	0
366.682	0
367.142	2
367.601	2
368.061	-2
368.521	4
368.981	5
369.441	7
369.901	9
370.361	1
370.821	1
371.282	7
371.742	5
372.202	5
372.662	5
373.123	3
373.583	2
374.043	3
374.504	-1
374.964	6
375.425	1
375.885	3
376.346	4
376.806	3
377.267	1
377.728	8
378.188	5
378.649	2
379.11	5
379.571	1
380.032	6
380.493	1
380.954	8
381.414	-1
381.876	3
382.337	7
382.798	6
383.259	9
383.72	8
384.181	5
384.642	3
385.104	7
385.565	14
386.026	7
386.488	8
386.949	9
387.411	9
387.872	7
388.334	9
388.795	6
389.257	9
389.719	14
390.181	9
390.642	12
391.104	12
391.566	8
392.028	11
392.49	4
392.952	17
393.414	8
393.876	8
394.338	12
394.8	6
395.262	12
395.724	11
396.186	14
396.648	13
397.111	9
397.573	8
398.035	12
398.498	13
398.96	9
399.423	13
399.885	14
400.348	14
400.81	18
401.273	6
401.736	14
402.198	14
402.661	15
403.124	11
403.587	14
404.049	14.5
404.512	15
404.975	17
405.438	14
405.901	15
406.364	15
406.827	18
407.29	16
407.754	19
408.217	17
408.68	14
409.143	14
409.607	26
410.07	19
410.533	16
410.997	16
411.46	17
411.924	16
412.387	20
412.851	18
413.314	20
413.778	18
414.242	24
414.705	22
415.169	22
415.633	22
416.097	30
416.561	25
417.024	26
417.488	26
417.952	25
418.416	29
418.88	24
419.344	22
419.809	25
420.273	28
420.737	24
421.201	15
421.665	28
422.13	29
422.594	30
423.059	31
423.523	25
423.987	27
424.452	31
424.916	32
425.381	32
425.846	32
426.31	32
426.775	32
427.24	32
427.704	25
428.169	33
428.634	35
429.099	28
429.564	33
430.029	35
430.494	36
430.959	39
431.424	35
431.889	31
432.354	34
432.819	34
433.284	40
433.75	34
434.215	42
434.68	40
435.146	39
435.611	43
436.077	43
436.542	44
437.008	46
437.473	47
437.939	49
438.404	50
438.87	53
439.336	49
439.801	50
440.267	46
440.733	53
441.199	55
441.665	49
442.131	54
442.596	53
443.062	54
443.529	56
443.995	56
444.461	54
444.927	60
445.393	61
445.859	63
446.325	66
446.792	75
447.258	71
447.724	72
448.191	73
448.657	76
449.124	78
449.59	77
450.057	83
450.523	81
450.99	82
451.457	82
451.923	89
452.39	84
452.857	89
453.324	87
453.791	86
454.257	92
454.724	87
455.191	89
455.658	85
456.125	93
456.592	93
457.059	93
457.527	99
457.994	105
458.461	101
458.928	99
459.396	101
459.863	103
460.33	107
460.798	106
461.265	106
461.732	104
462.2	108
462.668	111
463.135	111
463.603	108
464.07	107
464.538	111
465.006	116
465.474	109
465.941	111
466.409	109
466.877	106
467.345	120
467.813	114
468.281	115
468.749	114
469.217	113
469.685	117
470.153	116
470.621	117
471.09	123
471.558	123
472.026	125
472.494	129
472.963	128
473.431	138
473.9	138
474.368	142
474.837	142
475.305	148
475.774	153
476.242	155
476.711	155
477.18	161
477.648	164
478.117	163
478.586	159
479.055	155
479.524	159
479.993	168
480.462	165
480.93	161
481.399	163
481.869	163
482.338	163
482.807	163
483.276	163
483.745	167
484.214	171
484.684	175
485.153	169
485.622	171
486.092	178
486.561	179
487.031	172
487.5	181
487.97	195
488.439	198
488.909	200
489.378	207
489.848	204
490.318	217
490.787	217
491.257	227
491.727	225
492.197	234
492.667	233
493.137	236
493.607	234
494.077	240
494.547	236
495.017	243
495.487	242
495.957	248
496.427	242
496.897	242
497.368	250
497.838	248
498.308	255
498.779	254
499.249	261
499.719	255
500.19	260
500.66	262
501.131	264
501.602	269
502.072	265
502.543	278
503.014	288
503.484	287
503.955	292
504.426	307
504.897	308
505.368	317
505.838	317
506.309	326
506.78	334
507.251	347
507.722	351
508.194	363
508.665	368
509.136	367
509.607	384
510.078	385
510.549	388
511.021	397
511.492	403
511.964	405
512.435	413
512.906	409
513.378	416
513.849	422
514.321	426
514.793	431
515.264	435
515.736	439
516.208	452
516.679	450
517.151	453
517.623	455
518.095	467
518.567	476
519.038	481
519.51	484
519.982	501
520.454	496
520.927	504
521.399	517
521.871	521
522.343	525
522.815	530
523.287	525
523.76	526
524.232	543
524.704	546
525.177	538
525.649	539
526.122	547
526.594	544
527.067	558
527.539	561
528.012	558
528.484	559
528.957	564
529.43	565
529.903	561
530.375	584
530.848	570
531.321	582
531.794	574
532.267	587
532.74	583
533.213	585
533.686	596
534.159	586
534.632	604
535.105	612
535.578	618
536.051	622
536.525	626
536.998	631
537.471	640
537.945	639
538.418	654
538.891	659
539.365	666
539.838	674
540.312	671
540.786	676
541.259	674
541.733	684
542.206	681
542.68	675
543.154	674
543.628	672
544.101	694
544.575	694
545.049	676
545.523	685
545.997	691
546.471	701
546.945	692
547.419	709
547.893	681
548.367	689
548.842	684
549.316	690
549.79	704
550.264	690
550.739	706
551.213	696
551.687	697
552.162	708
552.636	710
553.111	703
553.585	731
554.06	723
554.534	726
555.009	720
555.484	743
555.958	749
556.433	752
556.908	755
557.383	755
557.858	779
558.333	789
558.807	777
559.282	783
559.757	812
560.232	811
560.708	797
561.183	798
561.658	805
562.133	804
562.608	799
563.083	822
563.559	803
564.034	813
564.509	810
564.985	813
565.46	810
565.936	832
566.411	826
566.887	824
567.362	826
567.838	822
568.313	836
568.789	825
569.265	824
569.74	835
570.216	835
570.692	840
571.168	846
571.644	841
572.12	839
572.596	849
573.071	859
573.547	875
574.024	887
574.5	903
574.976	912
575.452	918
575.928	927
576.404	931
576.881	960
577.357	946
577.833	947
578.31	972
578.786	991
579.262	1017
579.739	1003
580.215	1030
580.692	1016
581.169	1014
581.645	1015
582.122	1045
582.598	1043
583.075	1044
583.552	1058
584.029	1052
584.506	1051
584.982	1047
585.459	1071
585.936	1063
586.413	1078
586.89	1097
587.367	1085
587.844	1105
588.321	1107
588.799	1099
589.276	1087
589.753	1094
590.23	1113
590.707	1113
591.185	1108
591.662	1106
592.139	1126
592.617	1149
593.094	1150
593.572	1144
594.049	1159
594.527	1171
595.004	1181
595.482	1205
595.96	1200
596.437	1199
596.915	1239
597.393	1214
597.871	1252
598.349	1233
598.826	1253
599.304	1267
599.782	1289
600.26	1271
600.738	1302
601.216	1302
601.694	1323
602.173	1335
602.651	1340
603.129	1322
603.607	1340
604.085	1346
604.564	1344
605.042	1336
605.52	1333
605.999	1372
606.477	1340
606.956	1343
607.434	1358
607.913	1373
608.391	1366
608.87	1366
609.348	1351
609.827	1353
610.306	1357
610.785	1374
611.263	1380
611.742	1368
612.221	1359
612.7	1375
613.179	1381
613.658	1358
614.137	1380
614.616	1390
615.095	1361
615.574	1385
616.053	1403
616.532	1392
617.011	1396
617.491	1410
617.97	1414
618.449	1440
618.928	1452
619.408	1437
619.887	1448
620.367	1466
620.846	1476
621.326	1466
621.805	1506
622.285	1505
622.764	1514
623.244	1514
623.724	1527
624.203	1533
624.683	1503
625.163	1535
625.643	1538
626.123	1524
626.602	1556
627.082	1529
627.562	1533
628.042	1569
628.522	1548
629.002	1547
629.482	1555
629.963	1550
630.443	1546
630.923	1558
631.403	1567
631.883	1567
632.364	1575
632.844	1554
633.324	1573
633.805	1576
634.285	1560
634.766	1557
635.246	1551
635.727	1558
636.207	1561
636.688	1580
637.168	1578
637.649	1552
638.13	1541
638.611	1555
639.091	1561
639.572	1549
640.053	1541
640.534	1554
641.015	1548
641.496	1535
641.977	1564
642.458	1547
642.939	1552
643.42	1559
643.901	1576
644.382	1587
644.863	1583
645.345	1594
645.826	1595
646.307	1604
646.788	1639
647.27	1614
647.751	1619
648.233	1626
648.714	1586
649.196	1628
649.677	1631
650.159	1631
650.64	1612
651.122	1631
651.603	1616
652.085	1630
652.567	1633
653.049	1613
653.53	1617
654.012	1635
654.494	1611
654.976	1629
655.458	1635
655.94	1635
656.422	1663
656.904	1641
657.386	1618
657.868	1623
658.35	1617
658.833	1634
659.315	1638
659.797	1622
660.279	1630
660.762	1651
661.244	1638
661.726	1618
662.209	1617
662.691	1621
663.174	1592
663.656	1605
664.139	1607
664.621	1587
665.104	1574
665.587	1601
666.069	1596
666.552	1599
667.035	1578
667.517	1596
668	1608
668.483	1611
668.966	1590
669.449	1587
669.932	1588
670.415	1606
670.898	1592
671.381	1605
671.864	1613
672.347	1602
672.83	1599
673.313	1606
673.797	1607
674.28	1638
674.763	1647
675.247	1668
675.73	1649
676.213	1677
676.697	1689
677.18	1699
677.664	1700
678.147	1703
678.631	1699
679.114	1700
679.598	1697
680.082	1718
680.565	1717
681.049	1703
681.533	1703
682.017	1719
682.5	1714
682.984	1722
683.468	1735
683.952	1698
684.436	1726
684.92	1717
685.404	1724
685.888	1746
686.372	1733
686.856	1749
687.341	1784
687.825	1752
688.309	1761
688.793	1760
689.278	1739
689.762	1765
690.246	1751
690.731	1755
691.215	1765
691.7	1719
692.184	1741
692.669	1747
693.153	1771
693.638	1751
694.122	1744
694.607	1749
695.092	1729
695.577	1750
696.061	1720
696.546	1710
697.031	1686
697.516	1701
698.001	1708
698.486	1701
698.971	1732
699.456	1691
699.941	1696
700.426	1694
700.911	1713
701.396	1706
701.881	1722
702.366	1728
702.852	1721
703.337	1739
703.822	1734
704.308	1736
704.793	1746
705.278	1746
705.764	1756
706.249	1752
706.735	1742
707.22	1767
707.706	1735
708.191	1770
708.677	1765
709.163	1760
709.648	1773
710.134	1784
710.62	1764
711.106	1762
711.592	1791
712.077	1783
712.563	1745
713.049	1728
713.535	1771
714.021	1768
714.507	1764
714.993	1746
715.479	1762
715.966	1745
716.452	1743
716.938	1746
717.424	1705
717.91	1741
718.397	1737
718.883	1726
719.369	1722
719.856	1711
720.342	1737
720.829	1728
721.315	1738
721.802	1733
722.288	1758
722.775	1680
723.262	1629
723.748	1705
724.235	1706
724.722	1742
725.208	1713
725.695	1714
726.182	1697
726.669	1668
727.156	1678
727.643	1665
728.13	1656
728.617	1633
729.104	1639
729.591	1623
730.078	1631
730.565	1634
731.052	1607
731.539	1617
732.027	1617
732.514	1600
733.001	1622
733.488	1614
733.976	1600
734.463	1585
734.951	1578
735.438	1600
735.926	1600
736.413	1625
736.901	1603
737.388	1627
737.876	1639
738.364	1637
738.851	1635
739.339	1631
739.827	1644
740.314	1594
740.802	1608
741.29	1629
741.778	1607
742.266	1618
742.754	1628
743.242	1638
743.73	1586
744.218	1582
744.706	1563
745.194	1585
745.682	1575
746.17	1578
746.659	1586
747.147	1537
747.635	1553
748.123	1551
748.612	1535
749.1	1528
749.589	1553
750.077	1539
750.566	1529
751.054	1524
751.543	1530
752.031	1515
752.52	1510
753.008	1485
753.497	1499
753.986	1479
754.474	1476
754.963	1491
755.452	1471
755.941	1473
756.43	1472
756.919	1457
757.408	1455
757.896	1463
758.385	1473
758.875	1459
759.364	1441
759.853	1440
760.342	1414
760.831	1450
761.32	1428
761.809	1399
762.299	1410
762.788	1419
763.277	1405
763.767	1387
764.256	1392
764.745	1371
765.235	1392
765.724	1360
766.214	1371
766.703	1361
767.193	1348
767.683	1353
768.172	1327
768.662	1347
769.152	1333
769.641	1335
770.131	1305
770.621	1327
771.111	1306
771.601	1301
772.09	1298
772.58	1288
773.07	1292
773.56	1310
774.05	1293
774.54	1286
775.031	1289
775.521	1282
776.011	1268
776.501	1288
776.991	1259
777.482	1268
777.972	1242
778.462	1233
778.953	1242
779.443	1232
779.933	1224
780.424	1211
780.914	1216
781.405	1219
781.895	1206
782.386	1208
782.877	1210
783.367	1185
783.858	1172
784.349	1164
784.839	1161
785.33	1171
785.821	1171
786.312	1158
786.803	1161
787.293	1164
787.784	1140
788.275	1134
788.766	1115
789.257	1137
789.748	1125
790.24	1119
790.731	1129
791.222	1111
791.713	1110
792.204	1117
792.696	1087
793.187	1098
793.678	1090
794.169	1061
794.661	1077
795.152	1067
795.644	1058
796.135	1062
796.627	1066
797.118	1054
797.61	1043
798.101	1031
798.593	1029
799.085	1020
799.576	1021
800.068	1012
800.56	1013
801.052	986
801.544	989
802.035	981
802.527	967
803.019	967
803.511	956
804.003	950
804.495	955
804.987	948
805.479	928
805.971	939
806.464	937
806.956	905
807.448	919
807.94	920
808.433	915
808.925	913
809.417	901
809.91	905
810.402	869
810.894	876
811.387	874
811.879	860
812.372	876
812.865	860
813.357	863
813.85	852
814.342	854
814.835	858
815.328	849
815.821	833
816.313	839
816.806	843
817.299	837
817.792	842
818.285	835
818.778	846
819.271	843
819.764	832
820.257	833
820.75	837
821.243	831
821.736	820
822.229	826
822.722	826
823.216	842
