Data from lamp5helium_zwak_Subt4__3__158.txt Node

Date: Wed Apr 09 10:14:00 CEST 2025
User: fys-lab-0081
Spectrometer: S04999
Trigger mode: 0
Resolution mode: 1024 pixels
Integration Time (sec): 1.000000E-1
Scans to average: 1
Nonlinearity correction enabled: false
Boxcar width: 0
Baseline correction enabled: true
XAxis mode: Wavelengths
Number of Pixels in Spectrum: 1024
>>>>>Begin Spectral Data<<<<<
336.42	1
336.877	4
337.334	-1
337.792	0
338.249	5
338.706	-1
339.164	-3
339.621	-1
340.079	1
340.536	3
340.994	2
341.452	-6
341.909	3
342.367	-1
342.825	-2
343.283	0
343.741	-1
344.198	3
344.656	0
345.114	-2
345.572	0
346.03	0
346.488	2
346.947	-2
347.405	0
347.863	-2
348.321	6
348.779	-1
349.238	1
349.696	0
350.154	0
350.613	1
351.071	-1
351.53	2
351.988	3
352.447	-1
352.905	-2
353.364	-5
353.823	2
354.282	1
354.74	-1
355.199	5
355.658	-1
356.117	4
356.576	7
357.035	2
357.494	-2
357.953	2
358.412	7
358.871	-3
359.33	0
359.789	3
360.249	-3
360.708	4
361.167	1
361.626	8
362.086	1
362.545	-1
363.005	4
363.464	-3
363.924	1
364.383	6
364.843	1
365.303	7
365.762	2
366.222	1
366.682	3
367.142	0
367.601	1
368.061	0
368.521	8
368.981	-1
369.441	1
369.901	5
370.361	4
370.821	1
371.282	2
371.742	5
372.202	5
372.662	8
373.123	4
373.583	0
374.043	2
374.504	-1
374.964	0
375.425	3
375.885	4
376.346	4
376.806	2
377.267	4
377.728	4
378.188	3
378.649	-1
379.11	7
379.571	4
380.032	3
380.493	0
380.954	7
381.414	1
381.876	5
382.337	4
382.798	8
383.259	12
383.72	7
384.181	2
384.642	1
385.104	9
385.565	16
386.026	4
386.488	4
386.949	7
387.411	11
387.872	3
388.334	7
388.795	7
389.257	13
389.719	6
390.181	0
390.642	11
391.104	8
391.566	7
392.028	14
392.49	8
392.952	8
393.414	11
393.876	10
394.338	9
394.8	7
395.262	13
395.724	10
396.186	12
396.648	8
397.111	13
397.573	12
398.035	10
398.498	14
398.96	10
399.423	8
399.885	12
400.348	8
400.81	19
401.273	12
401.736	16
402.198	14
402.661	13
403.124	11
403.587	15
404.049	17
404.512	19
404.975	18
405.438	13
405.901	17
406.364	19
406.827	16
407.29	16
407.754	16
408.217	19
408.68	17
409.143	17
409.607	21
410.07	15
410.533	15
410.997	21
411.46	18
411.924	14
412.387	18
412.851	15
413.314	19
413.778	22
414.242	26
414.705	17
415.169	24
415.633	17
416.097	22
416.561	25
417.024	23
417.488	31
417.952	27
418.416	22
418.88	22
419.344	24
419.809	22
420.273	26
420.737	25
421.201	14
421.665	24
422.13	27
422.594	31
423.059	31
423.523	26
423.987	24
424.452	28
424.916	29
425.381	26
425.846	30
426.31	31
426.775	28
427.24	36
427.704	26
428.169	35
428.634	36
429.099	33
429.564	29
430.029	33
430.494	38
430.959	36
431.424	30
431.889	32
432.354	33
432.819	37
433.284	36
433.75	31
434.215	36
434.68	43
435.146	40
435.611	40
436.077	44
436.542	43
437.008	44
437.473	50
437.939	48
438.404	50
438.87	52
439.336	46
439.801	47
440.267	43
440.733	54
441.199	55
441.665	54
442.131	54
442.596	50
443.062	50
443.529	55
443.995	56
444.461	54
444.927	62
445.393	57
445.859	61
446.325	64
446.792	70
447.258	70
447.724	74
448.191	68
448.657	70
449.124	75
449.59	76
450.057	82
450.523	78
450.99	84
451.457	79
451.923	83
452.39	80
452.857	83
453.324	79
453.791	82
454.257	89
454.724	87
455.191	84
455.658	84
456.125	96
456.592	91
457.059	91
457.527	94
457.994	99
458.461	98
458.928	101
459.396	99
459.863	100
460.33	100
460.798	98
461.265	104
461.732	102
462.2	103
462.668	106
463.135	106
463.603	105
464.07	102
464.538	110
465.006	112
465.474	110
465.941	109
466.409	109
466.877	105
467.345	114
467.813	115
468.281	114
468.749	110
469.217	114
469.685	115
470.153	116
470.621	117
471.09	120
471.558	121
472.026	121
472.494	125
472.963	126
473.431	131
473.9	136
474.368	142
474.837	142
475.305	144
475.774	152
476.242	158
476.711	150
477.18	155
477.648	153
478.117	160
478.586	161
479.055	156
479.524	161
479.993	157
480.462	157
480.93	162
481.399	157
481.869	158
482.338	162
482.807	160
483.276	158
483.745	167
484.214	168
484.684	173
485.153	168
485.622	166
486.092	176
486.561	176
487.031	173
487.5	180
487.97	191
488.439	197
488.909	195
489.378	199
489.848	203
490.318	211
490.787	214
491.257	229
491.727	221
492.197	233
492.667	227
493.137	226
493.607	232
494.077	234
494.547	231
495.017	236
495.487	236
495.957	242
496.427	237
496.897	240
497.368	241
497.838	245
498.308	244
498.779	246
499.249	252
499.719	251
500.19	257
500.66	256
501.131	256
501.602	263
502.072	261
502.543	271
503.014	275
503.484	279
503.955	287
504.426	304
504.897	301
505.368	313
505.838	308
506.309	319
506.78	331
507.251	339
507.722	341
508.194	351
508.665	361
509.136	352
509.607	374
510.078	375
510.549	376
511.021	392
511.492	392
511.964	397
512.435	399
512.906	400
513.378	406
513.849	411
514.321	418
514.793	422
515.264	422
515.736	423
516.208	440
516.679	444
517.151	441
517.623	446
518.095	455
518.567	464
519.038	469
519.51	472
519.982	489
520.454	488
520.927	496
521.399	495
521.871	513
522.343	515
522.815	522
523.287	513
523.76	519
524.232	530
524.704	535
525.177	527
525.649	529
526.122	538
526.594	526
527.067	550
527.539	553
528.012	546
528.484	548
528.957	551
529.43	550
529.903	542
530.375	567
530.848	559
531.321	569
531.794	562
532.267	578
532.74	568
533.213	573
533.686	585
534.159	577
534.632	593
535.105	593
535.578	600
536.051	607
536.525	617
536.998	620
537.471	633
537.945	625
538.418	638
538.891	646
539.365	645
539.838	659
540.312	656
540.786	660
541.259	661
541.733	663
542.206	665
542.68	660
543.154	656
543.628	657
544.101	686
544.575	678
545.049	659
545.523	671
545.997	680
546.471	688
546.945	678
547.419	696
547.893	669
548.367	675
548.842	673
549.316	678
549.79	688
550.264	679
550.739	695
551.213	683
551.687	684
552.162	691
552.636	692
553.111	688
553.585	720
554.06	699
554.534	709
555.009	705
555.484	729
555.958	739
556.433	734
556.908	739
557.383	737
557.858	763
558.333	771
558.807	765
559.282	769
559.757	792
560.232	797
560.708	778
561.183	774
561.658	790
562.133	789
562.608	777
563.083	807
563.559	783
564.034	794
564.509	786
564.985	798
565.46	794
565.936	812
566.411	810
566.887	809
567.362	806
567.838	808
568.313	820
568.789	809
569.265	809
569.74	818
570.216	816
570.692	822
571.168	825
571.644	817
572.12	822
572.596	835
573.071	835
573.547	855
574.024	868
574.5	882
574.976	887
575.452	901
575.928	901
576.404	908
576.881	944
577.357	926
577.833	927
578.31	952
578.786	971
579.262	994
579.739	981
580.215	1001
580.692	998
581.169	997
581.645	1000
582.122	1024
582.598	1028
583.075	1028
583.552	1040
584.029	1036
584.506	1035
584.982	1026
585.459	1048
585.936	1042
586.413	1062
586.89	1073
587.367	1069
587.844	1091
588.321	1081
588.799	1074
589.276	1066
589.753	1077
590.23	1086
590.707	1092
591.185	1088
591.662	1085
592.139	1101
592.617	1122
593.094	1117
593.572	1120
594.049	1142
594.527	1145
595.004	1154
595.482	1182
595.96	1175
596.437	1174
596.915	1212
597.393	1200
597.871	1223
598.349	1206
598.826	1230
599.304	1239
599.782	1260
600.26	1246
600.738	1282
601.216	1278
601.694	1296
602.173	1310
602.651	1311
603.129	1294
603.607	1315
604.085	1308
604.564	1310
605.042	1312
605.52	1303
605.999	1344
606.477	1313
606.956	1319
607.434	1328.5
607.913	1338
608.391	1341
608.87	1337
609.348	1326
609.827	1329
610.306	1333
610.785	1341
611.263	1361
611.742	1342
612.221	1331
612.7	1345
613.179	1352
613.658	1334
614.137	1357
614.616	1368
615.095	1336
615.574	1360
616.053	1374
616.532	1362
617.011	1370
617.491	1380
617.97	1390
618.449	1417
618.928	1428
619.408	1413
619.887	1423
620.367	1428
620.846	1455
621.326	1445
621.805	1476
622.285	1481
622.764	1489
623.244	1488
623.724	1500
624.203	1506
624.683	1472
625.163	1508
625.643	1510
626.123	1499
626.602	1531
627.082	1501
627.562	1501
628.042	1543
628.522	1523
629.002	1514
629.482	1526
629.963	1523
630.443	1518
630.923	1534
631.403	1541
631.883	1544
632.364	1550
632.844	1524
633.324	1539
633.805	1543
634.285	1526
634.766	1526
635.246	1530
635.727	1522
636.207	1537
636.688	1546
637.168	1542
637.649	1523
638.13	1510
638.611	1532
639.091	1531
639.572	1521
640.053	1516
640.534	1525
641.015	1521
641.496	1511
641.977	1535
642.458	1517
642.939	1523
643.42	1525
643.901	1543
644.382	1559
644.863	1548
645.345	1565
645.826	1568
646.307	1576
646.788	1601
647.27	1587
647.751	1587
648.233	1594
648.714	1565
649.196	1599
649.677	1606
650.159	1607
650.64	1584
651.122	1611
651.603	1584
652.085	1596
652.567	1604
653.049	1591
653.53	1583
654.012	1604
654.494	1585
654.976	1599
655.458	1607
655.94	1609
656.422	1634
656.904	1608
657.386	1595
657.868	1597
658.35	1593
658.833	1604
659.315	1610
659.797	1599
660.279	1603
660.762	1622
661.244	1610
661.726	1591
662.209	1589
662.691	1601
663.174	1566
663.656	1577
664.139	1573
664.621	1559
665.104	1548
665.587	1568
666.069	1572
666.552	1573
667.035	1550
667.517	1563
668	1580
668.483	1579
668.966	1568
669.449	1560
669.932	1567
670.415	1577
670.898	1565
671.381	1578
671.864	1591
672.347	1577
672.83	1576
673.313	1580
673.797	1586
674.28	1613
674.763	1621
675.247	1634
675.73	1635
676.213	1648
676.697	1666
677.18	1661
677.664	1668
678.147	1660
678.631	1673
679.114	1677
679.598	1669
680.082	1691
680.565	1686
681.049	1674
681.533	1680
682.017	1693
682.5	1686
682.984	1695
683.468	1696
683.952	1660
684.436	1696
684.92	1692
685.404	1696
685.888	1712
686.372	1706
686.856	1727
687.341	1750
687.825	1730
688.309	1728
688.793	1731
689.278	1709
689.762	1732
690.246	1717
690.731	1725
691.215	1732
691.7	1693
692.184	1716
692.669	1721
693.153	1740
693.638	1727
694.122	1724
694.607	1715
695.092	1699
695.577	1726
696.061	1698
696.546	1686
697.031	1664
697.516	1673
698.001	1683
698.486	1676
698.971	1702
699.456	1660
699.941	1668
700.426	1664
700.911	1690
701.396	1678
701.881	1696
702.366	1694
702.852	1699
703.337	1701
703.822	1704
704.308	1705
704.793	1722
705.278	1724
705.764	1731
706.249	1716
706.735	1715
707.22	1737
707.706	1709
708.191	1738
708.677	1735
709.163	1723
709.648	1742
710.134	1759
710.62	1734
711.106	1734
711.592	1762
712.077	1751
712.563	1715
713.049	1710
713.535	1741
714.021	1741
714.507	1743
714.993	1715
715.479	1737
715.966	1721
716.452	1718
716.938	1718
717.424	1677
717.91	1717
718.397	1711
718.883	1699
719.369	1695
719.856	1682
720.342	1712
720.829	1701
721.315	1711
721.802	1705
722.288	1723
722.775	1646
723.262	1607
723.748	1677
724.235	1677
724.722	1714
725.208	1694
725.695	1689
726.182	1679
726.669	1646
727.156	1652
727.643	1632
728.13	1629
728.617	1615
729.104	1615
729.591	1591
730.078	1606
730.565	1613
731.052	1587
731.539	1589
732.027	1585
732.514	1577
733.001	1592
733.488	1589
733.976	1572
734.463	1566
734.951	1557
735.438	1578
735.926	1576
736.413	1590
736.901	1582
737.388	1608
737.876	1617
738.364	1610
738.851	1613
739.339	1598
739.827	1620
740.314	1574
740.802	1590
741.29	1607
741.778	1581
742.266	1593
742.754	1601
743.242	1608
743.73	1563
744.218	1552
744.706	1538
745.194	1559
745.682	1547
746.17	1556
746.659	1558
747.147	1524
747.635	1528
748.123	1523
748.612	1508
749.1	1514
749.589	1531
750.077	1518
750.566	1504
751.054	1502
751.543	1502
752.031	1492
752.52	1489
753.008	1463
753.497	1470
753.986	1459
754.474	1453
754.963	1471
755.452	1450
755.941	1452
756.43	1450
756.919	1435
757.408	1429
757.896	1449
758.385	1453
758.875	1434
759.364	1422
759.853	1418
760.342	1399
760.831	1422
761.32	1403
761.809	1374
762.299	1390
762.788	1394
763.277	1385
763.767	1371
764.256	1374
764.745	1349
765.235	1370
765.724	1337
766.214	1346
766.703	1346
767.193	1331
767.683	1332
768.172	1304
768.662	1324
769.152	1317
769.641	1320
770.131	1281
770.621	1301
771.111	1286
771.601	1280
772.09	1280
772.58	1264
773.07	1276
773.56	1289
774.05	1273
774.54	1269
775.031	1259
775.521	1261
776.011	1251
776.501	1268
776.991	1239
777.482	1255
777.972	1228
778.462	1218
778.953	1219
779.443	1214
779.933	1202
780.424	1191
780.914	1195
781.405	1201
781.895	1187
782.386	1190
782.877	1192
783.367	1165
783.858	1153
784.349	1155
784.839	1138
785.33	1149
785.821	1150
786.312	1144
786.803	1145
787.293	1150
787.784	1126
788.275	1111
788.766	1100
789.257	1129
789.748	1108
790.24	1100
790.731	1114
791.222	1099
791.713	1091
792.204	1101
792.696	1075
793.187	1084
793.678	1072
794.169	1048
794.661	1061
795.152	1050
795.644	1048
796.135	1046
796.627	1050
797.118	1036
797.61	1024
798.101	1005
798.593	1011
799.085	1002
799.576	1007
800.068	995
800.56	1000
801.052	977
801.544	974
802.035	970
802.527	954
803.019	952
803.511	942
804.003	939
804.495	947
804.987	931
805.479	910
805.971	924
806.464	922
806.956	903
807.448	901
807.94	907
808.433	898
808.925	902
809.417	891
809.91	888
810.402	859
810.894	857
811.387	870
811.879	852
812.372	859
812.865	845
813.357	851
813.85	844
814.342	844
814.835	843
815.328	834
815.821	826
816.313	829
816.806	830
817.299	828
817.792	833
818.285	822
818.778	834
819.271	835
819.764	817
820.257	822
820.75	827
821.243	823
821.736	808
822.229	811
822.722	812
823.216	836
