Data from lamp5helium_zwak_Subt4__98__253.txt Node

Date: Wed Apr 09 10:14:11 CEST 2025
User: fys-lab-0081
Spectrometer: S04999
Trigger mode: 0
Resolution mode: 1024 pixels
Integration Time (sec): 1.000000E-1
Scans to average: 1
Nonlinearity correction enabled: false
Boxcar width: 0
Baseline correction enabled: true
XAxis mode: Wavelengths
Number of Pixels in Spectrum: 1024
>>>>>Begin Spectral Data<<<<<
336.42	-1
336.877	-3
337.334	1
337.792	0
338.249	8
338.706	1
339.164	-4
339.621	0
340.079	3
340.536	1
340.994	4
341.452	-5
341.909	0
342.367	0
342.825	-3
343.283	-4
343.741	1
344.198	0
344.656	0
345.114	0
345.572	1
346.03	6
346.488	4
346.947	-2
347.405	2
347.863	1
348.321	4
348.779	-4
349.238	1
349.696	-2
350.154	2
350.613	3
351.071	-2
351.53	0
351.988	2
352.447	-2
352.905	3
353.364	-1
353.823	0
354.282	3
354.74	-5
355.199	3
355.658	2
356.117	2
356.576	3
357.035	1
357.494	2
357.953	8
358.412	4
358.871	-7
359.33	-1
359.789	4
360.249	-2
360.708	3
361.167	-2
361.626	2
362.086	5
362.545	4
363.005	7
363.464	-2
363.924	-2
364.383	6
364.843	-2
365.303	-2
365.762	-1
366.222	-5
366.682	3
367.142	2
367.601	3
368.061	4
368.521	9
368.981	-3
369.441	5
369.901	6
370.361	7
370.821	0
371.282	5
371.742	3
372.202	5
372.662	7
373.123	3
373.583	4
374.043	5
374.504	-1
374.964	1
375.425	2
375.885	3
376.346	3
376.806	0
377.267	5
377.728	9
378.188	5
378.649	6
379.11	6
379.571	3
380.032	4
380.493	3
380.954	4
381.414	2
381.876	5
382.337	5
382.798	1
383.259	12
383.72	3
384.181	8
384.642	1
385.104	7
385.565	13
386.026	6
386.488	2
386.949	9
387.411	12
387.872	8
388.334	10
388.795	5
389.257	13
389.719	8
390.181	6
390.642	13
391.104	10
391.566	7
392.028	13
392.49	6
392.952	13
393.414	10
393.876	8
394.338	10
394.8	9
395.262	12
395.724	10
396.186	9
396.648	9
397.111	12
397.573	15
398.035	12
398.498	16
398.96	9
399.423	12
399.885	15
400.348	14
400.81	21
401.273	7
401.736	15
402.198	16
402.661	14
403.124	11
403.587	14
404.049	17
404.512	20
404.975	17
405.438	16
405.901	15
406.364	18
406.827	18
407.29	18
407.754	18
408.217	18
408.68	15
409.143	15
409.607	21
410.07	19
410.533	24
410.997	24
411.46	19
411.924	17
412.387	22
412.851	20
413.314	20
413.778	19
414.242	22
414.705	21
415.169	21
415.633	19
416.097	24
416.561	23
417.024	27
417.488	29
417.952	25
418.416	29
418.88	23
419.344	27
419.809	24
420.273	23
420.737	22
421.201	20
421.665	26
422.13	28
422.594	25
423.059	29
423.523	27
423.987	27
424.452	29
424.916	30
425.381	30
425.846	26
426.31	27
426.775	30
427.24	35
427.704	28
428.169	35
428.634	32
429.099	30
429.564	32
430.029	34
430.494	36
430.959	30
431.424	31
431.889	36
432.354	33
432.819	34
433.284	34
433.75	35
434.215	38
434.68	41
435.146	39
435.611	47
436.077	40
436.542	43
437.008	44
437.473	47
437.939	49
438.404	46
438.87	52
439.336	48
439.801	49
440.267	45
440.733	55
441.199	60
441.665	46
442.131	54
442.596	58
443.062	51
443.529	56
443.995	57
444.461	53
444.927	62
445.393	61
445.859	65
446.325	66
446.792	72
447.258	68
447.724	70
448.191	69
448.657	76
449.124	78
449.59	76
450.057	88
450.523	78
450.99	82
451.457	79
451.923	84
452.39	84
452.857	86
453.324	79
453.791	88
454.257	90
454.724	91
455.191	88
455.658	85
456.125	91
456.592	96
457.059	94
457.527	93
457.994	98
458.461	97
458.928	102
459.396	96
459.863	100
460.33	106
460.798	107
461.265	104
461.732	104
462.2	107
462.668	108
463.135	114
463.603	112
464.07	107
464.538	106
465.006	113
465.474	113
465.941	111
466.409	107
466.877	110
467.345	117
467.813	114
468.281	112
468.749	111
469.217	115
469.685	114
470.153	117
470.621	116
471.09	121
471.558	120
472.026	122
472.494	122
472.963	132
473.431	135
473.9	141
474.368	143
474.837	140
475.305	146
475.774	150
476.242	157
476.711	152
477.18	158
477.648	156
478.117	159
478.586	160
479.055	155
479.524	163
479.993	161
480.462	159
480.93	161
481.399	159
481.869	161
482.338	165
482.807	165
483.276	162
483.745	170
484.214	173
484.684	174
485.153	169
485.622	166
486.092	177
486.561	179
487.031	176
487.5	186
487.97	189
488.439	196
488.909	202
489.378	208
489.848	205
490.318	216
490.787	221
491.257	225
491.727	226
492.197	235
492.667	230
493.137	233
493.607	233
494.077	240
494.547	237
495.017	239
495.487	241
495.957	247
496.427	242
496.897	240
497.368	244
497.838	248
498.308	249
498.779	252
499.249	257
499.719	253
500.19	260
500.66	260
501.131	263
501.602	271
502.072	266
502.543	275
503.014	286
503.484	285
503.955	293
504.426	305
504.897	310
505.368	316
505.838	315
506.309	329
506.78	335
507.251	345
507.722	349
508.194	360
508.665	359
509.136	360
509.607	378
510.078	388
510.549	387
511.021	397
511.492	399
511.964	406
512.435	411
512.906	408
513.378	414
513.849	419
514.321	425
514.793	426
515.264	431
515.736	434
516.208	443
516.679	450
517.151	445
517.623	452
518.095	463
518.567	466
519.038	476
519.51	481
519.982	494
520.454	491
520.927	500
521.399	505
521.871	523
522.343	520
522.815	523
523.287	516
523.76	528
524.232	540
524.704	541
525.177	532
525.649	537
526.122	547
526.594	540
527.067	552
527.539	558
528.012	558
528.484	554
528.957	563
529.43	556
529.903	551
530.375	578
530.848	566
531.321	578
531.794	574
532.267	585
532.74	580
533.213	579
533.686	592
534.159	582
534.632	601
535.105	606
535.578	610
536.051	616
536.525	624
536.998	633
537.471	645
537.945	635
538.418	646
538.891	655
539.365	661
539.838	665
540.312	664
540.786	669
541.259	667
541.733	674
542.206	676
542.68	668
543.154	665
543.628	670
544.101	695
544.575	690
545.049	671
545.523	683
545.997	689
546.471	696
546.945	691
547.419	705
547.893	679
548.367	689
548.842	684
549.316	681
549.79	696
550.264	687
550.739	701
551.213	694
551.687	695
552.162	702
552.636	703
553.111	703
553.585	723
554.06	709
554.534	722
555.009	720
555.484	740
555.958	746
556.433	746
556.908	754
557.383	751
557.858	768
558.333	783
558.807	775
559.282	780
559.757	800
560.232	807
560.708	793
561.183	793
561.658	803
562.133	801
562.608	790
563.083	812
563.559	797
564.034	807
564.509	805
564.985	806
565.46	804
565.936	823
566.411	822
566.887	821
567.362	820
567.838	822
568.313	831
568.789	826
569.265	818
569.74	826
570.216	820
570.692	840
571.168	837
571.644	831
572.12	836
572.596	847
573.071	850
573.547	871
574.024	881
574.5	892
574.976	907
575.452	919
575.928	919
576.404	920
576.881	949
577.357	941
577.833	943
578.31	973
578.786	989
579.262	1012
579.739	996
580.215	1021
580.692	1012
581.169	1010
581.645	1007
582.122	1037
582.598	1041
583.075	1038
583.552	1055
584.029	1045
584.506	1041
584.982	1042
585.459	1062
585.936	1059
586.413	1071
586.89	1084
587.367	1078
587.844	1101
588.321	1096
588.799	1091
589.276	1079
589.753	1094
590.23	1107
590.707	1108
591.185	1097
591.662	1106
592.139	1116
592.617	1140
593.094	1141
593.572	1138
594.049	1158
594.527	1165
595.004	1170
595.482	1196
595.96	1190
596.437	1192
596.915	1226
597.393	1210
597.871	1245
598.349	1227
598.826	1252
599.304	1250
599.782	1279
600.26	1264
600.738	1290
601.216	1298
601.694	1312
602.173	1329
602.651	1334
603.129	1314
603.607	1331
604.085	1337
604.564	1332
605.042	1327
605.52	1323
605.999	1358
606.477	1335
606.956	1341
607.434	1348
607.913	1355
608.391	1355
608.87	1358
609.348	1346
609.827	1347
610.306	1347
610.785	1356
611.263	1374
611.742	1364
612.221	1345
612.7	1355
613.179	1369
613.658	1355
614.137	1368
614.616	1383
615.095	1347
615.574	1378
616.053	1400
616.532	1382
617.011	1385
617.491	1396
617.97	1407
618.449	1432
618.928	1443
619.408	1429
619.887	1440
620.367	1457
620.846	1475
621.326	1460
621.805	1500
622.285	1498
622.764	1506
623.244	1510
623.724	1523
624.203	1523
624.683	1497
625.163	1525
625.643	1530
626.123	1515
626.602	1547
627.082	1516
627.562	1521
628.042	1564
628.522	1545
629.002	1539
629.482	1547
629.963	1543
630.443	1540
630.923	1551
631.403	1563
631.883	1561
632.364	1564
632.844	1542
633.324	1561
633.805	1567
634.285	1551
634.766	1548
635.246	1548
635.727	1547
636.207	1559
636.688	1569
637.168	1562
637.649	1539
638.13	1535
638.611	1551
639.091	1555
639.572	1536
640.053	1535
640.534	1548
641.015	1546
641.496	1526
641.977	1558
642.458	1535
642.939	1542
643.42	1551
643.901	1564
644.382	1575
644.863	1573
645.345	1587
645.826	1587
646.307	1595
646.788	1631
647.27	1604
647.751	1611
648.233	1618
648.714	1577
649.196	1619
649.677	1623
650.159	1623
650.64	1603
651.122	1630
651.603	1606
652.085	1616
652.567	1627
653.049	1607
653.53	1602
654.012	1626
654.494	1603
654.976	1621
655.458	1625
655.94	1627
656.422	1657
656.904	1639
657.386	1612
657.868	1609
658.35	1609
658.833	1632
659.315	1631
659.797	1614
660.279	1617
660.762	1640
661.244	1628
661.726	1613
662.209	1611
662.691	1613
663.174	1584
663.656	1597
664.139	1598
664.621	1579
665.104	1565
665.587	1587
666.069	1589
666.552	1591
667.035	1569
667.517	1584
668	1598
668.483	1598
668.966	1586
669.449	1580
669.932	1582
670.415	1594
670.898	1583
671.381	1596
671.864	1611
672.347	1594
672.83	1593
673.313	1598
673.797	1599
674.28	1630
674.763	1636
675.247	1659
675.73	1650
676.213	1673
676.697	1680
677.18	1684
677.664	1688
678.147	1682
678.631	1693
679.114	1694
679.598	1688
680.082	1708
680.565	1707
681.049	1702
681.533	1701
682.017	1711
682.5	1706
682.984	1716
683.468	1714
683.952	1682
684.436	1721
684.92	1706
685.404	1713
685.888	1735
686.372	1729
686.856	1745
687.341	1765
687.825	1752
688.309	1755
688.793	1755
689.278	1736
689.762	1751
690.246	1741
690.731	1750
691.215	1756
691.7	1708
692.184	1729
692.669	1738
693.153	1759
693.638	1738
694.122	1737
694.607	1741
695.092	1725
695.577	1741
696.061	1716
696.546	1703
697.031	1681
697.516	1702
698.001	1703
698.486	1696
698.971	1721
699.456	1689
699.941	1686
700.426	1687
700.911	1710
701.396	1700
701.881	1719
702.366	1713
702.852	1712
703.337	1719
703.822	1726
704.308	1723
704.793	1734
705.278	1737
705.764	1751
706.249	1744
706.735	1740
707.22	1756
707.706	1725
708.191	1765
708.677	1758
709.163	1742
709.648	1766
710.134	1780
710.62	1758
711.106	1759
711.592	1774
712.077	1773
712.563	1737
713.049	1728
713.535	1766
714.021	1749
714.507	1751
714.993	1738
715.479	1757
715.966	1742
716.452	1734
716.938	1734
717.424	1695
717.91	1734
718.397	1729
718.883	1715
719.369	1721
719.856	1700
720.342	1727
720.829	1716
721.315	1735
721.802	1722
722.288	1744
722.775	1670
723.262	1619
723.748	1699
724.235	1705
724.722	1735
725.208	1706
725.695	1707
726.182	1691
726.669	1659
727.156	1677
727.643	1662
728.13	1645
728.617	1632
729.104	1631
729.591	1614
730.078	1623
730.565	1634
731.052	1601
731.539	1609
732.027	1608
732.514	1594
733.001	1615
733.488	1614
733.976	1582
734.463	1578
734.951	1570
735.438	1597
735.926	1586
736.413	1609
736.901	1597
737.388	1628
737.876	1634
738.364	1625
738.851	1632
739.339	1620
739.827	1634
740.314	1582
740.802	1600
741.29	1619
741.778	1598
742.266	1610
742.754	1619
743.242	1628
743.73	1581
744.218	1573
744.706	1557
745.194	1578
745.682	1564
746.17	1568
746.659	1573
747.147	1537
747.635	1539
748.123	1537
748.612	1531
749.1	1528
749.589	1545
750.077	1531
750.566	1517
751.054	1519
751.543	1521
752.031	1502
752.52	1513
753.008	1484
753.497	1487
753.986	1474
754.474	1463
754.963	1486
755.452	1465
755.941	1464
756.43	1464
756.919	1457
757.408	1445
757.896	1462
758.385	1465
758.875	1447
759.364	1436
759.853	1432
760.342	1412
760.831	1434
761.32	1421
761.809	1391
762.299	1400
762.788	1402
763.277	1396
763.767	1378
764.256	1389
764.745	1363
765.235	1388
765.724	1345
766.214	1364
766.703	1355
767.193	1343
767.683	1347
768.172	1324
768.662	1333
769.152	1330
769.641	1330
770.131	1303
770.621	1323
771.111	1298
771.601	1296
772.09	1288
772.58	1274
773.07	1290
773.56	1297
774.05	1279
774.54	1283
775.031	1279
775.521	1270
776.011	1265
776.501	1277
776.991	1256
777.482	1262
777.972	1229
778.462	1222
778.953	1240
779.443	1228
779.933	1224
780.424	1201
780.914	1205
781.405	1209
781.895	1198
782.386	1201
782.877	1204
783.367	1178
783.858	1167
784.349	1163
784.839	1154
785.33	1163
785.821	1168
786.312	1153
786.803	1159
787.293	1157
787.784	1134
788.275	1122
788.766	1114
789.257	1137
789.748	1114
790.24	1112
790.731	1125
791.222	1106
791.713	1105
792.204	1111
792.696	1079
793.187	1097
793.678	1082
794.169	1056
794.661	1073
795.152	1062
795.644	1053
796.135	1046
796.627	1062
797.118	1044
797.61	1035
798.101	1017
798.593	1022
799.085	1006
799.576	1021
800.068	1004
800.56	1011
801.052	985
801.544	980
802.035	982
802.527	964
803.019	957
803.511	952
804.003	943
804.495	956
804.987	947
805.479	919
805.971	935
806.464	932
806.956	912
807.448	912
807.94	915
808.433	905
808.925	902
809.417	891
809.91	895
810.402	872
810.894	868
811.387	870
811.879	860
812.372	871
812.865	852
813.357	862
813.85	849
814.342	851
814.835	848
815.328	841
815.821	831
816.313	831
816.806	844
817.299	837
817.792	840
818.285	829
818.778	844
819.271	843
819.764	826
820.257	827
820.75	830
821.243	824
821.736	813
822.229	823
822.722	818
823.216	841
