Data from lamp5helium_zwak_Subt4__59__214.txt Node

Date: Wed Apr 09 10:14:07 CEST 2025
User: fys-lab-0081
Spectrometer: S04999
Trigger mode: 0
Resolution mode: 1024 pixels
Integration Time (sec): 1.000000E-1
Scans to average: 1
Nonlinearity correction enabled: false
Boxcar width: 0
Baseline correction enabled: true
XAxis mode: Wavelengths
Number of Pixels in Spectrum: 1024
>>>>>Begin Spectral Data<<<<<
336.42	0
336.877	-4
337.334	1
337.792	2
338.249	6
338.706	-1
339.164	-2
339.621	-1
340.079	4
340.536	3
340.994	9
341.452	-2
341.909	1
342.367	-4
342.825	-1
343.283	1
343.741	1
344.198	-1
344.656	-2
345.114	1
345.572	5
346.03	1
346.488	3
346.947	-1
347.405	-2
347.863	2
348.321	10
348.779	0
349.238	4
349.696	4
350.154	5
350.613	1
351.071	0
351.53	2
351.988	1
352.447	2
352.905	-1
353.364	-3
353.823	2
354.282	1
354.74	0
355.199	-1
355.658	0
356.117	2
356.576	1
357.035	1
357.494	0
357.953	1
358.412	6
358.871	-6
359.33	-3
359.789	-2
360.249	-5
360.708	4
361.167	-2
361.626	2
362.086	-1
362.545	4
363.005	7
363.464	-3
363.924	0
364.383	4
364.843	-1
365.303	1
365.762	2
366.222	1
366.682	5
367.142	7
367.601	5
368.061	0
368.521	6
368.981	0
369.441	5
369.901	7
370.361	0
370.821	-3
371.282	1
371.742	4
372.202	5
372.662	5
373.123	4
373.583	0
374.043	4
374.504	0
374.964	2
375.425	2
375.885	3
376.346	6
376.806	6
377.267	4
377.728	3
378.188	5
378.649	2
379.11	4
379.571	4
380.032	-1
380.493	4
380.954	8
381.414	1
381.876	-1
382.337	1
382.798	6
383.259	15
383.72	1
384.181	3
384.642	3
385.104	9
385.565	21
386.026	4
386.488	0
386.949	6
387.411	10
387.872	5
388.334	9
388.795	4
389.257	12
389.719	17
390.181	7
390.642	10
391.104	7
391.566	6
392.028	16
392.49	11
392.952	9
393.414	9
393.876	10
394.338	11
394.8	10
395.262	10
395.724	7
396.186	11
396.648	12
397.111	13
397.573	14
398.035	12
398.498	14
398.96	11
399.423	10
399.885	16
400.348	10
400.81	21
401.273	10
401.736	14
402.198	10
402.661	10
403.124	8
403.587	20
404.049	18
404.512	16
404.975	15
405.438	15
405.901	13
406.364	18
406.827	13
407.29	20
407.754	18
408.217	19
408.68	13
409.143	18
409.607	27
410.07	22
410.533	20
410.997	19
411.46	14
411.924	20
412.387	18
412.851	18
413.314	20
413.778	21
414.242	24
414.705	23
415.169	19
415.633	22
416.097	23
416.561	25
417.024	30
417.488	26
417.952	29
418.416	30
418.88	27
419.344	25
419.809	22
420.273	26
420.737	26
421.201	19
421.665	30
422.13	25
422.594	27
423.059	31
423.523	26
423.987	27
424.452	27
424.916	35
425.381	32
425.846	29
426.31	29
426.775	28
427.24	35
427.704	29
428.169	32
428.634	32
429.099	32
429.564	32
430.029	35
430.494	38
430.959	34
431.424	33
431.889	35
432.354	34
432.819	35
433.284	35
433.75	35
434.215	38
434.68	39
435.146	38
435.611	41
436.077	42
436.542	44
437.008	42
437.473	46
437.939	52
438.404	47
438.87	50
439.336	50
439.801	48
440.267	49
440.733	58
441.199	53
441.665	47
442.131	55
442.596	54
443.062	50
443.529	58
443.995	57
444.461	53
444.927	63
445.393	61
445.859	67
446.325	67
446.792	71
447.258	73
447.724	70
448.191	73
448.657	73
449.124	76
449.59	74
450.057	86
450.523	86
450.99	78
451.457	84
451.923	83
452.39	83
452.857	88
453.324	79
453.791	87
454.257	90
454.724	87
455.191	87
455.658	83
456.125	90
456.592	88
457.059	94
457.527	97
457.994	100
458.461	100
458.928	102
459.396	101
459.863	105
460.33	109
460.798	106
461.265	103
461.732	109
462.2	108
462.668	109
463.135	115
463.603	106
464.07	107
464.538	112
465.006	110
465.474	109
465.941	110
466.409	110
466.877	108
467.345	113
467.813	115
468.281	112
468.749	111
469.217	118
469.685	117
470.153	121
470.621	119
471.09	119
471.558	124
472.026	127
472.494	123
472.963	127
473.431	136
473.9	141
474.368	144
474.837	145
475.305	146
475.774	153
476.242	156
476.711	152
477.18	158
477.648	160
478.117	161
478.586	161
479.055	156
479.524	163
479.993	160
480.462	162
480.93	162
481.399	164
481.869	163
482.338	167
482.807	165
483.276	167
483.745	168
484.214	173
484.684	174
485.153	171
485.622	169
486.092	183
486.561	177
487.031	177
487.5	183
487.97	195
488.439	197
488.909	201
489.378	206
489.848	210
490.318	216
490.787	216
491.257	228
491.727	223
492.197	230
492.667	229
493.137	234
493.607	233
494.077	241
494.547	234
495.017	240
495.487	242
495.957	251
496.427	240
496.897	246
497.368	247
497.838	246
498.308	245
498.779	249
499.249	256
499.719	257
500.19	261
500.66	264
501.131	264
501.602	269
502.072	268
502.543	275
503.014	286
503.484	287
503.955	292
504.426	306
504.897	310
505.368	316
505.838	312
506.309	330
506.78	337
507.251	349
507.722	346
508.194	360
508.665	368
509.136	363
509.607	377
510.078	383
510.549	389
511.021	397
511.492	398
511.964	406
512.435	416
512.906	400
513.378	411
513.849	422
514.321	424
514.793	428
515.264	429
515.736	434
516.208	446
516.679	446
517.151	447
517.623	450
518.095	467
518.567	471
519.038	480
519.51	481
519.982	497
520.454	498
520.927	507
521.399	510
521.871	520
522.343	522
522.815	526
523.287	521
523.76	524
524.232	539
524.704	544
525.177	536
525.649	540
526.122	544
526.594	539
527.067	555
527.539	566
528.012	555
528.484	562
528.957	564
529.43	565
529.903	555
530.375	571
530.848	570
531.321	579
531.794	571
532.267	586
532.74	576
533.213	582
533.686	595
534.159	585
534.632	602
535.105	610
535.578	615
536.051	615
536.525	625
536.998	630
537.471	644
537.945	636
538.418	652
538.891	652
539.365	661
539.838	670
540.312	668
540.786	677
541.259	667
541.733	677
542.206	680
542.68	671
543.154	667
543.628	672
544.101	700
544.575	688
545.049	673
545.523	679
545.997	687
546.471	696
546.945	687
547.419	704
547.893	682
548.367	689
548.842	683
549.316	686
549.79	701
550.264	689
550.739	707
551.213	695
551.687	689
552.162	707
552.636	709
553.111	705
553.585	727
554.06	715
554.534	730
555.009	719
555.484	739
555.958	752
556.433	748
556.908	754
557.383	750
557.858	773
558.333	780
558.807	774
559.282	782
559.757	805
560.232	809
560.708	797
561.183	790
561.658	802
562.133	804
562.608	799
563.083	816
563.559	800
564.034	805
564.509	811
564.985	811
565.46	803
565.936	829
566.411	830
566.887	819
567.362	822
567.838	821
568.313	832
568.789	825
569.265	818
569.74	828
570.216	825
570.692	836
571.168	840
571.644	835
572.12	835
572.596	851
573.071	854
573.547	873
574.024	879
574.5	896
574.976	905
575.452	916
575.928	919
576.404	922
576.881	955
577.357	939
577.833	942
578.31	970
578.786	988
579.262	1011
579.739	998
580.215	1021
580.692	1012
581.169	1009
581.645	1015
582.122	1038
582.598	1040
583.075	1039
583.552	1058
584.029	1050
584.506	1053
584.982	1039
585.459	1070
585.936	1059
586.413	1072
586.89	1087
587.367	1076
587.844	1102
588.321	1102
588.799	1096
589.276	1083
589.753	1093
590.23	1111
590.707	1111
591.185	1106
591.662	1103
592.139	1121
592.617	1142
593.094	1134
593.572	1146
594.049	1157
594.527	1165
595.004	1172
595.482	1203
595.96	1190
596.437	1191
596.915	1233
597.393	1219
597.871	1252
598.349	1229
598.826	1254
599.304	1258
599.782	1285
600.26	1268
600.738	1300
601.216	1302
601.694	1311
602.173	1329
602.651	1333
603.129	1313
603.607	1327
604.085	1337
604.564	1337
605.042	1335
605.52	1324
605.999	1365
606.477	1336
606.956	1345
607.434	1352
607.913	1359
608.391	1363
608.87	1363
609.348	1344
609.827	1348
610.306	1356
610.785	1371
611.263	1376
611.742	1359
612.221	1348
612.7	1366
613.179	1374
613.658	1355
614.137	1376
614.616	1382
615.095	1351
615.574	1380
616.053	1394
616.532	1386
617.011	1390
617.491	1398
617.97	1411
618.449	1441
618.928	1439
619.408	1436
619.887	1441
620.367	1453
620.846	1472
621.326	1463
621.805	1502
622.285	1499
622.764	1506
623.244	1510
623.724	1527
624.203	1526
624.683	1496
625.163	1525
625.643	1524
626.123	1521
626.602	1556
627.082	1524
627.562	1521
628.042	1563
628.522	1551
629.002	1540
629.482	1545
629.963	1548
630.443	1540
630.923	1557
631.403	1554
631.883	1559
632.364	1563
632.844	1543
633.324	1559
633.805	1562
634.285	1560
634.766	1553
635.246	1550
635.727	1552
636.207	1560
636.688	1565
637.168	1574
637.649	1545
638.13	1535
638.611	1551
639.091	1556
639.572	1538
640.053	1535
640.534	1549
641.015	1547
641.496	1532
641.977	1562
642.458	1537
642.939	1544
643.42	1550
643.901	1565
644.382	1584
644.863	1572
645.345	1582
645.826	1582
646.307	1604
646.788	1625
647.27	1612
647.751	1615
648.233	1621
648.714	1579
649.196	1622
649.677	1625
650.159	1632
650.64	1602
651.122	1625
651.603	1606
652.085	1621
652.567	1626
653.049	1603
653.53	1610
654.012	1629
654.494	1608
654.976	1622
655.458	1621
655.94	1631
656.422	1662
656.904	1628
657.386	1613
657.868	1609
658.35	1613
658.833	1625
659.315	1634
659.797	1624
660.279	1628
660.762	1641
661.244	1633
661.726	1614
662.209	1610
662.691	1617
663.174	1583
663.656	1590
664.139	1597
664.621	1581
665.104	1571
665.587	1586
666.069	1587
666.552	1587
667.035	1572
667.517	1581
668	1600
668.483	1597
668.966	1588
669.449	1584
669.932	1590
670.415	1599
670.898	1586
671.381	1599
671.864	1610
672.347	1601
672.83	1592
673.313	1598
673.797	1600
674.28	1633
674.763	1643
675.247	1656
675.73	1643
676.213	1670
676.697	1691
677.18	1683
677.664	1695
678.147	1684
678.631	1690
679.114	1692
679.598	1692
680.082	1709
680.565	1712
681.049	1708
681.533	1697
682.017	1710
682.5	1704
682.984	1723
683.468	1722
683.952	1687
684.436	1715
684.92	1709
685.404	1728
685.888	1742
686.372	1729
686.856	1740
687.341	1766
687.825	1757
688.309	1762
688.793	1749
689.278	1729
689.762	1754
690.246	1750
690.731	1747
691.215	1760
691.7	1713
692.184	1734
692.669	1743
693.153	1761
693.638	1741
694.122	1739
694.607	1738
695.092	1724
695.577	1743
696.061	1714
696.546	1704
697.031	1684
697.516	1695
698.001	1704
698.486	1700
698.971	1725
699.456	1686
699.941	1690
700.426	1685
700.911	1713
701.396	1701
701.881	1720
702.366	1712
702.852	1721
703.337	1725
703.822	1730
704.308	1728
704.793	1741
705.278	1741
705.764	1750
706.249	1744
706.735	1734
707.22	1754
707.706	1726
708.191	1760
708.677	1766
709.163	1754
709.648	1762
710.134	1780
710.62	1761
711.106	1756
711.592	1774
712.077	1777
712.563	1736
713.049	1725
713.535	1770
714.021	1760
714.507	1756
714.993	1745
715.479	1757
715.966	1740
716.452	1740
716.938	1735
717.424	1700
717.91	1734
718.397	1732
718.883	1718
719.369	1722
719.856	1703
720.342	1728
720.829	1724
721.315	1742
721.802	1728
722.288	1741
722.775	1669
723.262	1630
723.748	1695
724.235	1699
724.722	1734
725.208	1711
725.695	1709
726.182	1692
726.669	1664
727.156	1675
727.643	1654
728.13	1647
728.617	1629
729.104	1633
729.591	1612
730.078	1627
730.565	1632
731.052	1603
731.539	1613
732.027	1606
732.514	1594
733.001	1618
733.488	1604
733.976	1588
734.463	1581
734.951	1573
735.438	1594
735.926	1593
736.413	1608
736.901	1601
737.388	1629
737.876	1630
738.364	1633
738.851	1633
739.339	1633
739.827	1639
740.314	1588
740.802	1604
741.29	1623
741.778	1602
742.266	1606
742.754	1615
743.242	1629
743.73	1585
744.218	1581
744.706	1563
745.194	1577
745.682	1567
746.17	1570
746.659	1576
747.147	1540
747.635	1549
748.123	1544
748.612	1533
749.1	1534
749.589	1550
750.077	1535
750.566	1520
751.054	1516
751.543	1526
752.031	1507
752.52	1507
753.008	1478
753.497	1489
753.986	1476
754.474	1468
754.963	1485
755.452	1471
755.941	1465
756.43	1464
756.919	1457
757.408	1451
757.896	1458
758.385	1474
758.875	1451
759.364	1431
759.853	1430
760.342	1410
760.831	1440
761.32	1421
761.809	1392
762.299	1399
762.788	1411
763.277	1404
763.767	1377
764.256	1383
764.745	1364
765.235	1388
765.724	1353
766.214	1367
766.703	1355
767.193	1345
767.683	1351
768.172	1323
768.662	1340
769.152	1329
769.641	1330
770.131	1296
770.621	1319
771.111	1295
771.601	1300
772.09	1293
772.58	1280
773.07	1292
773.56	1298
774.05	1285
774.54	1283
775.031	1282
775.521	1266
776.011	1266
776.501	1279
776.991	1252
777.482	1266
777.972	1236
778.462	1228
778.953	1240
779.443	1223
779.933	1217
780.424	1205
780.914	1203
781.405	1213
781.895	1209
782.386	1210
782.877	1196
783.367	1179
783.858	1164
784.349	1162
784.839	1152
785.33	1163
785.821	1166
786.312	1153
786.803	1157
787.293	1156
787.784	1138
788.275	1123
788.766	1117
789.257	1133
789.748	1122
790.24	1116
790.731	1124
791.222	1104
791.713	1103
792.204	1112
792.696	1088
793.187	1095
793.678	1084
794.169	1057
794.661	1068
795.152	1059
795.644	1056
796.135	1052
796.627	1064
797.118	1048
797.61	1037
798.101	1025
798.593	1026
799.085	1009
799.576	1023
800.068	1009
800.56	1006
801.052	980
801.544	982
802.035	982
802.527	964
803.019	955
803.511	953
804.003	945
804.495	957
804.987	947
805.479	913
805.971	936
806.464	935
806.956	908
807.448	913
807.94	916
808.433	914
808.925	908
809.417	899
809.91	903
810.402	867
810.894	871
811.387	873
811.879	859
812.372	869
812.865	862
813.357	863
813.85	854
814.342	854
814.835	847
815.328	847
815.821	837
816.313	841
816.806	844
817.299	835
817.792	840
818.285	834
818.778	843
819.271	844
819.764	824
820.257	831
820.75	826
821.243	827
821.736	813
822.229	823
822.722	820
823.216	840
