Data from lamp5helium_zwak_Subt4__95__250.txt Node

Date: Wed Apr 09 10:14:11 CEST 2025
User: fys-lab-0081
Spectrometer: S04999
Trigger mode: 0
Resolution mode: 1024 pixels
Integration Time (sec): 1.000000E-1
Scans to average: 1
Nonlinearity correction enabled: false
Boxcar width: 0
Baseline correction enabled: true
XAxis mode: Wavelengths
Number of Pixels in Spectrum: 1024
>>>>>Begin Spectral Data<<<<<
336.42	-1
336.877	3
337.334	0
337.792	-4
338.249	2
338.706	6
339.164	-3
339.621	-4
340.079	2
340.536	5
340.994	7
341.452	1
341.909	1
342.367	-2
342.825	1
343.283	3
343.741	1
344.198	4
344.656	-1
345.114	-1
345.572	0
346.03	3
346.488	4
346.947	-4
347.405	1
347.863	-5
348.321	0
348.779	1
349.238	2
349.696	0
350.154	-2
350.613	-4
351.071	0
351.53	6
351.988	2
352.447	-2
352.905	2
353.364	-4
353.823	1
354.282	4
354.74	-1
355.199	0
355.658	4
356.117	3
356.576	2
357.035	-1
357.494	0
357.953	4
358.412	5
358.871	-6
359.33	-2
359.789	-1
360.249	-2
360.708	4
361.167	-1
361.626	6
362.086	-4
362.545	3
363.005	6
363.464	-2
363.924	-2
364.383	8
364.843	-1
365.303	3
365.762	3
366.222	-3
366.682	2
367.142	7
367.601	-2
368.061	1
368.521	6
368.981	2
369.441	6
369.901	10
370.361	3
370.821	-2
371.282	4
371.742	6
372.202	3
372.662	5
373.123	1
373.583	-1
374.043	6
374.504	0
374.964	3
375.425	3
375.885	3
376.346	3
376.806	-3
377.267	4
377.728	5
378.188	0
378.649	6
379.11	6
379.571	2
380.032	5
380.493	0
380.954	7
381.414	5
381.876	1
382.337	5
382.798	7
383.259	9
383.72	2
384.181	4
384.642	5
385.104	6
385.565	18
386.026	11
386.488	3
386.949	8
387.411	7
387.872	5
388.334	9
388.795	4
389.257	11
389.719	6
390.181	8
390.642	13
391.104	2
391.566	7
392.028	14
392.49	9
392.952	10
393.414	11
393.876	13
394.338	8
394.8	6
395.262	7
395.724	12
396.186	15
396.648	12
397.111	12
397.573	11
398.035	10
398.498	9
398.96	11
399.423	18
399.885	16
400.348	14
400.81	20
401.273	10
401.736	20
402.198	13
402.661	10
403.124	13
403.587	16
404.049	19
404.512	22
404.975	14
405.438	14
405.901	12
406.364	17
406.827	19
407.29	19
407.754	17
408.217	19
408.68	16
409.143	20
409.607	19
410.07	21
410.533	18
410.997	22
411.46	12
411.924	17
412.387	17
412.851	17
413.314	19
413.778	20
414.242	20
414.705	21
415.169	21
415.633	21
416.097	21
416.561	23
417.024	24
417.488	30
417.952	23
418.416	29
418.88	23
419.344	23
419.809	26
420.273	26
420.737	21
421.201	19
421.665	25
422.13	31
422.594	27
423.059	30
423.523	26
423.987	27
424.452	24
424.916	32
425.381	27
425.846	28
426.31	30
426.775	29
427.24	31
427.704	26
428.169	32
428.634	36
429.099	33
429.564	30
430.029	39
430.494	38
430.959	31
431.424	30
431.889	30
432.354	38
432.819	34
433.284	33
433.75	34
434.215	32
434.68	40
435.146	39
435.611	41
436.077	39
436.542	41
437.008	47
437.473	49
437.939	44
438.404	48
438.87	51
439.336	49
439.801	51
440.267	45
440.733	51
441.199	53
441.665	47
442.131	56
442.596	54
443.062	50
443.529	55
443.995	55
444.461	51
444.927	61
445.393	55
445.859	61
446.325	64
446.792	75
447.258	71
447.724	71
448.191	72
448.657	73
449.124	73
449.59	76
450.057	79
450.523	77
450.99	80
451.457	86
451.923	85
452.39	81
452.857	88
453.324	81
453.791	86
454.257	88
454.724	88
455.191	87
455.658	82
456.125	92
456.592	90
457.059	92
457.527	94
457.994	95
458.461	97
458.928	101
459.396	100
459.863	104
460.33	102
460.798	100
461.265	106
461.732	109
462.2	108
462.668	106
463.135	111
463.603	108
464.07	102
464.538	108
465.006	108
465.474	107
465.941	112
466.409	110
466.877	106
467.345	110
467.813	116
468.281	110
468.749	113
469.217	113
469.685	114
470.153	117
470.621	116
471.09	120
471.558	123
472.026	123
472.494	123
472.963	127
473.431	130
473.9	135
474.368	142
474.837	139
475.305	144
475.774	149
476.242	154
476.711	152
477.18	159
477.648	157
478.117	161
478.586	161
479.055	151
479.524	158
479.993	161
480.462	156
480.93	161
481.399	157
481.869	163
482.338	164
482.807	163
483.276	160
483.745	168
484.214	165
484.684	172
485.153	169
485.622	171
486.092	177
486.561	177
487.031	178
487.5	178
487.97	191
488.439	190
488.909	200
489.378	203
489.848	206
490.318	208
490.787	212
491.257	226
491.727	225
492.197	231
492.667	231
493.137	230
493.607	233
494.077	234
494.547	227
495.017	234
495.487	241
495.957	247
496.427	234
496.897	238
497.368	241
497.838	245
498.308	242
498.779	244
499.249	251
499.719	248
500.19	254
500.66	260
501.131	255
501.602	260
502.072	260
502.543	268
503.014	278
503.484	279
503.955	290
504.426	299
504.897	303
505.368	309
505.838	311
506.309	322
506.78	333
507.251	345
507.722	341
508.194	349
508.665	361
509.136	354
509.607	369
510.078	377
510.549	380
511.021	388
511.492	395
511.964	398
512.435	404
512.906	401
513.378	406
513.849	413
514.321	418
514.793	420
515.264	431
515.736	427
516.208	440
516.679	441
517.151	437
517.623	444
518.095	459
518.567	458
519.038	467
519.51	472
519.982	489
520.454	488
520.927	496
521.399	499
521.871	511
522.343	515
522.815	517
523.287	513
523.76	521
524.232	528
524.704	535
525.177	525
525.649	527
526.122	538
526.594	530
527.067	549
527.539	554
528.012	546
528.484	549
528.957	552
529.43	556
529.903	548
530.375	565
530.848	559
531.321	571
531.794	563
532.267	578
532.74	569
533.213	573
533.686	584
534.159	574
534.632	590
535.105	597
535.578	603
536.051	609
536.525	616
536.998	615
537.471	630
537.945	625
538.418	639
538.891	640
539.365	645
539.838	657
540.312	654
540.786	668
541.259	663
541.733	662
542.206	664
542.68	662
543.154	660
543.628	664
544.101	687
544.575	680
545.049	663
545.523	675
545.997	674
546.471	685
546.945	680
547.419	690
547.893	668
548.367	679
548.842	678
549.316	674
549.79	687
550.264	685
550.739	689
551.213	685
551.687	686
552.162	703
552.636	693
553.111	694
553.585	717
554.06	706
554.534	711
555.009	712
555.484	727
555.958	738
556.433	735
556.908	746
557.383	739
557.858	768
558.333	761
558.807	768
559.282	765
559.757	789
560.232	795
560.708	782
561.183	783
561.658	790
562.133	789
562.608	783
563.083	808
563.559	789
564.034	796
564.509	789
564.985	796
565.46	790
565.936	812
566.411	819
566.887	811
567.362	804
567.838	803
568.313	823
568.789	806
569.265	803
569.74	819
570.216	815
570.692	831
571.168	820
571.644	821
572.12	823
572.596	832
573.071	835
573.547	858
574.024	875
574.5	883
574.976	891
575.452	903
575.928	906
576.404	907
576.881	939
577.357	931
577.833	929
578.31	956
578.786	971
579.262	997
579.739	983
580.215	1006
580.692	1000
581.169	1004
581.645	995
582.122	1027
582.598	1027
583.075	1029
583.552	1036
584.029	1034
584.506	1030
584.982	1027
585.459	1049
585.936	1041
586.413	1053
586.89	1081
587.367	1068
587.844	1087
588.321	1084
588.799	1076
589.276	1068
589.753	1079
590.23	1092
590.707	1089
591.185	1089
591.662	1087
592.139	1108
592.617	1127
593.094	1129
593.572	1127
594.049	1137
594.527	1152
595.004	1155
595.482	1190
595.96	1177
596.437	1172
596.915	1211
597.393	1204
597.871	1223
598.349	1207
598.826	1235
599.304	1237
599.782	1267
600.26	1248
600.738	1279
601.216	1278
601.694	1300
602.173	1314
602.651	1312
603.129	1294
603.607	1316
604.085	1315
604.564	1313
605.042	1310
605.52	1308
605.999	1347
606.477	1314
606.956	1322
607.434	1331.5
607.913	1341
608.391	1337
608.87	1339
609.348	1329
609.827	1332
610.306	1336
610.785	1343
611.263	1357
611.742	1342
612.221	1334
612.7	1342
613.179	1351
613.658	1336
614.137	1359
614.616	1362
615.095	1332
615.574	1361
616.053	1374
616.532	1371
617.011	1372
617.491	1376
617.97	1399
618.449	1416
618.928	1426
619.408	1410
619.887	1430
620.367	1431
620.846	1456
621.326	1444
621.805	1486
622.285	1478
622.764	1489
623.244	1490
623.724	1499
624.203	1506
624.683	1475
625.163	1508
625.643	1511
626.123	1499
626.602	1528
627.082	1501
627.562	1506
628.042	1547
628.522	1530
629.002	1515
629.482	1531
629.963	1527
630.443	1518
630.923	1531
631.403	1534
631.883	1543
632.364	1542
632.844	1520
633.324	1540
633.805	1548
634.285	1531
634.766	1522
635.246	1532
635.727	1533
636.207	1539
636.688	1547
637.168	1551
637.649	1526
638.13	1512
638.611	1530
639.091	1530
639.572	1514
640.053	1511
640.534	1531
641.015	1529
641.496	1508
641.977	1536
642.458	1516
642.939	1522
643.42	1532
643.901	1544
644.382	1558
644.863	1553
645.345	1563
645.826	1564
646.307	1576
646.788	1608
647.27	1584
647.751	1590
648.233	1594
648.714	1558
649.196	1602
649.677	1603
650.159	1605
650.64	1584
651.122	1608
651.603	1592
652.085	1603
652.567	1608
653.049	1589
653.53	1585
654.012	1609
654.494	1591
654.976	1602
655.458	1611
655.94	1607
656.422	1643
656.904	1615
657.386	1589
657.868	1594
658.35	1593
658.833	1603
659.315	1615
659.797	1600
660.279	1602
660.762	1621
661.244	1603
661.726	1586
662.209	1596
662.691	1593
663.174	1569
663.656	1575
664.139	1581
664.621	1559
665.104	1552
665.587	1568
666.069	1569
666.552	1569
667.035	1553
667.517	1561
668	1585
668.483	1579
668.966	1570
669.449	1562
669.932	1567
670.415	1577
670.898	1570
671.381	1576
671.864	1588
672.347	1574
672.83	1570
673.313	1578
673.797	1578
674.28	1619
674.763	1618
675.247	1637
675.73	1631
676.213	1655
676.697	1666
677.18	1661
677.664	1665
678.147	1666
678.631	1671
679.114	1673
679.598	1675
680.082	1690
680.565	1685
681.049	1676
681.533	1671
682.017	1691
682.5	1686
682.984	1699
683.468	1699
683.952	1658
684.436	1692
684.92	1687
685.404	1696
685.888	1718
686.372	1706
686.856	1720
687.341	1752
687.825	1723
688.309	1732
688.793	1727
689.278	1717
689.762	1726
690.246	1718
690.731	1727
691.215	1735
691.7	1690
692.184	1717
692.669	1720
693.153	1739
693.638	1725
694.122	1712
694.607	1721
695.092	1698
695.577	1730
696.061	1691
696.546	1685
697.031	1666
697.516	1677
698.001	1677
698.486	1674
698.971	1703
699.456	1662
699.941	1668
700.426	1669
700.911	1687
701.396	1680
701.881	1698
702.366	1700
702.852	1695
703.337	1705
703.822	1706
704.308	1712
704.793	1721
705.278	1722
705.764	1734
706.249	1721
706.735	1714
707.22	1732
707.706	1712
708.191	1738
708.677	1743
709.163	1733
709.648	1743
710.134	1759
710.62	1734
711.106	1742
711.592	1763
712.077	1750
712.563	1713
713.049	1711
713.535	1742
714.021	1735
714.507	1736
714.993	1722
715.479	1744
715.966	1721
716.452	1721
716.938	1713
717.424	1673
717.91	1714
718.397	1709
718.883	1697
719.369	1694
719.856	1684
720.342	1714
720.829	1701
721.315	1721
721.802	1706
722.288	1720
722.775	1648
723.262	1608
723.748	1680
724.235	1680
724.722	1718
725.208	1696
725.695	1690
726.182	1671
726.669	1644
727.156	1654
727.643	1637
728.13	1630
728.617	1613
729.104	1608
729.591	1594
730.078	1604
730.565	1617
731.052	1585
731.539	1589
732.027	1591
732.514	1577
733.001	1598
733.488	1588
733.976	1570
734.463	1567
734.951	1552
735.438	1575
735.926	1572
736.413	1599
736.901	1577
737.388	1609
737.876	1615
738.364	1616
738.851	1619
739.339	1604
739.827	1618
740.314	1571
740.802	1589
741.29	1604
741.778	1576
742.266	1588
742.754	1600
743.242	1613
743.73	1566
744.218	1555
744.706	1539
745.194	1558
745.682	1548
746.17	1552
746.659	1561
747.147	1520
747.635	1525
748.123	1525
748.612	1508
749.1	1513
749.589	1522
750.077	1512
750.566	1501
751.054	1504
751.543	1511
752.031	1487
752.52	1486
753.008	1465
753.497	1471
753.986	1459
754.474	1456
754.963	1470
755.452	1449
755.941	1449
756.43	1448
756.919	1435
757.408	1434
757.896	1444
758.385	1452
758.875	1439
759.364	1421
759.853	1417
760.342	1391
760.831	1419
761.32	1409
761.809	1377
762.299	1384
762.788	1392
763.277	1384
763.767	1367
764.256	1375
764.745	1349
765.235	1371
765.724	1334
766.214	1353
766.703	1340
767.193	1327
767.683	1335
768.172	1305
768.662	1319
769.152	1314
769.641	1318
770.131	1283
770.621	1302
771.111	1284
771.601	1281
772.09	1279
772.58	1268
773.07	1280
773.56	1286
774.05	1271
774.54	1273
775.031	1258
775.521	1256
776.011	1250
776.501	1265
776.991	1244
777.482	1251
777.972	1227
778.462	1216
778.953	1225
779.443	1212
779.933	1201
780.424	1193
780.914	1195
781.405	1198
781.895	1195
782.386	1199
782.877	1190
783.367	1162
783.858	1149
784.349	1152
784.839	1142
785.33	1143
785.821	1151
786.312	1144
786.803	1143
787.293	1148
787.784	1123
788.275	1108
788.766	1098
789.257	1128
789.748	1113
790.24	1101
790.731	1106
791.222	1094
791.713	1095
792.204	1105
792.696	1070
793.187	1084
793.678	1074
794.169	1046
794.661	1060
795.152	1048
795.644	1043
796.135	1042
796.627	1058
797.118	1033
797.61	1024
798.101	1009
798.593	1019
799.085	1003
799.576	1008
800.068	996
800.56	995
801.052	975
801.544	974
802.035	973
802.527	951
803.019	943
803.511	943
804.003	938
804.495	944
804.987	932
805.479	908
805.971	925
806.464	917
806.956	900
807.448	903
807.94	908
808.433	900
808.925	903
809.417	897
809.91	888
810.402	856
810.894	856
811.387	863
811.879	850
812.372	862
812.865	850
813.357	851
813.85	845
814.342	846
814.835	841
815.328	839
815.821	830
816.313	827
816.806	835
817.299	828
817.792	836
818.285	825
818.778	838
819.271	837
819.764	814
820.257	821
820.75	821
821.243	818
821.736	807
822.229	814
822.722	812
823.216	830
