Data from lamp5helium_zwak_Subt4__42__197.txt Node

Date: Wed Apr 09 10:14:05 CEST 2025
User: fys-lab-0081
Spectrometer: S04999
Trigger mode: 0
Resolution mode: 1024 pixels
Integration Time (sec): 1.000000E-1
Scans to average: 1
Nonlinearity correction enabled: false
Boxcar width: 0
Baseline correction enabled: true
XAxis mode: Wavelengths
Number of Pixels in Spectrum: 1024
>>>>>Begin Spectral Data<<<<<
336.42	2
336.877	-1
337.334	3
337.792	-3
338.249	4
338.706	1
339.164	-4
339.621	-3
340.079	4
340.536	4
340.994	5
341.452	-5
341.909	5
342.367	-2
342.825	-3
343.283	1
343.741	-1
344.198	2
344.656	-3
345.114	-4
345.572	1
346.03	4
346.488	1
346.947	-4
347.405	2
347.863	-4
348.321	4
348.779	0
349.238	1
349.696	-1
350.154	1
350.613	2
351.071	2
351.53	4
351.988	-3
352.447	1
352.905	2
353.364	-2
353.823	-2
354.282	2
354.74	-3
355.199	4
355.658	1
356.117	1
356.576	3
357.035	2
357.494	-1
357.953	3
358.412	1
358.871	-6
359.33	-1
359.789	3
360.249	-2
360.708	3
361.167	0
361.626	7
362.086	1
362.545	-1
363.005	5
363.464	-1
363.924	-2
364.383	5
364.843	1
365.303	0
365.762	2
366.222	0
366.682	3
367.142	6
367.601	2
368.061	2
368.521	5
368.981	2
369.441	4
369.901	7
370.361	4
370.821	2
371.282	6
371.742	6
372.202	7
372.662	9
373.123	3
373.583	0
374.043	3
374.504	5
374.964	-2
375.425	3
375.885	2
376.346	5
376.806	3
377.267	5
377.728	6
378.188	1
378.649	12
379.11	7
379.571	-1
380.032	-2
380.493	1
380.954	6
381.414	4
381.876	5
382.337	7
382.798	7
383.259	16
383.72	3
384.181	7
384.642	4
385.104	10
385.565	15
386.026	9
386.488	9
386.949	7
387.411	8
387.872	6
388.334	12
388.795	10
389.257	13
389.719	11
390.181	7
390.642	10
391.104	5
391.566	6
392.028	12
392.49	8
392.952	15
393.414	14
393.876	8
394.338	11
394.8	11
395.262	12
395.724	9
396.186	12
396.648	9
397.111	11
397.573	15
398.035	11
398.498	13
398.96	10
399.423	16
399.885	20
400.348	13
400.81	22
401.273	8
401.736	14
402.198	14
402.661	18
403.124	10
403.587	15
404.049	14
404.512	13
404.975	16
405.438	12
405.901	15
406.364	19
406.827	19
407.29	18
407.754	18
408.217	21
408.68	13
409.143	17
409.607	14
410.07	22
410.533	18
410.997	21
411.46	19
411.924	15
412.387	17
412.851	21
413.314	21
413.778	21
414.242	21
414.705	20
415.169	27
415.633	22
416.097	25
416.561	22
417.024	25
417.488	29
417.952	26
418.416	31
418.88	26
419.344	24
419.809	25
420.273	28
420.737	24
421.201	21
421.665	31
422.13	27
422.594	27
423.059	31
423.523	26
423.987	26
424.452	30
424.916	32
425.381	27
425.846	30
426.31	31
426.775	31
427.24	37
427.704	30
428.169	37
428.634	35
429.099	29
429.564	30
430.029	38
430.494	38
430.959	34
431.424	29
431.889	35
432.354	36
432.819	36
433.284	35
433.75	40
434.215	38
434.68	42
435.146	42
435.611	47
436.077	46
436.542	43
437.008	43
437.473	47
437.939	56
438.404	49
438.87	51
439.336	51
439.801	49
440.267	44
440.733	54
441.199	55
441.665	49
442.131	58
442.596	56
443.062	49
443.529	57
443.995	58
444.461	54
444.927	65
445.393	65
445.859	68
446.325	64
446.792	74
447.258	72
447.724	74
448.191	76
448.657	76
449.124	82
449.59	80
450.057	82
450.523	79
450.99	84
451.457	89
451.923	90
452.39	84
452.857	90
453.324	86
453.791	90
454.257	88
454.724	89
455.191	88
455.658	88
456.125	98
456.592	98
457.059	94
457.527	96
457.994	101
458.461	99
458.928	107
459.396	101
459.863	103
460.33	107
460.798	104
461.265	95
461.732	106
462.2	114
462.668	110
463.135	113
463.603	112
464.07	106
464.538	116
465.006	119
465.474	112
465.941	113
466.409	114
466.877	110
467.345	116
467.813	117
468.281	117
468.749	116
469.217	115
469.685	116
470.153	121
470.621	125
471.09	128
471.558	127
472.026	125
472.494	129
472.963	135
473.431	137
473.9	140
474.368	145
474.837	149
475.305	147
475.774	155
476.242	160
476.711	160
477.18	160
477.648	163
478.117	166
478.586	162
479.055	160
479.524	166
479.993	166
480.462	170
480.93	165
481.399	164
481.869	163
482.338	168
482.807	167
483.276	167
483.745	173
484.214	172
484.684	174
485.153	175
485.622	180
486.092	187
486.561	182
487.031	187
487.5	187
487.97	194
488.439	202
488.909	211
489.378	214
489.848	211
490.318	217
490.787	222
491.257	231
491.727	227
492.197	241
492.667	236
493.137	238
493.607	240
494.077	244
494.547	237
495.017	244
495.487	248
495.957	257
496.427	248
496.897	248
497.368	249
497.838	252
498.308	254
498.779	258
499.249	260
499.719	257
500.19	262
500.66	265
501.131	264
501.602	273
502.072	271
502.543	280
503.014	288
503.484	290
503.955	300
504.426	316
504.897	312
505.368	323
505.838	323
506.309	330
506.78	339
507.251	354
507.722	357
508.194	369
508.665	372
509.136	363
509.607	385
510.078	394
510.549	394
511.021	404
511.492	404
511.964	411
512.435	422
512.906	412
513.378	424
513.849	428
514.321	431
514.793	435
515.264	441
515.736	441
516.208	453
516.679	454
517.151	456
517.623	456
518.095	475
518.567	483
519.038	488
519.51	494
519.982	507
520.454	504
520.927	513
521.399	516
521.871	527
522.343	534
522.815	536
523.287	532
523.76	540
524.232	549
524.704	556
525.177	545
525.649	550
526.122	553
526.594	549
527.067	563
527.539	570
528.012	567
528.484	569
528.957	572
529.43	576
529.903	564
530.375	583
530.848	575
531.321	591
531.794	584
532.267	595
532.74	593
533.213	593
533.686	607
534.159	594
534.632	614
535.105	619
535.578	629
536.051	635
536.525	631
536.998	641
537.471	653
537.945	652
538.418	665
538.891	661
539.365	675
539.838	682
540.312	676
540.786	688
541.259	684
541.733	689
542.206	686
542.68	681
543.154	687
543.628	678
544.101	708
544.575	707
545.049	687
545.523	697
545.997	704
546.471	710
546.945	697
547.419	718
547.893	690
548.367	698
548.842	698
549.316	697
549.79	709
550.264	700
550.739	715
551.213	710
551.687	709
552.162	718
552.636	714
553.111	713
553.585	740
554.06	727
554.534	739
555.009	735
555.484	749
555.958	760
556.433	761
556.908	766
557.383	762
557.858	791
558.333	793
558.807	788
559.282	786
559.757	821
560.232	826
560.708	809
561.183	805
561.658	818
562.133	814
562.608	811
563.083	831
563.559	814
564.034	826
564.509	819
564.985	825
565.46	821
565.936	833
566.411	840
566.887	835
567.362	838
567.838	835
568.313	845
568.789	834
569.265	830
569.74	847
570.216	838
570.692	856
571.168	851
571.644	852
572.12	852
572.596	862
573.071	863
573.547	887
574.024	894
574.5	909
574.976	920
575.452	937
575.928	934
576.404	937
576.881	969
577.357	955
577.833	959
578.31	988
578.786	1005
579.262	1030
579.739	1019
580.215	1043
580.692	1028
581.169	1027
581.645	1032
582.122	1064
582.598	1061
583.075	1058
583.552	1070
584.029	1070
584.506	1064
584.982	1059
585.459	1084
585.936	1077
586.413	1091
586.89	1107
587.367	1098
587.844	1120
588.321	1118
588.799	1116
589.276	1105
589.753	1114
590.23	1130
590.707	1126
591.185	1127
591.662	1122
592.139	1138
592.617	1158
593.094	1161
593.572	1169
594.049	1175
594.527	1183
595.004	1194
595.482	1230
595.96	1211
596.437	1214
596.915	1256
597.393	1231
597.871	1263
598.349	1248
598.826	1278
599.304	1279
599.782	1303
600.26	1287
600.738	1310
601.216	1320
601.694	1335
602.173	1352
602.651	1354
603.129	1338
603.607	1353
604.085	1356
604.564	1356
605.042	1351
605.52	1351
605.999	1390
606.477	1359
606.956	1363
607.434	1370.5
607.913	1378
608.391	1383
608.87	1378
609.348	1365
609.827	1368
610.306	1378
610.785	1386
611.263	1395
611.742	1386
612.221	1371
612.7	1385
613.179	1398
613.658	1378
614.137	1392
614.616	1410
615.095	1376
615.574	1398
616.053	1419
616.532	1405
617.011	1413
617.491	1424
617.97	1438
618.449	1458
618.928	1465
619.408	1452
619.887	1465
620.367	1477
620.846	1502
621.326	1490
621.805	1529
622.285	1523
622.764	1534
623.244	1535
623.724	1547
624.203	1552
624.683	1524
625.163	1554
625.643	1556
626.123	1543
626.602	1573
627.082	1542
627.562	1549
628.042	1588
628.522	1569
629.002	1568
629.482	1568
629.963	1570
630.443	1568
630.923	1573
631.403	1588
631.883	1587
632.364	1590
632.844	1575
633.324	1587
633.805	1595
634.285	1578
634.766	1569
635.246	1574
635.727	1576
636.207	1582
636.688	1591
637.168	1597
637.649	1565
638.13	1555
638.611	1574
639.091	1579
639.572	1568
640.053	1562
640.534	1576
641.015	1576
641.496	1556
641.977	1586
642.458	1561
642.939	1574
643.42	1578
643.901	1589
644.382	1605
644.863	1597
645.345	1610
645.826	1618
646.307	1624
646.788	1659
647.27	1633
647.751	1637
648.233	1650
648.714	1604
649.196	1648
649.677	1649
650.159	1650
650.64	1629
651.122	1657
651.603	1624
652.085	1650
652.567	1648
653.049	1628
653.53	1636
654.012	1650
654.494	1626
654.976	1649
655.458	1653
655.94	1659
656.422	1684
656.904	1657
657.386	1636
657.868	1642
658.35	1644
658.833	1650
659.315	1655
659.797	1639
660.279	1646
660.762	1670
661.244	1658
661.726	1638
662.209	1635
662.691	1638
663.174	1613
663.656	1623
664.139	1624
664.621	1610
665.104	1588
665.587	1607
666.069	1614
666.552	1615
667.035	1601
667.517	1606
668	1624
668.483	1629
668.966	1606
669.449	1611
669.932	1610
670.415	1622
670.898	1617
671.381	1623
671.864	1638
672.347	1624
672.83	1618
673.313	1623
673.797	1623
674.28	1663
674.763	1664
675.247	1687
675.73	1673
676.213	1698
676.697	1710
677.18	1712
677.664	1718
678.147	1713
678.631	1717
679.114	1727
679.598	1720
680.082	1734
680.565	1734
681.049	1731
681.533	1721
682.017	1737
682.5	1726
682.984	1748
683.468	1742
683.952	1703
684.436	1747
684.92	1731
685.404	1748
685.888	1760
686.372	1751
686.856	1764
687.341	1795
687.825	1776
688.309	1782
688.793	1779
689.278	1759
689.762	1782
690.246	1767
690.731	1767
691.215	1784
691.7	1737
692.184	1759
692.669	1769
693.153	1787
693.638	1769
694.122	1766
694.607	1765
695.092	1748
695.577	1771
696.061	1734
696.546	1733
697.031	1706
697.516	1718
698.001	1724
698.486	1717
698.971	1746
699.456	1710
699.941	1716
700.426	1710
700.911	1735
701.396	1721
701.881	1740
702.366	1744
702.852	1742
703.337	1756
703.822	1752
704.308	1751
704.793	1763
705.278	1768
705.764	1774
706.249	1773
706.735	1760
707.22	1775
707.706	1753
708.191	1790
708.677	1787
709.163	1775
709.648	1793
710.134	1807
710.62	1779
711.106	1785
711.592	1806
712.077	1797
712.563	1759
713.049	1748
713.535	1787
714.021	1783
714.507	1781
714.993	1765
715.479	1776
715.966	1764
716.452	1767
716.938	1759
717.424	1721
717.91	1764
718.397	1756
718.883	1741
719.369	1744
719.856	1729
720.342	1762
720.829	1745
721.315	1759
721.802	1754
722.288	1771
722.775	1694
723.262	1646
723.748	1721
724.235	1732
724.722	1758
725.208	1738
725.695	1732
726.182	1717
726.669	1683
727.156	1701
727.643	1677
728.13	1673
728.617	1655
729.104	1654
729.591	1632
730.078	1651
730.565	1651
731.052	1629
731.539	1632
732.027	1631
732.514	1615
733.001	1638
733.488	1629
733.976	1607
734.463	1604
734.951	1594
735.438	1626
735.926	1616
736.413	1631
736.901	1624
737.388	1653
737.876	1660
738.364	1645
738.851	1663
739.339	1647
739.827	1655
740.314	1607
740.802	1627
741.29	1643
741.778	1624
742.266	1627
742.754	1639
743.242	1649
743.73	1604
744.218	1595
744.706	1586
745.194	1602
745.682	1592
746.17	1597
746.659	1604
747.147	1554
747.635	1565
748.123	1563
748.612	1548
749.1	1549
749.589	1567
750.077	1551
750.566	1541
751.054	1539
751.543	1542
752.031	1521
752.52	1530
753.008	1499
753.497	1508
753.986	1493
754.474	1484
754.963	1511
755.452	1485
755.941	1488
756.43	1479
756.919	1475
757.408	1470
757.896	1478
758.385	1485
758.875	1471
759.364	1453
759.853	1451
760.342	1435
760.831	1456
761.32	1435
761.809	1417
762.299	1422
762.788	1431
763.277	1417
763.767	1401
764.256	1406
764.745	1386
765.235	1409
765.724	1369
766.214	1378
766.703	1375
767.193	1366
767.683	1375
768.172	1340
768.662	1352
769.152	1350
769.641	1347
770.131	1321
770.621	1335
771.111	1316
771.601	1312
772.09	1306
772.58	1297
773.07	1306
773.56	1319
774.05	1303
774.54	1297
775.031	1294
775.521	1281
776.011	1283
776.501	1294
776.991	1268
777.482	1284
777.972	1250
778.462	1242
778.953	1263
779.443	1241
779.933	1233
780.424	1218
780.914	1223
781.405	1233
781.895	1217
782.386	1217
782.877	1216
783.367	1199
783.858	1182
784.349	1174
784.839	1172
785.33	1182
785.821	1183
786.312	1169
786.803	1170
787.293	1177
787.784	1154
788.275	1137
788.766	1122
789.257	1152
789.748	1133
790.24	1128
790.731	1131
791.222	1119
791.713	1118
792.204	1130
792.696	1100
793.187	1109
793.678	1102
794.169	1071
794.661	1083
795.152	1077
795.644	1066
796.135	1064
796.627	1079
797.118	1061
797.61	1047
798.101	1034
798.593	1035
799.085	1023
799.576	1036
800.068	1018
800.56	1019
801.052	995
801.544	995
802.035	998
802.527	976
803.019	970
803.511	964
804.003	958
804.495	967
804.987	956
805.479	931
805.971	947
806.464	942
806.956	921
807.448	929
807.94	930
808.433	926
808.925	924
809.417	911
809.91	910
810.402	873
810.894	881
811.387	884
811.879	870
812.372	882
812.865	869
813.357	882
813.85	867
814.342	859
814.835	860
815.328	862
815.821	845
816.313	847
816.806	850
817.299	842
817.792	851
818.285	849
818.778	854
819.271	854
819.764	834
820.257	840
820.75	843
821.243	835
821.736	818
822.229	832
822.722	831
823.216	853
