Data from lamp5helium_zwak_Subt4__4__159.txt Node

Date: Wed Apr 09 10:14:00 CEST 2025
User: fys-lab-0081
Spectrometer: S04999
Trigger mode: 0
Resolution mode: 1024 pixels
Integration Time (sec): 1.000000E-1
Scans to average: 1
Nonlinearity correction enabled: false
Boxcar width: 0
Baseline correction enabled: true
XAxis mode: Wavelengths
Number of Pixels in Spectrum: 1024
>>>>>Begin Spectral Data<<<<<
336.42	2
336.877	-2
337.334	-3
337.792	-5
338.249	2
338.706	3
339.164	-2
339.621	-1
340.079	2
340.536	6
340.994	6
341.452	-2
341.909	1
342.367	-2
342.825	-1
343.283	1
343.741	0
344.198	0
344.656	-3
345.114	0
345.572	-4
346.03	6
346.488	4
346.947	0
347.405	4
347.863	0
348.321	4
348.779	-2
349.238	3
349.696	2
350.154	3
350.613	1
351.071	2
351.53	4
351.988	0
352.447	2
352.905	-2
353.364	0
353.823	1
354.282	2
354.74	0
355.199	3
355.658	2
356.117	-1
356.576	3
357.035	0
357.494	2
357.953	7
358.412	6
358.871	-8
359.33	3
359.789	4
360.249	0
360.708	1
361.167	0
361.626	3
362.086	2
362.545	2
363.005	7
363.464	-4
363.924	-1
364.383	3
364.843	-3
365.303	-1
365.762	2
366.222	0
366.682	5
367.142	4
367.601	1
368.061	4
368.521	4
368.981	0
369.441	2
369.901	7
370.361	2
370.821	2
371.282	5
371.742	0
372.202	2
372.662	10
373.123	-1
373.583	1
374.043	0
374.504	-1
374.964	2
375.425	0
375.885	2
376.346	3
376.806	2
377.267	4
377.728	8
378.188	4
378.649	6
379.11	5
379.571	1
380.032	-2
380.493	4
380.954	5
381.414	4
381.876	4
382.337	3
382.798	6
383.259	12
383.72	6
384.181	6
384.642	1
385.104	9
385.565	14
386.026	7
386.488	9
386.949	10
387.411	7
387.872	2
388.334	10
388.795	6
389.257	11
389.719	9
390.181	7
390.642	9
391.104	9
391.566	6
392.028	14
392.49	5
392.952	7
393.414	10
393.876	12
394.338	9
394.8	11
395.262	11
395.724	12
396.186	11
396.648	13
397.111	12
397.573	15
398.035	10
398.498	13
398.96	7
399.423	6
399.885	17
400.348	15
400.81	22
401.273	14
401.736	15
402.198	16
402.661	15
403.124	12
403.587	15
404.049	16.5
404.512	18
404.975	18
405.438	12
405.901	14
406.364	20
406.827	16
407.29	22
407.754	14
408.217	19
408.68	15
409.143	18
409.607	19
410.07	16
410.533	22
410.997	17
411.46	14
411.924	18
412.387	17
412.851	15
413.314	24
413.778	15
414.242	23
414.705	28
415.169	27
415.633	23
416.097	23
416.561	20
417.024	24
417.488	30
417.952	25
418.416	28
418.88	23
419.344	24
419.809	23
420.273	28
420.737	25
421.201	17
421.665	33
422.13	28
422.594	26
423.059	30
423.523	28
423.987	30
424.452	29
424.916	31
425.381	30
425.846	30
426.31	31
426.775	31
427.24	34
427.704	30
428.169	37
428.634	39
429.099	32
429.564	33
430.029	37
430.494	37
430.959	35
431.424	30
431.889	29
432.354	37
432.819	36
433.284	33
433.75	35
434.215	39
434.68	39
435.146	43
435.611	46
436.077	47
436.542	47
437.008	44
437.473	49
437.939	49
438.404	48
438.87	50
439.336	48
439.801	46
440.267	43
440.733	54
441.199	58
441.665	48
442.131	54
442.596	54
443.062	53
443.529	53
443.995	55
444.461	52
444.927	62
445.393	65
445.859	62
446.325	64
446.792	74
447.258	74
447.724	70
448.191	68
448.657	73
449.124	81
449.59	79
450.057	81
450.523	81
450.99	83
451.457	83
451.923	89
452.39	82
452.857	87
453.324	84
453.791	92
454.257	87
454.724	89
455.191	88
455.658	85
456.125	92
456.592	94
457.059	92
457.527	95
457.994	98
458.461	100
458.928	100
459.396	98
459.863	101
460.33	103
460.798	100
461.265	103
461.732	107
462.2	108
462.668	107
463.135	113
463.603	107
464.07	106
464.538	110
465.006	114
465.474	110
465.941	111
466.409	110
466.877	106
467.345	112
467.813	111
468.281	113
468.749	113
469.217	115
469.685	113
470.153	115
470.621	117
471.09	122
471.558	122
472.026	120
472.494	125
472.963	130
473.431	136
473.9	135
474.368	141
474.837	144
475.305	144
475.774	151
476.242	157
476.711	149
477.18	158
477.648	158
478.117	158
478.586	159
479.055	155
479.524	162
479.993	163
480.462	156
480.93	161
481.399	161
481.869	163
482.338	167
482.807	160
483.276	161
483.745	168
484.214	170
484.684	171
485.153	176
485.622	174
486.092	175
486.561	175
487.031	180
487.5	182
487.97	189
488.439	196
488.909	200
489.378	202
489.848	202
490.318	209
490.787	219
491.257	228
491.727	228
492.197	228
492.667	226
493.137	235
493.607	233
494.077	234
494.547	235
495.017	237
495.487	236
495.957	245
496.427	241
496.897	241
497.368	245
497.838	245
498.308	246
498.779	248
499.249	255
499.719	258
500.19	260
500.66	261
501.131	262
501.602	266
502.072	267
502.543	273
503.014	280
503.484	281
503.955	289
504.426	307
504.897	306
505.368	310
505.838	312
506.309	325
506.78	335
507.251	342
507.722	348
508.194	354
508.665	358
509.136	356
509.607	378
510.078	379
510.549	384
511.021	395
511.492	397
511.964	398
512.435	409
512.906	401
513.378	410
513.849	416
514.321	421
514.793	419
515.264	425
515.736	431
516.208	438
516.679	444
517.151	445
517.623	449
518.095	455
518.567	469
519.038	474
519.51	477
519.982	493
520.454	496
520.927	496
521.399	499
521.871	517
522.343	519
522.815	517
523.287	521
523.76	526
524.232	537
524.704	540
525.177	536
525.649	535
526.122	539
526.594	532
527.067	547
527.539	559
528.012	548
528.484	555
528.957	558
529.43	558
529.903	552
530.375	572
530.848	563
531.321	573
531.794	566
532.267	584
532.74	579
533.213	578
533.686	590
534.159	578
534.632	601
535.105	605
535.578	611
536.051	610
536.525	619
536.998	621
537.471	639
537.945	629
538.418	646
538.891	643
539.365	654
539.838	660
540.312	661
540.786	672
541.259	667
541.733	673
542.206	674
542.68	662
543.154	669
543.628	669
544.101	695
544.575	684
545.049	670
545.523	678
545.997	683
546.471	693
546.945	686
547.419	700
547.893	671
548.367	682
548.842	685
549.316	682
549.79	698
550.264	688
550.739	699
551.213	687
551.687	692
552.162	701
552.636	700
553.111	697
553.585	724
554.06	705
554.534	723
555.009	712
555.484	740
555.958	747
556.433	746
556.908	748
557.383	745
557.858	772
558.333	776
558.807	770
559.282	774
559.757	802
560.232	807
560.708	786
561.183	787
561.658	797
562.133	799
562.608	789
563.083	813
563.559	794
564.034	802
564.509	802
564.985	804
565.46	798
565.936	820
566.411	822
566.887	819
567.362	818
567.838	811
568.313	825
568.789	816
569.265	811
569.74	826
570.216	816
570.692	835
571.168	837
571.644	830
572.12	830
572.596	843
573.071	841
573.547	869
574.024	879
574.5	894
574.976	896
575.452	910
575.928	914
576.404	918
576.881	946
577.357	929
577.833	938
578.31	970
578.786	988
579.262	1006
579.739	991
580.215	1018
580.692	1005
581.169	1006
581.645	1007
582.122	1036
582.598	1032
583.075	1037
583.552	1047
584.029	1049
584.506	1041
584.982	1034
585.459	1060
585.936	1050
586.413	1067
586.89	1090
587.367	1075
587.844	1097
588.321	1090
588.799	1086
589.276	1070
589.753	1088
590.23	1095
590.707	1102
591.185	1096
591.662	1094
592.139	1114
592.617	1131
593.094	1132
593.572	1135
594.049	1143
594.527	1156
595.004	1167
595.482	1195
595.96	1190
596.437	1187
596.915	1224
597.393	1205
597.871	1241
598.349	1218
598.826	1244
599.304	1243
599.782	1273
600.26	1259
600.738	1295
601.216	1290
601.694	1306
602.173	1319
602.651	1329
603.129	1305
603.607	1326
604.085	1319
604.564	1325
605.042	1328
605.52	1319
605.999	1356
606.477	1325
606.956	1336
607.434	1344.5
607.913	1353
608.391	1351
608.87	1352
609.348	1345
609.827	1341
610.306	1352
610.785	1359
611.263	1365
611.742	1354
612.221	1340
612.7	1352
613.179	1364
613.658	1353
614.137	1372
614.616	1374
615.095	1345
615.574	1373
616.053	1392
616.532	1372
617.011	1389
617.491	1385
617.97	1397
618.449	1424
618.928	1439
619.408	1424
619.887	1435
620.367	1442
620.846	1467
621.326	1459
621.805	1494
622.285	1492
622.764	1503
623.244	1505
623.724	1508
624.203	1520
624.683	1493
625.163	1526
625.643	1521
626.123	1510
626.602	1540
627.082	1513
627.562	1517
628.042	1556
628.522	1540
629.002	1533
629.482	1537
629.963	1540
630.443	1528
630.923	1547
631.403	1552
631.883	1560
632.364	1561
632.844	1537
633.324	1549
633.805	1565
634.285	1544
634.766	1535
635.246	1541
635.727	1539
636.207	1545
636.688	1557
637.168	1560
637.649	1534
638.13	1519
638.611	1540
639.091	1547
639.572	1526
640.053	1521
640.534	1541
641.015	1536
641.496	1522
641.977	1551
642.458	1531
642.939	1535
643.42	1544
643.901	1558
644.382	1577
644.863	1562
645.345	1581
645.826	1581
646.307	1589
646.788	1624
647.27	1594
647.751	1598
648.233	1612
648.714	1572
649.196	1614
649.677	1609
650.159	1619
650.64	1598
651.122	1619
651.603	1598
652.085	1613
652.567	1614
653.049	1602
653.53	1595
654.012	1616
654.494	1596
654.976	1609
655.458	1622
655.94	1622
656.422	1647
656.904	1623
657.386	1606
657.868	1609
658.35	1610
658.833	1617
659.315	1622
659.797	1612
660.279	1615
660.762	1634
661.244	1620
661.726	1608
662.209	1606
662.691	1601
663.174	1582
663.656	1587
664.139	1589
664.621	1576
665.104	1561
665.587	1581
666.069	1584
666.552	1582
667.035	1569
667.517	1581
668	1595
668.483	1592
668.966	1582
669.449	1575
669.932	1577
670.415	1590
670.898	1579
671.381	1592
671.864	1607
672.347	1588
672.83	1588
673.313	1586
673.797	1597
674.28	1627
674.763	1632
675.247	1648
675.73	1641
676.213	1665
676.697	1678
677.18	1675
677.664	1683
678.147	1681
678.631	1683
679.114	1691
679.598	1684
680.082	1695
680.565	1696
681.049	1695
681.533	1691
682.017	1701
682.5	1701
682.984	1711
683.468	1707
683.952	1670
684.436	1708
684.92	1707
685.404	1713
685.888	1723
686.372	1720
686.856	1737
687.341	1763
687.825	1743
688.309	1750
688.793	1748
689.278	1727
689.762	1743
690.246	1735
690.731	1741
691.215	1751
691.7	1699
692.184	1726
692.669	1732
693.153	1760
693.638	1735
694.122	1728
694.607	1731
695.092	1712
695.577	1737
696.061	1707
696.546	1691
697.031	1679
697.516	1691
698.001	1691
698.486	1685
698.971	1717
699.456	1680
699.941	1683
700.426	1685
700.911	1710
701.396	1691
701.881	1712
702.366	1712
702.852	1711
703.337	1712
703.822	1716
704.308	1719
704.793	1730
705.278	1731
705.764	1744
706.249	1729
706.735	1726
707.22	1746
707.706	1719
708.191	1758
708.677	1753
709.163	1742
709.648	1757
710.134	1769
710.62	1748
711.106	1746
711.592	1779
712.077	1767
712.563	1727
713.049	1716
713.535	1757
714.021	1745
714.507	1746
714.993	1730
715.479	1742
715.966	1730
716.452	1739
716.938	1728
717.424	1683
717.91	1730
718.397	1725
718.883	1702
719.369	1711
719.856	1695
720.342	1724
720.829	1716
721.315	1731
721.802	1719
722.288	1735
722.775	1660
723.262	1619
723.748	1698
724.235	1694
724.722	1728
725.208	1704
725.695	1698
726.182	1679
726.669	1660
727.156	1667
727.643	1652
728.13	1642
728.617	1621
729.104	1617
729.591	1611
730.078	1616
730.565	1624
731.052	1594
731.539	1600
732.027	1596
732.514	1590
733.001	1608
733.488	1593
733.976	1579
734.463	1575
734.951	1566
735.438	1584
735.926	1575
736.413	1608
736.901	1596
737.388	1622
737.876	1628
738.364	1624
738.851	1626
739.339	1615
739.827	1623
740.314	1575
740.802	1601
741.29	1617
741.778	1595
742.266	1601
742.754	1616
743.242	1626
743.73	1570
744.218	1566
744.706	1548
745.194	1574
745.682	1559
746.17	1568
746.659	1572
747.147	1530
747.635	1535
748.123	1536
748.612	1519
749.1	1527
749.589	1541
750.077	1523
750.566	1514
751.054	1511
751.543	1513
752.031	1493
752.52	1503
753.008	1479
753.497	1481
753.986	1470
754.474	1461
754.963	1483
755.452	1462
755.941	1461
756.43	1457
756.919	1447
757.408	1444
757.896	1455
758.385	1464
758.875	1444
759.364	1435
759.853	1430
760.342	1411
760.831	1426
761.32	1417
761.809	1389
762.299	1400
762.788	1401
763.277	1392
763.767	1375
764.256	1383
764.745	1363
765.235	1387
765.724	1343
766.214	1361
766.703	1355
767.193	1341
767.683	1349
768.172	1318
768.662	1332
769.152	1327
769.641	1324
770.131	1294
770.621	1313
771.111	1291
771.601	1296
772.09	1285
772.58	1278
773.07	1286
773.56	1292
774.05	1280
774.54	1278
775.031	1270
775.521	1267
776.011	1267
776.501	1276
776.991	1246
777.482	1265
777.972	1229
778.462	1229
778.953	1231
779.443	1222
779.933	1216
780.424	1199
780.914	1206
781.405	1206
781.895	1200
782.386	1198
782.877	1197
783.367	1177
783.858	1161
784.349	1159
784.839	1152
785.33	1155
785.821	1157
786.312	1151
786.803	1150
787.293	1152
787.784	1136
788.275	1114
788.766	1106
789.257	1134
789.748	1117
790.24	1103
790.731	1115
791.222	1103
791.713	1108
792.204	1110
792.696	1076
793.187	1091
793.678	1079
794.169	1060
794.661	1068
795.152	1056
795.644	1055
796.135	1045
796.627	1061
797.118	1041
797.61	1032
798.101	1017
798.593	1017
799.085	1008
799.576	1020
800.068	1001
800.56	1009
801.052	982
801.544	984
802.035	980
802.527	958
803.019	955
803.511	949
804.003	948
804.495	952
804.987	940
805.479	921
805.971	929
806.464	925
806.956	908
807.448	911
807.94	912
808.433	910
808.925	906
809.417	896
809.91	889
810.402	867
810.894	866
811.387	864
811.879	858
812.372	867
812.865	855
813.357	857
813.85	856
814.342	852
814.835	851
815.328	843
815.821	832
816.313	832
816.806	842
817.299	836
817.792	844
818.285	830
818.778	845
819.271	838
819.764	820
820.257	825
820.75	831
821.243	825
821.736	813
822.229	819
822.722	815
823.216	836
