Data from lamp5helium_zwak_Subt4__24__179.txt Node

Date: Wed Apr 09 10:14:02 CEST 2025
User: fys-lab-0081
Spectrometer: S04999
Trigger mode: 0
Resolution mode: 1024 pixels
Integration Time (sec): 1.000000E-1
Scans to average: 1
Nonlinearity correction enabled: false
Boxcar width: 0
Baseline correction enabled: true
XAxis mode: Wavelengths
Number of Pixels in Spectrum: 1024
>>>>>Begin Spectral Data<<<<<
336.42	2
336.877	-1
337.334	-3
337.792	-1
338.249	5
338.706	-1
339.164	0
339.621	0
340.079	5
340.536	1
340.994	2
341.452	-5
341.909	1
342.367	0
342.825	1
343.283	-2
343.741	2
344.198	4
344.656	1
345.114	-1
345.572	1
346.03	3
346.488	0
346.947	1
347.405	5
347.863	2
348.321	5
348.779	-3
349.238	3
349.696	2
350.154	-1
350.613	2
351.071	0
351.53	1
351.988	6
352.447	-1
352.905	-1
353.364	-2
353.823	2
354.282	0
354.74	-3
355.199	-2
355.658	0
356.117	2
356.576	9
357.035	2
357.494	2
357.953	5
358.412	5
358.871	-5
359.33	-2
359.789	2
360.249	-1
360.708	2
361.167	7
361.626	0
362.086	1
362.545	2
363.005	5
363.464	-3
363.924	1
364.383	5
364.843	0
365.303	-1
365.762	0
366.222	-2
366.682	2
367.142	6
367.601	-2
368.061	3
368.521	3
368.981	5
369.441	8
369.901	5
370.361	1
370.821	-1
371.282	6
371.742	2
372.202	3
372.662	4
373.123	7
373.583	4
374.043	1
374.504	-3
374.964	5
375.425	3
375.885	2
376.346	5
376.806	1
377.267	5
377.728	8
378.188	2
378.649	0
379.11	-1
379.571	3
380.032	4
380.493	-1
380.954	2
381.414	2
381.876	5
382.337	10
382.798	8
383.259	9
383.72	4
384.181	10
384.642	4
385.104	9
385.565	15
386.026	9
386.488	6
386.949	6
387.411	8
387.872	6
388.334	11
388.795	5
389.257	13
389.719	13
390.181	8
390.642	12
391.104	3
391.566	3
392.028	14
392.49	5
392.952	12
393.414	11
393.876	8
394.338	8
394.8	9
395.262	11
395.724	12
396.186	11
396.648	14
397.111	11
397.573	12
398.035	12
398.498	11
398.96	10
399.423	10
399.885	13
400.348	12
400.81	17
401.273	5
401.736	14
402.198	14
402.661	14
403.124	13
403.587	16
404.049	15.5
404.512	15
404.975	19
405.438	13
405.901	13
406.364	15
406.827	18
407.29	18
407.754	19
408.217	19
408.68	18
409.143	14
409.607	22
410.07	17
410.533	17
410.997	21
411.46	17
411.924	18
412.387	22
412.851	17
413.314	21
413.778	18
414.242	22
414.705	19
415.169	22
415.633	19
416.097	26
416.561	23
417.024	29
417.488	30
417.952	25
418.416	32
418.88	25
419.344	22
419.809	26
420.273	24
420.737	24
421.201	17
421.665	28
422.13	28
422.594	27
423.059	28
423.523	28
423.987	28
424.452	28
424.916	30
425.381	30
425.846	30
426.31	31
426.775	29
427.24	34
427.704	29
428.169	36
428.634	35
429.099	31
429.564	32
430.029	38
430.494	31
430.959	34
431.424	31
431.889	36
432.354	31
432.819	35
433.284	35
433.75	34
434.215	33
434.68	41
435.146	41
435.611	41
436.077	43
436.542	46
437.008	49
437.473	45
437.939	48
438.404	50
438.87	53
439.336	50
439.801	45
440.267	47
440.733	54
441.199	55
441.665	47
442.131	49
442.596	52
443.062	55
443.529	54
443.995	52
444.461	55
444.927	62
445.393	62
445.859	59
446.325	62
446.792	73
447.258	72
447.724	73
448.191	69
448.657	69
449.124	77
449.59	82
450.057	86
450.523	79
450.99	81
451.457	85
451.923	88
452.39	84
452.857	86
453.324	81
453.791	83
454.257	93
454.724	86
455.191	87
455.658	86
456.125	93
456.592	95
457.059	89
457.527	93
457.994	100
458.461	95
458.928	103
459.396	97
459.863	104
460.33	108
460.798	103
461.265	105
461.732	107
462.2	106
462.668	111
463.135	110
463.603	105
464.07	106
464.538	110
465.006	113
465.474	113
465.941	111
466.409	110
466.877	110
467.345	113
467.813	115
468.281	114
468.749	112
469.217	113
469.685	114
470.153	119
470.621	120
471.09	121
471.558	117
472.026	128
472.494	125
472.963	131
473.431	133
473.9	135
474.368	144
474.837	144
475.305	140
475.774	152
476.242	159
476.711	156
477.18	160
477.648	157
478.117	165
478.586	162
479.055	156
479.524	162
479.993	162
480.462	161
480.93	164
481.399	162
481.869	163
482.338	167
482.807	166
483.276	163
483.745	171
484.214	169
484.684	174
485.153	170
485.622	175
486.092	178
486.561	178
487.031	177
487.5	182
487.97	195
488.439	197
488.909	200
489.378	205
489.848	206
490.318	218
490.787	220
491.257	225
491.727	225
492.197	235
492.667	233
493.137	233
493.607	233
494.077	237
494.547	238
495.017	240
495.487	245
495.957	246
496.427	246
496.897	246
497.368	244
497.838	248
498.308	250
498.779	252
499.249	256
499.719	252
500.19	264
500.66	263
501.131	262
501.602	265
502.072	265
502.543	274
503.014	281
503.484	285
503.955	292
504.426	306
504.897	311
505.368	318
505.838	313
506.309	325
506.78	337
507.251	345
507.722	345
508.194	356
508.665	356
509.136	363
509.607	377
510.078	378
510.549	384
511.021	396
511.492	396
511.964	404
512.435	414
512.906	404
513.378	416
513.849	418
514.321	424
514.793	425
515.264	433
515.736	437
516.208	445
516.679	445
517.151	447
517.623	454
518.095	467
518.567	469
519.038	475
519.51	478
519.982	492
520.454	492
520.927	508
521.399	511
521.871	520
522.343	521
522.815	524
523.287	522
523.76	520
524.232	533
524.704	543
525.177	530
525.649	538
526.122	547
526.594	539
527.067	551
527.539	556
528.012	558
528.484	562
528.957	564
529.43	560
529.903	549
530.375	574
530.848	566
531.321	578
531.794	573
532.267	584
532.74	575
533.213	581
533.686	593
534.159	584
534.632	599
535.105	603
535.578	612
536.051	619
536.525	625
536.998	626
537.471	639
537.945	638
538.418	652
538.891	649
539.365	658
539.838	663
540.312	668
540.786	675
541.259	672
541.733	675
542.206	678
542.68	669
543.154	665
543.628	670
544.101	692
544.575	693
545.049	671
545.523	681
545.997	689
546.471	695
546.945	689
547.419	703
547.893	678
548.367	691
548.842	686
549.316	689
549.79	698
550.264	687
550.739	699
551.213	698
551.687	695
552.162	703
552.636	701
553.111	699
553.585	729
554.06	707
554.534	724
555.009	721
555.484	742
555.958	754
556.433	746
556.908	749
557.383	751
557.858	779
558.333	778
558.807	771
559.282	772
559.757	805
560.232	810
560.708	795
561.183	786
561.658	801
562.133	805
562.608	795
563.083	817
563.559	798
564.034	807
564.509	800
564.985	804
565.46	801
565.936	824
566.411	831
566.887	823
567.362	818
567.838	815
568.313	832
568.789	823
569.265	818
569.74	827
570.216	822
570.692	838
571.168	838
571.644	827
572.12	837
572.596	843
573.071	852
573.547	869
574.024	884
574.5	897
574.976	903
575.452	911
575.928	918
576.404	922
576.881	952
577.357	938
577.833	939
578.31	974
578.786	990
579.262	1008
579.739	998
580.215	1022
580.692	1007
581.169	1013
581.645	1010
582.122	1036
582.598	1039
583.075	1038
583.552	1046
584.029	1050
584.506	1047
584.982	1042
585.459	1065
585.936	1056
586.413	1071
586.89	1092
587.367	1083
587.844	1099
588.321	1097
588.799	1094
589.276	1075
589.753	1092
590.23	1103
590.707	1109
591.185	1106
591.662	1100
592.139	1118
592.617	1141
593.094	1139
593.572	1141
594.049	1157
594.527	1169
595.004	1176
595.482	1204
595.96	1196
596.437	1193
596.915	1234
597.393	1220
597.871	1243
598.349	1223
598.826	1249
599.304	1251
599.782	1284
600.26	1266
600.738	1295
601.216	1296
601.694	1319
602.173	1325
602.651	1327
603.129	1313
603.607	1327
604.085	1330
604.564	1328
605.042	1331
605.52	1323
605.999	1368
606.477	1332
606.956	1338
607.434	1345.5
607.913	1353
608.391	1362
608.87	1355
609.348	1344
609.827	1346
610.306	1351
610.785	1361
611.263	1372
611.742	1363
612.221	1348
612.7	1360
613.179	1373
613.658	1354
614.137	1379
614.616	1381
615.095	1353
615.574	1383
616.053	1398
616.532	1381
617.011	1388
617.491	1399
617.97	1410
618.449	1430
618.928	1444
619.408	1431
619.887	1439
620.367	1449
620.846	1475
621.326	1463
621.805	1504
622.285	1503
622.764	1511
623.244	1512
623.724	1522
624.203	1524
624.683	1499
625.163	1528
625.643	1530
626.123	1516
626.602	1551
627.082	1520
627.562	1530
628.042	1564
628.522	1547
629.002	1539
629.482	1538
629.963	1543
630.443	1538
630.923	1549
631.403	1562
631.883	1559
632.364	1563
632.844	1539
633.324	1561
633.805	1567
634.285	1549
634.766	1542
635.246	1541
635.727	1547
636.207	1556
636.688	1565
637.168	1574
637.649	1539
638.13	1531
638.611	1546
639.091	1548
639.572	1539
640.053	1528
640.534	1547
641.015	1544
641.496	1523
641.977	1556
642.458	1538
642.939	1550
643.42	1553
643.901	1562
644.382	1580
644.863	1569
645.345	1585
645.826	1586
646.307	1598
646.788	1632
647.27	1600
647.751	1609
648.233	1618
648.714	1582
649.196	1614
649.677	1624
650.159	1627
650.64	1604
651.122	1623
651.603	1609
652.085	1620
652.567	1623
653.049	1607
653.53	1599
654.012	1627
654.494	1605
654.976	1623
655.458	1625
655.94	1626
656.422	1654
656.904	1629
657.386	1613
657.868	1618
658.35	1609
658.833	1626
659.315	1629
659.797	1618
660.279	1622
660.762	1638
661.244	1633
661.726	1609
662.209	1613
662.691	1611
663.174	1589
663.656	1589
664.139	1599
664.621	1578
665.104	1569
665.587	1586
666.069	1591
666.552	1588
667.035	1572
667.517	1583
668	1600
668.483	1601
668.966	1583
669.449	1578
669.932	1584
670.415	1594
670.898	1583
671.381	1600
671.864	1613
672.347	1598
672.83	1593
673.313	1594
673.797	1597
674.28	1632
674.763	1637
675.247	1655
675.73	1649
676.213	1669
676.697	1685
677.18	1684
677.664	1690
678.147	1683
678.631	1692
679.114	1697
679.598	1687
680.082	1703
680.565	1706
681.049	1700
681.533	1693
682.017	1713
682.5	1707
682.984	1717
683.468	1722
683.952	1685
684.436	1717
684.92	1711
685.404	1723
685.888	1725
686.372	1726
686.856	1741
687.341	1773
687.825	1752
688.309	1754
688.793	1755
689.278	1731
689.762	1752
690.246	1740
690.731	1748
691.215	1759
691.7	1711
692.184	1733
692.669	1743
693.153	1763
693.638	1741
694.122	1738
694.607	1738
695.092	1713
695.577	1746
696.061	1718
696.546	1708
697.031	1686
697.516	1693
698.001	1700
698.486	1691
698.971	1721
699.456	1690
699.941	1688
700.426	1688
700.911	1716
701.396	1697
701.881	1718
702.366	1706
702.852	1716
703.337	1727
703.822	1726
704.308	1725
704.793	1735
705.278	1738
705.764	1748
706.249	1737
706.735	1736
707.22	1753
707.706	1728
708.191	1754
708.677	1763
709.163	1750
709.648	1766
710.134	1778
710.62	1757
711.106	1754
711.592	1779
712.077	1773
712.563	1738
713.049	1725
713.535	1757
714.021	1762
714.507	1748
714.993	1737
715.479	1752
715.966	1730
716.452	1743
716.938	1744
717.424	1703
717.91	1732
718.397	1729
718.883	1713
719.369	1713
719.856	1700
720.342	1729
720.829	1722
721.315	1735
721.802	1724
722.288	1740
722.775	1669
723.262	1619
723.748	1702
724.235	1703
724.722	1732
725.208	1710
725.695	1712
726.182	1693
726.669	1661
727.156	1669
727.643	1659
728.13	1644
728.617	1632
729.104	1626
729.591	1614
730.078	1626
730.565	1631
731.052	1600
731.539	1608
732.027	1606
732.514	1596
733.001	1611
733.488	1610
733.976	1584
734.463	1583
734.951	1572
735.438	1596
735.926	1588
736.413	1614
736.901	1598
737.388	1624
737.876	1630
738.364	1630
738.851	1632
739.339	1623
739.827	1631
740.314	1587
740.802	1602
741.29	1623
741.778	1603
742.266	1608
742.754	1616
743.242	1629
743.73	1582
744.218	1575
744.706	1558
745.194	1575
745.682	1561
746.17	1568
746.659	1578
747.147	1532
747.635	1540
748.123	1542
748.612	1526
749.1	1529
749.589	1553
750.077	1528
750.566	1520
751.054	1521
751.543	1519
752.031	1501
752.52	1505
753.008	1480
753.497	1482
753.986	1480
754.474	1470
754.963	1486
755.452	1465
755.941	1463
756.43	1464
756.919	1456
757.408	1447
757.896	1465
758.385	1468
758.875	1455
759.364	1438
759.853	1435
760.342	1410
760.831	1435
761.32	1423
761.809	1391
762.299	1400
762.788	1405
763.277	1397
763.767	1385
764.256	1385
764.745	1366
765.235	1389
765.724	1349
766.214	1367
766.703	1356
767.193	1342
767.683	1352
768.172	1325
768.662	1333
769.152	1332
769.641	1329
770.131	1302
770.621	1316
771.111	1293
771.601	1297
772.09	1294
772.58	1281
773.07	1287
773.56	1300
774.05	1283
774.54	1280
775.031	1278
775.521	1265
776.011	1265
776.501	1275
776.991	1250
777.482	1266
777.972	1234
778.462	1227
778.953	1235
779.443	1226
779.933	1220
780.424	1206
780.914	1205
781.405	1221
781.895	1202
782.386	1202
782.877	1205
783.367	1180
783.858	1166
784.349	1171
784.839	1156
785.33	1164
785.821	1158
786.312	1148
786.803	1156
787.293	1158
787.784	1138
788.275	1125
788.766	1115
789.257	1138
789.748	1117
790.24	1114
790.731	1120
791.222	1108
791.713	1103
792.204	1112
792.696	1085
793.187	1092
793.678	1088
794.169	1054
794.661	1069
795.152	1063
795.644	1053
796.135	1046
796.627	1061
797.118	1047
797.61	1045
798.101	1024
798.593	1023
799.085	1011
799.576	1017
800.068	1002
800.56	1008
801.052	984
801.544	978
802.035	980
802.527	966
803.019	955
803.511	949
804.003	944
804.495	955
804.987	941
805.479	918
805.971	932
806.464	925
806.956	912
807.448	912
807.94	914
808.433	912
808.925	915
809.417	896
809.91	898
810.402	867
810.894	869
811.387	875
811.879	857
812.372	867
812.865	856
813.357	864
813.85	854
814.342	847
814.835	848
815.328	849
815.821	838
816.313	843
816.806	841
817.299	837
817.792	845
818.285	836
818.778	841
819.271	841
819.764	828
820.257	826
820.75	829
821.243	829
821.736	820
822.229	818
822.722	820
823.216	842
