Data from lamp5helium_zwak_Subt4__88__243.txt Node

Date: Wed Apr 09 10:14:10 CEST 2025
User: fys-lab-0081
Spectrometer: S04999
Trigger mode: 0
Resolution mode: 1024 pixels
Integration Time (sec): 1.000000E-1
Scans to average: 1
Nonlinearity correction enabled: false
Boxcar width: 0
Baseline correction enabled: true
XAxis mode: Wavelengths
Number of Pixels in Spectrum: 1024
>>>>>Begin Spectral Data<<<<<
336.42	2
336.877	-1
337.334	-2
337.792	-1
338.249	4
338.706	1
339.164	-2
339.621	-4
340.079	4
340.536	3
340.994	3
341.452	-3
341.909	-4
342.367	1
342.825	-3
343.283	-1
343.741	-1
344.198	5
344.656	1
345.114	2
345.572	0
346.03	2
346.488	3
346.947	-1
347.405	4
347.863	-4
348.321	3
348.779	0
349.238	3
349.696	-1
350.154	-2
350.613	1
351.071	2
351.53	3
351.988	3
352.447	-2
352.905	4
353.364	-2
353.823	2
354.282	-2
354.74	-1
355.199	3
355.658	1
356.117	1
356.576	4
357.035	-1
357.494	4
357.953	4
358.412	5
358.871	-3
359.33	0
359.789	4
360.249	0
360.708	3
361.167	0
361.626	0
362.086	-4
362.545	3
363.005	6
363.464	-4
363.924	1
364.383	1
364.843	2
365.303	0
365.762	2
366.222	-3
366.682	5
367.142	5
367.601	2
368.061	2
368.521	8
368.981	-1
369.441	2
369.901	8
370.361	2
370.821	4
371.282	3
371.742	3
372.202	4
372.662	8
373.123	2
373.583	-2
374.043	2
374.504	-1
374.964	1
375.425	1
375.885	3
376.346	6
376.806	2
377.267	1
377.728	6
378.188	6
378.649	6
379.11	1
379.571	-1
380.032	2
380.493	-1
380.954	8
381.414	6
381.876	6
382.337	4
382.798	8
383.259	9
383.72	6
384.181	5
384.642	-1
385.104	8
385.565	14
386.026	7
386.488	2
386.949	7
387.411	10
387.872	7
388.334	10
388.795	3
389.257	9
389.719	10
390.181	4
390.642	8
391.104	6
391.566	8
392.028	11
392.49	8
392.952	16
393.414	9
393.876	10
394.338	13
394.8	12
395.262	8
395.724	8
396.186	10
396.648	12
397.111	6
397.573	14
398.035	16
398.498	14
398.96	7
399.423	11
399.885	17
400.348	7
400.81	19
401.273	11
401.736	13
402.198	13
402.661	12
403.124	18
403.587	15
404.049	16
404.512	17
404.975	16
405.438	10
405.901	14
406.364	19
406.827	17
407.29	21
407.754	20
408.217	18
408.68	13
409.143	16
409.607	23
410.07	19
410.533	17
410.997	18
411.46	14
411.924	14
412.387	17
412.851	19
413.314	21
413.778	22
414.242	21
414.705	18
415.169	21
415.633	19
416.097	26
416.561	24
417.024	28
417.488	27
417.952	22
418.416	26
418.88	21
419.344	23
419.809	24
420.273	28
420.737	24
421.201	16
421.665	24
422.13	25
422.594	27
423.059	23
423.523	26
423.987	25
424.452	25
424.916	30
425.381	31
425.846	28
426.31	26
426.775	28
427.24	36
427.704	25
428.169	31
428.634	31
429.099	30
429.564	29
430.029	31
430.494	35
430.959	34
431.424	32
431.889	33
432.354	33
432.819	32
433.284	33
433.75	35
434.215	36
434.68	37
435.146	38
435.611	43
436.077	40
436.542	45
437.008	44
437.473	43
437.939	47
438.404	49
438.87	49
439.336	45
439.801	44
440.267	46
440.733	54
441.199	55
441.665	45
442.131	54
442.596	54
443.062	46
443.529	53
443.995	53
444.461	53
444.927	60
445.393	59
445.859	64
446.325	63
446.792	74
447.258	68
447.724	67
448.191	71
448.657	70
449.124	78
449.59	71
450.057	82
450.523	78
450.99	78
451.457	80
451.923	82
452.39	77
452.857	82
453.324	79
453.791	84
454.257	86
454.724	82
455.191	84
455.658	84
456.125	91
456.592	88
457.059	91
457.527	90
457.994	94
458.461	95
458.928	101
459.396	96
459.863	100
460.33	106
460.798	102
461.265	96
461.732	100
462.2	102
462.668	105
463.135	107
463.603	98
464.07	102
464.538	107
465.006	110
465.474	105
465.941	104
466.409	104
466.877	105
467.345	112
467.813	109
468.281	109
468.749	106
469.217	110
469.685	110
470.153	113
470.621	115
471.09	117
471.558	111
472.026	120
472.494	121
472.963	127
473.431	132
473.9	131
474.368	135
474.837	138
475.305	139
475.774	147
476.242	154
476.711	150
477.18	149
477.648	153
478.117	152
478.586	153
479.055	146
479.524	155
479.993	158
480.462	155
480.93	159
481.399	151
481.869	154
482.338	159
482.807	164
483.276	161
483.745	163
484.214	166
484.684	164
485.153	165
485.622	161
486.092	172
486.561	173
487.031	171
487.5	173
487.97	182
488.439	189
488.909	194
489.378	194
489.848	199
490.318	208
490.787	208
491.257	221
491.727	216
492.197	229
492.667	222
493.137	226
493.607	223
494.077	228
494.547	225
495.017	230
495.487	231
495.957	241
496.427	235
496.897	235
497.368	240
497.838	237
498.308	241
498.779	244
499.249	245
499.719	243
500.19	254
500.66	251
501.131	247
501.602	255
502.072	258
502.543	262
503.014	280
503.484	272
503.955	279
504.426	291
504.897	299
505.368	300
505.838	305
506.309	316
506.78	324
507.251	333
507.722	334
508.194	348
508.665	350
509.136	352
509.607	360
510.078	370
510.549	373
511.021	385
511.492	382
511.964	392
512.435	399
512.906	396
513.378	397
513.849	409
514.321	409
514.793	408
515.264	413
515.736	422
516.208	431
516.679	427
517.151	428
517.623	436
518.095	449
518.567	451
519.038	461
519.51	466
519.982	477
520.454	478
520.927	482
521.399	488
521.871	496
522.343	505
522.815	506
523.287	502
523.76	511
524.232	516
524.704	523
525.177	515
525.649	522
526.122	527
526.594	518
527.067	534
527.539	541
528.012	538
528.484	539
528.957	542
529.43	541
529.903	537
530.375	561
530.848	551
531.321	555
531.794	555
532.267	569
532.74	554
533.213	565
533.686	575
534.159	563
534.632	582
535.105	588
535.578	594
536.051	598
536.525	601
536.998	613
537.471	624
537.945	612
538.418	626
538.891	629
539.365	637
539.838	646
540.312	640
540.786	651
541.259	650
541.733	655
542.206	656
542.68	652
543.154	646
543.628	646
544.101	674
544.575	666
545.049	648
545.523	661
545.997	663
546.471	675
546.945	667
547.419	681
547.893	657
548.367	664
548.842	663
549.316	662
549.79	673
550.264	663
550.739	677
551.213	673
551.687	673
552.162	686
552.636	682
553.111	677
553.585	703
554.06	684
554.534	700
555.009	692
555.484	718
555.958	728
556.433	721
556.908	725
557.383	728
557.858	749
558.333	760
558.807	747
559.282	754
559.757	780
560.232	782
560.708	770
561.183	760
561.658	775
562.133	777
562.608	769
563.083	793
563.559	777
564.034	776
564.509	773
564.985	780
565.46	778
565.936	793
566.411	803
566.887	797
567.362	795
567.838	794
568.313	805
568.789	792
569.265	794
569.74	806
570.216	798
570.692	810
571.168	811
571.644	804
572.12	809
572.596	821
573.071	824
573.547	841
574.024	855
574.5	867
574.976	871
575.452	888
575.928	891
576.404	890
576.881	921
577.357	911
577.833	912
578.31	942
578.786	955
579.262	976
579.739	965
580.215	990
580.692	980
581.169	979
581.645	975
582.122	1010
582.598	1004
583.075	1008
583.552	1016
584.029	1022
584.506	1017
584.982	1008
585.459	1029
585.936	1027
586.413	1040
586.89	1057
587.367	1043
587.844	1066
588.321	1063
588.799	1055
589.276	1050
589.753	1058
590.23	1072
590.707	1073
591.185	1072
591.662	1071
592.139	1089
592.617	1100
593.094	1097
593.572	1105
594.049	1118
594.527	1128
595.004	1141
595.482	1170
595.96	1157
596.437	1153
596.915	1194
597.393	1178
597.871	1206
598.349	1188
598.826	1214
599.304	1216
599.782	1244
600.26	1231
600.738	1256
601.216	1258
601.694	1276
602.173	1286
602.651	1291
603.129	1272
603.607	1294
604.085	1287
604.564	1296
605.042	1296
605.52	1288
605.999	1327
606.477	1294
606.956	1295
607.434	1307
607.913	1319
608.391	1320
608.87	1316
609.348	1303
609.827	1307
610.306	1315
610.785	1324
611.263	1331
611.742	1317
612.221	1308
612.7	1322
613.179	1328
613.658	1312
614.137	1331
614.616	1344
615.095	1311
615.574	1337
616.053	1352
616.532	1340
617.011	1349
617.491	1361
617.97	1364
618.449	1387
618.928	1405
619.408	1388
619.887	1405
620.367	1405
620.846	1433
621.326	1423
621.805	1458
622.285	1453
622.764	1466
623.244	1462
623.724	1475
624.203	1479
624.683	1456
625.163	1481
625.643	1484
626.123	1476
626.602	1502
627.082	1476
627.562	1477
628.042	1518
628.522	1499
629.002	1489
629.482	1502
629.963	1496
630.443	1490
630.923	1505
631.403	1511
631.883	1520
632.364	1521
632.844	1495
633.324	1515
633.805	1518
634.285	1508
634.766	1503
635.246	1496
635.727	1511
636.207	1512
636.688	1518
637.168	1521
637.649	1501
638.13	1489
638.611	1497
639.091	1502
639.572	1491
640.053	1484
640.534	1504
641.015	1498
641.496	1484
641.977	1512
642.458	1492
642.939	1498
643.42	1505
643.901	1520
644.382	1536
644.863	1526
645.345	1541
645.826	1538
646.307	1546
646.788	1581
647.27	1564
647.751	1568
648.233	1573
648.714	1533
649.196	1575
649.677	1576
650.159	1578
650.64	1559
651.122	1581
651.603	1559
652.085	1576
652.567	1576
653.049	1555
653.53	1560
654.012	1583
654.494	1566
654.976	1575
655.458	1580
655.94	1585
656.422	1608
656.904	1587
657.386	1567
657.868	1572
658.35	1565
658.833	1574
659.315	1585
659.797	1573
660.279	1583
660.762	1595
661.244	1584
661.726	1569
662.209	1564
662.691	1568
663.174	1542
663.656	1552
664.139	1555
664.621	1535
665.104	1528
665.587	1539
666.069	1544
666.552	1542
667.035	1529
667.517	1539
668	1553
668.483	1554
668.966	1547
669.449	1535
669.932	1540
670.415	1552
670.898	1543
671.381	1553
671.864	1571
672.347	1554
672.83	1546
673.313	1558
673.797	1558
674.28	1591
674.763	1595
675.247	1609
675.73	1607
676.213	1621
676.697	1637
677.18	1637
677.664	1641
678.147	1645
678.631	1644
679.114	1646
679.598	1642
680.082	1660
680.565	1663
681.049	1654
681.533	1651
682.017	1665
682.5	1658
682.984	1674
683.468	1676
683.952	1635
684.436	1667
684.92	1666
685.404	1679
685.888	1686
686.372	1678
686.856	1691
687.341	1721
687.825	1703
688.309	1709
688.793	1709
689.278	1682
689.762	1707
690.246	1691
690.731	1706
691.215	1711
691.7	1666
692.184	1692
692.669	1698
693.153	1721
693.638	1696
694.122	1691
694.607	1696
695.092	1670
695.577	1694
696.061	1663
696.546	1660
697.031	1641
697.516	1650
698.001	1656
698.486	1655
698.971	1678
699.456	1638
699.941	1646
700.426	1644
700.911	1659
701.396	1646
701.881	1664
702.366	1668
702.852	1667
703.337	1678
703.822	1676
704.308	1685
704.793	1692
705.278	1694
705.764	1702
706.249	1694
706.735	1686
707.22	1708
707.706	1683
708.191	1720
708.677	1711
709.163	1709
709.648	1718
710.134	1733
710.62	1712
711.106	1711
711.592	1741
712.077	1729
712.563	1694
713.049	1683
713.535	1719
714.021	1715
714.507	1706
714.993	1695
715.479	1714
715.966	1691
716.452	1698
716.938	1694
717.424	1652
717.91	1697
718.397	1687
718.883	1669
719.369	1669
719.856	1654
720.342	1687
720.829	1672
721.315	1696
721.802	1682
722.288	1693
722.775	1629
723.262	1589
723.748	1653
724.235	1659
724.722	1688
725.208	1663
725.695	1659
726.182	1651
726.669	1615
727.156	1629
727.643	1613
728.13	1607
728.617	1586
729.104	1585
729.591	1568
730.078	1584
730.565	1593
731.052	1559
731.539	1566
732.027	1564
732.514	1548
733.001	1570
733.488	1568
733.976	1551
734.463	1548
734.951	1534
735.438	1556
735.926	1542
736.413	1569
736.901	1560
737.388	1586
737.876	1594
738.364	1585
738.851	1585
739.339	1585
739.827	1599
740.314	1552
740.802	1558
741.29	1575
741.778	1563
742.266	1570
742.754	1577
743.242	1588
743.73	1539
744.218	1530
744.706	1520
745.194	1534
745.682	1526
746.17	1532
746.659	1539
747.147	1495
747.635	1508
748.123	1507
748.612	1489
749.1	1490
749.589	1509
750.077	1494
750.566	1477
751.054	1480
751.543	1487
752.031	1466
752.52	1473
753.008	1445
753.497	1446
753.986	1441
754.474	1431
754.963	1451
755.452	1429
755.941	1429
756.43	1427
756.919	1421
757.408	1413
757.896	1425
758.385	1433
758.875	1413
759.364	1396
759.853	1397
760.342	1378
760.831	1401
761.32	1388
761.809	1361
762.299	1370
762.788	1374
763.277	1368
763.767	1348
764.256	1351
764.745	1335
765.235	1356
765.724	1315
766.214	1331
766.703	1325
767.193	1315
767.683	1317
768.172	1287
768.662	1303
769.152	1300
769.641	1300
770.131	1266
770.621	1279
771.111	1266
771.601	1265
772.09	1256
772.58	1248
773.07	1258
773.56	1272
774.05	1249
774.54	1250
775.031	1242
775.521	1240
776.011	1233
776.501	1247
776.991	1221
777.482	1234
777.972	1203
778.462	1203
778.953	1209
779.443	1195
779.933	1190
780.424	1174
780.914	1178
781.405	1179
781.895	1172
782.386	1181
782.877	1179
783.367	1147
783.858	1136
784.349	1135
784.839	1128
785.33	1131
785.821	1136
786.312	1127
786.803	1131
787.293	1129
787.784	1109
788.275	1103
788.766	1090
789.257	1109
789.748	1091
790.24	1084
790.731	1099
791.222	1083
791.713	1080
792.204	1089
792.696	1060
793.187	1064
793.678	1055
794.169	1033
794.661	1045
795.152	1038
795.644	1031
796.135	1030
796.627	1038
797.118	1020
797.61	1008
798.101	999
798.593	1002
799.085	987
799.576	1000
800.068	979
800.56	984
801.052	956
801.544	957
802.035	957
802.527	939
803.019	933
803.511	926
804.003	921
804.495	933
804.987	921
805.479	899
805.971	915
806.464	910
806.956	891
807.448	893
807.94	894
808.433	889
808.925	891
809.417	881
809.91	873
810.402	845
810.894	849
811.387	849
811.879	840
812.372	851
812.865	836
813.357	849
813.85	832
814.342	832
814.835	833
815.328	825
815.821	816
816.313	820
816.806	821
817.299	820
817.792	822
818.285	814
818.778	823
819.271	821
819.764	812
820.257	809
820.75	811
821.243	806
821.736	798
822.229	800
822.722	801
823.216	820
