Data from lamp5helium_zwak_Subt4__57__212.txt Node

Date: Wed Apr 09 10:14:06 CEST 2025
User: fys-lab-0081
Spectrometer: S04999
Trigger mode: 0
Resolution mode: 1024 pixels
Integration Time (sec): 1.000000E-1
Scans to average: 1
Nonlinearity correction enabled: false
Boxcar width: 0
Baseline correction enabled: true
XAxis mode: Wavelengths
Number of Pixels in Spectrum: 1024
>>>>>Begin Spectral Data<<<<<
336.42	-4
336.877	-2
337.334	0
337.792	-2
338.249	6
338.706	3
339.164	1
339.621	0
340.079	3
340.536	6
340.994	7
341.452	-4
341.909	3
342.367	-3
342.825	-2
343.283	0
343.741	1
344.198	1
344.656	-1
345.114	-2
345.572	1
346.03	4
346.488	1
346.947	-3
347.405	3
347.863	-3
348.321	5
348.779	0
349.238	1
349.696	-2
350.154	1
350.613	4
351.071	2
351.53	2
351.988	2
352.447	-3
352.905	-1
353.364	-4
353.823	-3
354.282	1
354.74	-3
355.199	2
355.658	3
356.117	0
356.576	-1
357.035	2
357.494	5
357.953	6
358.412	5
358.871	-8
359.33	2
359.789	3
360.249	2
360.708	4
361.167	3
361.626	5
362.086	-2
362.545	2
363.005	8
363.464	0
363.924	0
364.383	6
364.843	2
365.303	5
365.762	8
366.222	-3
366.682	-1
367.142	7
367.601	3
368.061	4
368.521	4
368.981	0
369.441	2
369.901	10
370.361	4
370.821	3
371.282	4
371.742	3
372.202	7
372.662	5
373.123	2
373.583	1
374.043	6
374.504	2
374.964	3
375.425	1
375.885	3
376.346	6
376.806	3
377.267	6
377.728	4
378.188	2
378.649	7
379.11	4
379.571	2
380.032	-1
380.493	4
380.954	8
381.414	-4
381.876	0
382.337	9
382.798	8
383.259	13
383.72	3
384.181	7
384.642	7
385.104	10
385.565	14
386.026	7
386.488	6
386.949	11
387.411	9
387.872	5
388.334	5
388.795	5
389.257	12
389.719	13
390.181	7
390.642	12
391.104	9
391.566	6
392.028	14
392.49	7
392.952	12
393.414	11
393.876	12
394.338	4
394.8	8
395.262	13
395.724	9
396.186	13
396.648	6
397.111	9
397.573	13
398.035	10
398.498	15
398.96	5
399.423	14
399.885	18
400.348	11
400.81	21
401.273	9
401.736	17
402.198	15
402.661	17
403.124	12
403.587	15
404.049	16
404.512	17
404.975	13
405.438	15
405.901	16
406.364	16
406.827	16
407.29	21
407.754	16
408.217	21
408.68	16
409.143	18
409.607	20
410.07	18
410.533	21
410.997	20
411.46	16
411.924	23
412.387	19
412.851	22
413.314	20
413.778	16
414.242	24
414.705	22
415.169	24
415.633	23
416.097	21
416.561	23
417.024	24
417.488	25
417.952	20
418.416	29
418.88	28
419.344	27
419.809	24
420.273	29
420.737	26
421.201	19
421.665	26
422.13	27
422.594	28
423.059	30
423.523	27
423.987	27
424.452	27
424.916	35
425.381	32
425.846	29
426.31	30
426.775	32
427.24	39
427.704	27
428.169	32
428.634	39
429.099	30
429.564	31
430.029	32
430.494	36
430.959	39
431.424	32
431.889	32
432.354	32
432.819	37
433.284	36
433.75	32
434.215	38
434.68	42
435.146	41
435.611	42
436.077	41
436.542	44
437.008	49
437.473	47
437.939	48
438.404	49
438.87	51
439.336	50
439.801	47
440.267	45
440.733	52
441.199	53
441.665	49
442.131	55
442.596	55
443.062	44
443.529	53
443.995	54
444.461	59
444.927	66
445.393	60
445.859	66
446.325	70
446.792	75
447.258	70
447.724	72
448.191	69
448.657	78
449.124	77
449.59	76
450.057	87
450.523	82
450.99	85
451.457	81
451.923	86
452.39	86
452.857	89
453.324	84
453.791	85
454.257	87
454.724	88
455.191	89
455.658	86
456.125	95
456.592	90
457.059	91
457.527	93
457.994	100
458.461	100
458.928	104
459.396	100
459.863	101
460.33	107
460.798	106
461.265	104
461.732	108
462.2	112
462.668	110
463.135	114
463.603	103
464.07	105
464.538	109
465.006	119
465.474	114
465.941	108
466.409	112
466.877	108
467.345	118
467.813	115
468.281	110
468.749	113
469.217	115
469.685	117
470.153	112
470.621	118
471.09	117
471.558	123
472.026	126
472.494	125
472.963	131
473.431	137
473.9	142
474.368	145
474.837	143
475.305	148
475.774	153
476.242	160
476.711	155
477.18	156
477.648	163
478.117	164
478.586	165
479.055	159
479.524	161
479.993	163
480.462	161
480.93	164
481.399	162
481.869	167
482.338	168
482.807	163
483.276	162
483.745	169
484.214	170
484.684	173
485.153	174
485.622	177
486.092	182
486.561	179
487.031	181
487.5	180
487.97	192
488.439	197
488.909	203
489.378	208
489.848	206
490.318	213
490.787	220
491.257	227
491.727	225
492.197	239
492.667	235
493.137	233
493.607	237
494.077	242
494.547	237
495.017	238
495.487	243
495.957	249
496.427	245
496.897	242
497.368	244
497.838	251
498.308	252
498.779	250
499.249	258
499.719	256
500.19	261
500.66	262
501.131	264
501.602	270
502.072	265
502.543	275
503.014	283
503.484	282
503.955	291
504.426	307
504.897	307
505.368	315
505.838	315
506.309	324
506.78	338
507.251	348
507.722	346
508.194	363
508.665	365
509.136	364
509.607	378
510.078	384
510.549	385
511.021	399
511.492	397
511.964	406
512.435	415
512.906	408
513.378	416
513.849	419
514.321	425
514.793	425
515.264	434
515.736	439
516.208	447
516.679	447
517.151	448
517.623	459
518.095	468
518.567	473
519.038	477
519.51	487
519.982	497
520.454	498
520.927	502
521.399	509
521.871	524
522.343	526
522.815	526
523.287	524
523.76	538
524.232	539
524.704	546
525.177	536
525.649	538
526.122	553
526.594	538
527.067	561
527.539	564
528.012	558
528.484	560
528.957	563
529.43	566
529.903	557
530.375	578
530.848	570
531.321	576
531.794	575
532.267	591
532.74	580
533.213	580
533.686	594
534.159	582
534.632	601
535.105	610
535.578	616
536.051	620
536.525	629
536.998	633
537.471	641
537.945	640
538.418	648
538.891	660
539.365	657
539.838	666
540.312	670
540.786	680
541.259	670
541.733	681
542.206	678
542.68	676
543.154	668
543.628	672
544.101	697
544.575	692
545.049	675
545.523	683
545.997	690
546.471	702
546.945	694
547.419	706
547.893	680
548.367	691
548.842	687
549.316	688
549.79	702
550.264	694
550.739	707
551.213	696
551.687	699
552.162	709
552.636	710
553.111	702
553.585	726
554.06	714
554.534	731
555.009	719
555.484	741
555.958	748
556.433	750
556.908	756
557.383	746
557.858	781
558.333	785
558.807	783
559.282	777
559.757	806
560.232	809
560.708	800
561.183	793
561.658	801
562.133	801
562.608	796
563.083	820
563.559	803
564.034	812
564.509	805
564.985	812
565.46	810
565.936	825
566.411	826
566.887	823
567.362	826
567.838	819
568.313	831
568.789	823
569.265	822
569.74	836
570.216	821
570.692	836
571.168	840
571.644	839
572.12	839
572.596	844
573.071	854
573.547	875
574.024	894
574.5	897
574.976	903
575.452	922
575.928	924
576.404	929
576.881	948
577.357	942
577.833	950
578.31	973
578.786	991
579.262	1012
579.739	1000
580.215	1020
580.692	1015
581.169	1014
581.645	1014
582.122	1041
582.598	1040
583.075	1042
583.552	1060
584.029	1051
584.506	1047
584.982	1044
585.459	1065
585.936	1064
586.413	1076
586.89	1096
587.367	1088
587.844	1103
588.321	1101
588.799	1096
589.276	1078
589.753	1100
590.23	1108
590.707	1113
591.185	1105
591.662	1108
592.139	1124
592.617	1144
593.094	1144
593.572	1143
594.049	1159
594.527	1166
595.004	1174
595.482	1212
595.96	1194
596.437	1193
596.915	1231
597.393	1215
597.871	1249
598.349	1227
598.826	1253
599.304	1258
599.782	1279
600.26	1267
600.738	1296
601.216	1299
601.694	1312
602.173	1334
602.651	1335
603.129	1317
603.607	1339
604.085	1332
604.564	1340
605.042	1337
605.52	1333
605.999	1371
606.477	1343
606.956	1348
607.434	1351.5
607.913	1355
608.391	1369
608.87	1359
609.348	1346
609.827	1356
610.306	1358
610.785	1359
611.263	1378
611.742	1360
612.221	1352
612.7	1369
613.179	1375
613.658	1353
614.137	1374
614.616	1386
615.095	1361
615.574	1384
616.053	1399
616.532	1388
617.011	1401
617.491	1402
617.97	1412
618.449	1441
618.928	1453
619.408	1435
619.887	1447
620.367	1451
620.846	1482
621.326	1470
621.805	1508
622.285	1496
622.764	1514
623.244	1516
623.724	1521
624.203	1537
624.683	1501
625.163	1531
625.643	1536
626.123	1523
626.602	1557
627.082	1521
627.562	1527
628.042	1562
628.522	1548
629.002	1547
629.482	1553
629.963	1547
630.443	1547
630.923	1555
631.403	1566
631.883	1564
632.364	1569
632.844	1549
633.324	1567
633.805	1567
634.285	1559
634.766	1549
635.246	1549
635.727	1553
636.207	1561
636.688	1573
637.168	1575
637.649	1545
638.13	1536
638.611	1553
639.091	1555
639.572	1547
640.053	1539
640.534	1555
641.015	1553
641.496	1525
641.977	1566
642.458	1540
642.939	1550
643.42	1557
643.901	1566
644.382	1585
644.863	1577
645.345	1588
645.826	1597
646.307	1604
646.788	1636
647.27	1607
647.751	1611
648.233	1624
648.714	1588
649.196	1619
649.677	1622
650.159	1631
650.64	1611
651.122	1631
651.603	1603
652.085	1624
652.567	1627
653.049	1607
653.53	1609
654.012	1628
654.494	1609
654.976	1629
655.458	1638
655.94	1638
656.422	1661
656.904	1641
657.386	1618
657.868	1615
658.35	1617
658.833	1629
659.315	1639
659.797	1622
660.279	1624
660.762	1643
661.244	1629
661.726	1616
662.209	1618
662.691	1613
663.174	1589
663.656	1597
664.139	1600
664.621	1581
665.104	1570
665.587	1593
666.069	1592
666.552	1591
667.035	1572
667.517	1577
668	1602
668.483	1606
668.966	1598
669.449	1589
669.932	1594
670.415	1602
670.898	1588
671.381	1600
671.864	1615
672.347	1604
672.83	1597
673.313	1600
673.797	1606
674.28	1639
674.763	1649
675.247	1659
675.73	1653
676.213	1677
676.697	1696
677.18	1688
677.664	1690
678.147	1696
678.631	1693
679.114	1699
679.598	1693
680.082	1713
680.565	1718
681.049	1710
681.533	1700
682.017	1713
682.5	1714
682.984	1722
683.468	1722
683.952	1688
684.436	1722
684.92	1713
685.404	1721
685.888	1737
686.372	1733
686.856	1743
687.341	1772
687.825	1755
688.309	1758
688.793	1752
689.278	1739
689.762	1749
690.246	1744
690.731	1749
691.215	1761
691.7	1716
692.184	1741
692.669	1742
693.153	1770
693.638	1749
694.122	1741
694.607	1747
695.092	1726
695.577	1751
696.061	1716
696.546	1707
697.031	1691
697.516	1701
698.001	1707
698.486	1700
698.971	1727
699.456	1688
699.941	1699
700.426	1697
700.911	1716
701.396	1698
701.881	1719
702.366	1716
702.852	1722
703.337	1729
703.822	1727
704.308	1728
704.793	1747
705.278	1748
705.764	1752
706.249	1744
706.735	1735
707.22	1757
707.706	1735
708.191	1765
708.677	1756
709.163	1755
709.648	1759
710.134	1784
710.62	1765
711.106	1765
711.592	1789
712.077	1777
712.563	1742
713.049	1734
713.535	1769
714.021	1766
714.507	1761
714.993	1741
715.479	1754
715.966	1744
716.452	1748
716.938	1745
717.424	1703
717.91	1735
718.397	1734
718.883	1724
719.369	1719
719.856	1703
720.342	1735
720.829	1722
721.315	1735
721.802	1730
722.288	1747
722.775	1676
723.262	1628
723.748	1706
724.235	1709
724.722	1742
725.208	1710
725.695	1714
726.182	1695
726.669	1663
727.156	1675
727.643	1659
728.13	1648
728.617	1629
729.104	1631
729.591	1622
730.078	1630
730.565	1637
731.052	1605
731.539	1617
732.027	1608
732.514	1600
733.001	1614
733.488	1610
733.976	1592
734.463	1583
734.951	1578
735.438	1600
735.926	1595
736.413	1614
736.901	1603
737.388	1631
737.876	1639
738.364	1635
738.851	1639
739.339	1628
739.827	1633
740.314	1588
740.802	1606
741.29	1629
741.778	1607
742.266	1615
742.754	1619
743.242	1628
743.73	1593
744.218	1577
744.706	1559
745.194	1580
745.682	1570
746.17	1577
746.659	1579
747.147	1540
747.635	1547
748.123	1546
748.612	1532
749.1	1533
749.589	1546
750.077	1531
750.566	1524
751.054	1519
751.543	1527
752.031	1505
752.52	1508
753.008	1479
753.497	1492
753.986	1481
754.474	1468
754.963	1488
755.452	1470
755.941	1468
756.43	1461
756.919	1465
757.408	1452
757.896	1461
758.385	1472
758.875	1459
759.364	1442
759.853	1433
760.342	1410
760.831	1438
761.32	1429
761.809	1388
762.299	1406
762.788	1415
763.277	1400
763.767	1387
764.256	1395
764.745	1374
765.235	1387
765.724	1353
766.214	1370
766.703	1363
767.193	1347
767.683	1353
768.172	1328
768.662	1341
769.152	1338
769.641	1332
770.131	1306
770.621	1317
771.111	1304
771.601	1297
772.09	1298
772.58	1282
773.07	1288
773.56	1306
774.05	1289
774.54	1280
775.031	1280
775.521	1274
776.011	1263
776.501	1281
776.991	1254
777.482	1266
777.972	1239
778.462	1226
778.953	1240
779.443	1228
779.933	1224
780.424	1209
780.914	1206
781.405	1215
781.895	1203
782.386	1209
782.877	1206
783.367	1180
783.858	1169
784.349	1162
784.839	1154
785.33	1166
785.821	1163
786.312	1150
786.803	1158
787.293	1161
787.784	1138
788.275	1129
788.766	1115
789.257	1142
789.748	1125
790.24	1111
790.731	1125
791.222	1109
791.713	1110
792.204	1115
792.696	1087
793.187	1093
793.678	1087
794.169	1059
794.661	1074
795.152	1061
795.644	1057
796.135	1052
796.627	1064
797.118	1049
797.61	1038
798.101	1019
798.593	1025
799.085	1017
799.576	1022
800.068	1002
800.56	1008
801.052	988
801.544	983
802.035	986
802.527	964
803.019	965
803.511	956
804.003	945
804.495	956
804.987	940
805.479	915
805.971	937
806.464	931
806.956	907
807.448	913
807.94	921
808.433	911
808.925	918
809.417	896
809.91	894
810.402	870
810.894	875
811.387	880
811.879	859
812.372	865
812.865	862
813.357	860
813.85	857
814.342	850
814.835	850
815.328	852
815.821	837
816.313	837
816.806	845
817.299	833
817.792	841
818.285	833
818.778	838
819.271	844
819.764	831
820.257	828
820.75	828
821.243	829
821.736	818
822.229	823
822.722	820
823.216	841
