Data from lamp5helium_zwak_Subt4__7__162.txt Node

Date: Wed Apr 09 10:14:00 CEST 2025
User: fys-lab-0081
Spectrometer: S04999
Trigger mode: 0
Resolution mode: 1024 pixels
Integration Time (sec): 1.000000E-1
Scans to average: 1
Nonlinearity correction enabled: false
Boxcar width: 0
Baseline correction enabled: true
XAxis mode: Wavelengths
Number of Pixels in Spectrum: 1024
>>>>>Begin Spectral Data<<<<<
336.42	0
336.877	1
337.334	3
337.792	1
338.249	7
338.706	1
339.164	-2
339.621	-2
340.079	-1
340.536	4
340.994	2
341.452	-5
341.909	3
342.367	-2
342.825	-2
343.283	2
343.741	-2
344.198	-3
344.656	1
345.114	-2
345.572	0
346.03	2
346.488	0
346.947	-2
347.405	2
347.863	-2
348.321	7
348.779	-1
349.238	3
349.696	3
350.154	0
350.613	-1
351.071	4
351.53	4
351.988	4
352.447	-1
352.905	3
353.364	-6
353.823	-1
354.282	1
354.74	-4
355.199	2
355.658	3
356.117	0
356.576	4
357.035	0
357.494	5
357.953	5
358.412	6
358.871	-7
359.33	1
359.789	3
360.249	1
360.708	3
361.167	-1
361.626	5
362.086	0
362.545	2
363.005	7
363.464	-2
363.924	0
364.383	5
364.843	0
365.303	0
365.762	2
366.222	-3
366.682	7
367.142	2
367.601	4
368.061	-2
368.521	7
368.981	0
369.441	4
369.901	7
370.361	-1
370.821	1
371.282	5
371.742	7
372.202	2
372.662	3
373.123	3
373.583	1
374.043	0
374.504	-5
374.964	-2
375.425	3
375.885	7
376.346	6
376.806	3
377.267	3
377.728	8
378.188	5
378.649	3
379.11	1
379.571	1
380.032	3
380.493	2
380.954	9
381.414	2
381.876	6
382.337	9
382.798	11
383.259	10
383.72	0
384.181	4
384.642	5
385.104	7
385.565	14
386.026	8
386.488	5
386.949	12
387.411	8
387.872	10
388.334	9
388.795	9
389.257	13
389.719	7
390.181	9
390.642	13
391.104	4
391.566	8
392.028	15
392.49	4
392.952	11
393.414	10
393.876	7
394.338	11
394.8	8
395.262	12
395.724	13
396.186	14
396.648	13
397.111	13
397.573	12
398.035	10
398.498	16
398.96	6
399.423	15
399.885	15
400.348	14
400.81	19
401.273	14
401.736	16
402.198	14
402.661	13
403.124	10
403.587	16
404.049	16
404.512	16
404.975	16
405.438	16
405.901	16
406.364	18
406.827	13
407.29	17
407.754	20
408.217	21
408.68	19
409.143	17
409.607	20
410.07	21
410.533	19
410.997	19
411.46	18
411.924	23
412.387	20
412.851	22
413.314	22
413.778	20
414.242	25
414.705	21
415.169	22
415.633	23
416.097	25
416.561	19
417.024	24
417.488	32
417.952	24
418.416	28
418.88	22
419.344	30
419.809	22
420.273	27
420.737	25
421.201	21
421.665	28
422.13	32
422.594	30
423.059	33
423.523	27
423.987	29
424.452	29
424.916	32
425.381	29
425.846	31
426.31	31
426.775	32
427.24	39
427.704	35
428.169	41
428.634	35
429.099	35
429.564	29
430.029	32
430.494	36
430.959	38
431.424	35
431.889	33
432.354	36
432.819	40
433.284	38
433.75	38
434.215	37
434.68	41
435.146	43
435.611	47
436.077	41
436.542	46
437.008	52
437.473	50
437.939	51
438.404	52
438.87	51
439.336	50
439.801	47
440.267	48
440.733	59
441.199	61
441.665	53
442.131	57
442.596	53
443.062	53
443.529	60
443.995	60
444.461	57
444.927	65
445.393	63
445.859	68
446.325	70
446.792	70
447.258	70
447.724	75
448.191	73
448.657	76
449.124	83
449.59	80
450.057	87
450.523	84
450.99	84
451.457	86
451.923	86
452.39	88
452.857	90
453.324	82
453.791	92
454.257	92
454.724	97
455.191	91
455.658	86
456.125	97
456.592	97
457.059	97
457.527	98
457.994	103
458.461	99
458.928	110
459.396	108
459.863	104
460.33	104
460.798	109
461.265	108
461.732	108
462.2	113
462.668	113
463.135	116
463.603	114
464.07	108
464.538	115
465.006	117
465.474	115
465.941	116
466.409	113
466.877	112
467.345	122
467.813	120
468.281	115
468.749	118
469.217	122
469.685	123
470.153	120
470.621	123
471.09	122
471.558	126
472.026	130
472.494	130
472.963	135
473.431	142
473.9	145
474.368	148
474.837	150
475.305	146
475.774	157
476.242	167
476.711	162
477.18	161
477.648	165
478.117	166
478.586	167
479.055	165
479.524	165
479.993	168
480.462	169
480.93	167
481.399	165
481.869	165
482.338	170
482.807	174
483.276	168
483.745	172
484.214	180
484.684	181
485.153	180
485.622	176
486.092	185
486.561	184
487.031	186
487.5	190
487.97	199
488.439	202
488.909	211
489.378	217
489.848	212
490.318	225
490.787	225
491.257	235
491.727	235
492.197	242
492.667	241
493.137	241
493.607	239
494.077	242
494.547	244
495.017	247
495.487	254
495.957	253
496.427	251
496.897	251
497.368	253
497.838	257
498.308	254
498.779	260
499.249	268
499.719	266
500.19	273
500.66	272
501.131	271
501.602	275
502.072	276
502.543	281
503.014	296
503.484	294
503.955	302
504.426	316
504.897	321
505.368	320
505.838	327
506.309	335
506.78	351
507.251	359
507.722	363
508.194	375
508.665	379
509.136	375
509.607	388
510.078	399
510.549	403
511.021	411
511.492	411
511.964	414
512.435	427
512.906	422
513.378	429
513.849	439
514.321	441
514.793	437
515.264	445
515.736	448
516.208	465
516.679	463
517.151	466
517.623	468
518.095	478
518.567	487
519.038	492
519.51	496
519.982	510
520.454	509
520.927	520
521.399	522
521.871	540
522.343	544
522.815	544
523.287	538
523.76	549
524.232	555
524.704	561
525.177	551
525.649	556
526.122	567
526.594	554
527.067	570
527.539	573
528.012	576
528.484	575
528.957	579
529.43	576
529.903	571
530.375	597
530.848	586
531.321	594
531.794	591
532.267	609
532.74	599
533.213	603
533.686	612
534.159	604
534.632	620
535.105	626
535.578	634
536.051	643
536.525	640
536.998	648
537.471	661
537.945	659
538.418	676
538.891	672
539.365	678
539.838	690
540.312	687
540.786	702
541.259	692
541.733	697
542.206	696
542.68	693
543.154	691
543.628	695
544.101	722
544.575	714
545.049	692
545.523	706
545.997	712
546.471	717
546.945	708
547.419	727
547.893	703
548.367	710
548.842	705
549.316	707
549.79	715
550.264	713
550.739	719
551.213	715
551.687	714
552.162	730
552.636	727
553.111	722
553.585	749
554.06	739
554.534	751
555.009	739
555.484	762
555.958	773
556.433	769
556.908	779
557.383	774
557.858	799
558.333	804
558.807	804
559.282	807
559.757	831
560.232	835
560.708	813
561.183	812
561.658	829
562.133	824
562.608	819
563.083	845
563.559	822
564.034	831
564.509	827
564.985	837
565.46	823
565.936	853
566.411	852
566.887	843
567.362	841
567.838	850
568.313	852
568.789	846
569.265	844
569.74	856
570.216	849
570.692	870
571.168	861
571.644	859
572.12	862
572.596	874
573.071	873
573.547	901
574.024	910
574.5	920
574.976	934
575.452	947
575.928	944
576.404	954
576.881	979
577.357	964
577.833	973
578.31	998
578.786	1017
579.262	1042
579.739	1023
580.215	1057
580.692	1042
581.169	1040
581.645	1050
582.122	1070
582.598	1076
583.075	1070
583.552	1081
584.029	1082
584.506	1077
584.982	1072
585.459	1096
585.936	1095
586.413	1105
586.89	1119
587.367	1117
587.844	1136
588.321	1127
588.799	1127
589.276	1113
589.753	1129
590.23	1141
590.707	1142
591.185	1140
591.662	1134
592.139	1157
592.617	1173
593.094	1171
593.572	1172
594.049	1190
594.527	1199
595.004	1208
595.482	1239
595.96	1227
596.437	1224
596.915	1269
597.393	1245
597.871	1283
598.349	1261
598.826	1291
599.304	1288
599.782	1318
600.26	1308
600.738	1331
601.216	1337
601.694	1356
602.173	1369
602.651	1369
603.129	1355
603.607	1372
604.085	1368
604.564	1368
605.042	1370
605.52	1365
605.999	1405
606.477	1372
606.956	1375
607.434	1387
607.913	1399
608.391	1402
608.87	1403
609.348	1384
609.827	1390
610.306	1396
610.785	1402
611.263	1418
611.742	1404
612.221	1388
612.7	1400
613.179	1412
613.658	1397
614.137	1424
614.616	1421
615.095	1387
615.574	1415
616.053	1441
616.532	1424
617.011	1435
617.491	1439
617.97	1454
618.449	1475
618.928	1485
619.408	1475
619.887	1482
620.367	1489
620.846	1515
621.326	1504
621.805	1546
622.285	1544
622.764	1552
623.244	1554
623.724	1567
624.203	1570
624.683	1540
625.163	1566
625.643	1577
626.123	1564
626.602	1592
627.082	1560
627.562	1570
628.042	1608
628.522	1588
629.002	1578
629.482	1589
629.963	1586
630.443	1582
630.923	1594
631.403	1602
631.883	1607
632.364	1607
632.844	1589
633.324	1606
633.805	1610
634.285	1597
634.766	1589
635.246	1595
635.727	1588
636.207	1601
636.688	1612
637.168	1617
637.649	1580
638.13	1572
638.611	1587
639.091	1595
639.572	1583
640.053	1574
640.534	1588
641.015	1594
641.496	1572
641.977	1606
642.458	1580
642.939	1586
643.42	1596
643.901	1606
644.382	1627
644.863	1622
645.345	1627
645.826	1638
646.307	1643
646.788	1671
647.27	1656
647.751	1653
648.233	1668
648.714	1623
649.196	1666
649.677	1665
650.159	1674
650.64	1648
651.122	1673
651.603	1650
652.085	1671
652.567	1678
653.049	1647
653.53	1646
654.012	1671
654.494	1649
654.976	1666
655.458	1667
655.94	1668
656.422	1702
656.904	1677
657.386	1655
657.868	1660
658.35	1653
658.833	1670
659.315	1681
659.797	1666
660.279	1670
660.762	1685
661.244	1677
661.726	1655
662.209	1655
662.691	1654
663.174	1631
663.656	1642
664.139	1640
664.621	1626
665.104	1600
665.587	1631
666.069	1641
666.552	1633
667.035	1616
667.517	1623
668	1646
668.483	1649
668.966	1630
669.449	1622
669.932	1627
670.415	1635
670.898	1633
671.381	1638
671.864	1654
672.347	1642
672.83	1639
673.313	1639
673.797	1641
674.28	1671
674.763	1682
675.247	1704
675.73	1692
676.213	1711
676.697	1735
677.18	1731
677.664	1738
678.147	1735
678.631	1736
679.114	1742
679.598	1738
680.082	1752
680.565	1750
681.049	1743
681.533	1746
682.017	1753
682.5	1756
682.984	1763
683.468	1765
683.952	1732
684.436	1761
684.92	1754
685.404	1765
685.888	1776
686.372	1773
686.856	1784
687.341	1817
687.825	1786
688.309	1800
688.793	1802
689.278	1780
689.762	1799
690.246	1791
690.731	1793
691.215	1807
691.7	1759
692.184	1779
692.669	1787
693.153	1808
693.638	1790
694.122	1781
694.607	1788
695.092	1767
695.577	1788
696.061	1752
696.546	1747
697.031	1730
697.516	1739
698.001	1745
698.486	1736
698.971	1764
699.456	1727
699.941	1735
700.426	1732
700.911	1754
701.396	1738
701.881	1762
702.366	1763
702.852	1758
703.337	1771
703.822	1766
704.308	1774
704.793	1786
705.278	1787
705.764	1793
706.249	1787
706.735	1783
707.22	1800
707.706	1767
708.191	1811
708.677	1812
709.163	1799
709.648	1806
710.134	1823
710.62	1808
711.106	1802
711.592	1828
712.077	1820
712.563	1775
713.049	1770
713.535	1810
714.021	1806
714.507	1794
714.993	1781
715.479	1799
715.966	1787
716.452	1785
716.938	1783
717.424	1740
717.91	1779
718.397	1776
718.883	1763
719.369	1760
719.856	1744
720.342	1776
720.829	1762
721.315	1771
721.802	1768
722.288	1787
722.775	1714
723.262	1665
723.748	1739
724.235	1742
724.722	1781
725.208	1754
725.695	1744
726.182	1731
726.669	1701
727.156	1713
727.643	1699
728.13	1692
728.617	1670
729.104	1674
729.591	1653
730.078	1666
730.565	1667
731.052	1639
731.539	1644
732.027	1644
732.514	1631
733.001	1653
733.488	1646
733.976	1626
734.463	1618
734.951	1613
735.438	1642
735.926	1628
736.413	1649
736.901	1638
737.388	1666
737.876	1677
738.364	1671
738.851	1673
739.339	1659
739.827	1670
740.314	1629
740.802	1644
741.29	1658
741.778	1642
742.266	1646
742.754	1650
743.242	1669
743.73	1616
744.218	1609
744.706	1598
745.194	1620
745.682	1607
746.17	1609
746.659	1618
747.147	1571
747.635	1583
748.123	1577
748.612	1563
749.1	1562
749.589	1585
750.077	1574
750.566	1554
751.054	1550
751.543	1559
752.031	1542
752.52	1549
753.008	1513
753.497	1520
753.986	1513
754.474	1502
754.963	1527
755.452	1499
755.941	1500
756.43	1498
756.919	1485
757.408	1482
757.896	1495
758.385	1506
758.875	1483
759.364	1474
759.853	1470
760.342	1446
760.831	1468
761.32	1457
761.809	1419
762.299	1435
762.788	1444
763.277	1431
763.767	1419
764.256	1419
764.745	1404
765.235	1416
765.724	1381
766.214	1401
766.703	1390
767.193	1372
767.683	1382
768.172	1348
768.662	1369
769.152	1364
769.641	1362
770.131	1328
770.621	1350
771.111	1328
771.601	1333
772.09	1324
772.58	1310
773.07	1317
773.56	1337
774.05	1316
774.54	1315
775.031	1305
775.521	1301
776.011	1297
776.501	1309
776.991	1280
777.482	1293
777.972	1265
778.462	1261
778.953	1265
779.443	1253
779.933	1247
780.424	1232
780.914	1241
781.405	1243
781.895	1233
782.386	1229
782.877	1234
783.367	1209
783.858	1194
784.349	1191
784.839	1178
785.33	1184
785.821	1186
786.312	1178
786.803	1184
787.293	1187
787.784	1166
788.275	1148
788.766	1138
789.257	1159
789.748	1146
790.24	1141
790.731	1149
791.222	1131
791.713	1132
792.204	1138
792.696	1108
793.187	1118
793.678	1105
794.169	1081
794.661	1088
795.152	1088
795.644	1078
796.135	1079
796.627	1087
797.118	1072
797.61	1066
798.101	1048
798.593	1047
799.085	1040
799.576	1041
800.068	1030
800.56	1030
801.052	1000
801.544	1004
802.035	1007
802.527	985
803.019	978
803.511	973
804.003	967
804.495	980
804.987	965
805.479	942
805.971	960
806.464	950
806.956	931
807.448	933
807.94	936
808.433	926
808.925	932
809.417	922
809.91	917
810.402	891
810.894	889
811.387	887
811.879	880
812.372	890
812.865	879
813.357	880
813.85	872
814.342	873
814.835	865
815.328	865
815.821	853
816.313	857
816.806	861
817.299	853
817.792	858
818.285	853
818.778	862
819.271	858
819.764	846
820.257	844
820.75	848
821.243	840
821.736	833
822.229	843
822.722	835
823.216	856
