Data from lamp5helium_zwak_Subt4__85__240.txt Node

Date: Wed Apr 09 10:14:10 CEST 2025
User: fys-lab-0081
Spectrometer: S04999
Trigger mode: 0
Resolution mode: 1024 pixels
Integration Time (sec): 1.000000E-1
Scans to average: 1
Nonlinearity correction enabled: false
Boxcar width: 0
Baseline correction enabled: true
XAxis mode: Wavelengths
Number of Pixels in Spectrum: 1024
>>>>>Begin Spectral Data<<<<<
336.42	-2
336.877	-2
337.334	2
337.792	-5
338.249	5
338.706	3
339.164	-2
339.621	0
340.079	2
340.536	6
340.994	6
341.452	-4
341.909	3
342.367	2
342.825	-3
343.283	3
343.741	-1
344.198	1
344.656	1
345.114	2
345.572	0
346.03	3
346.488	0
346.947	-1
347.405	-1
347.863	2
348.321	3
348.779	-3
349.238	3
349.696	-1
350.154	0
350.613	-1
351.071	-3
351.53	4
351.988	2
352.447	0
352.905	-4
353.364	-3
353.823	4
354.282	1
354.74	-3
355.199	1
355.658	1
356.117	1
356.576	8
357.035	3
357.494	3
357.953	4
358.412	3
358.871	-3
359.33	-2
359.789	5
360.249	-2
360.708	4
361.167	1
361.626	5
362.086	2
362.545	5
363.005	8
363.464	0
363.924	0
364.383	6
364.843	1
365.303	-2
365.762	4
366.222	-2
366.682	2
367.142	10
367.601	4
368.061	1
368.521	3
368.981	3
369.441	5
369.901	5
370.361	2
370.821	0
371.282	5
371.742	4
372.202	4
372.662	5
373.123	3
373.583	1
374.043	4
374.504	-5
374.964	3
375.425	0
375.885	1
376.346	6
376.806	3
377.267	8
377.728	9
378.188	4
378.649	5
379.11	4
379.571	2
380.032	2
380.493	1
380.954	8
381.414	-1
381.876	3
382.337	6
382.798	4
383.259	9
383.72	2
384.181	4
384.642	2
385.104	11
385.565	14
386.026	6
386.488	2
386.949	8
387.411	4
387.872	10
388.334	9
388.795	7
389.257	11
389.719	12
390.181	8
390.642	11
391.104	5
391.566	5
392.028	17
392.49	6
392.952	9
393.414	11
393.876	7
394.338	11
394.8	12
395.262	12
395.724	13
396.186	15
396.648	9
397.111	12
397.573	10
398.035	11
398.498	12
398.96	8
399.423	9
399.885	12
400.348	11
400.81	24
401.273	8
401.736	13
402.198	11
402.661	13
403.124	9
403.587	12
404.049	15
404.512	18
404.975	14
405.438	15
405.901	13
406.364	16
406.827	18
407.29	17
407.754	21
408.217	20
408.68	17
409.143	17
409.607	22
410.07	16
410.533	19
410.997	19
411.46	16
411.924	16
412.387	23
412.851	20
413.314	19
413.778	21
414.242	20
414.705	18
415.169	18
415.633	20
416.097	25
416.561	23
417.024	24
417.488	29
417.952	26
418.416	27
418.88	24
419.344	22
419.809	23
420.273	22
420.737	22
421.201	17
421.665	27
422.13	30
422.594	26
423.059	28
423.523	25
423.987	28
424.452	27
424.916	30
425.381	27
425.846	30
426.31	28
426.775	27
427.24	35
427.704	30
428.169	36
428.634	33
429.099	28
429.564	34
430.029	34
430.494	35
430.959	33
431.424	27
431.889	34
432.354	33
432.819	34
433.284	31
433.75	35
434.215	38
434.68	38
435.146	40
435.611	40
436.077	42
436.542	45
437.008	39
437.473	42
437.939	47
438.404	48
438.87	52
439.336	47
439.801	45
440.267	48
440.733	56
441.199	54
441.665	43
442.131	50
442.596	50
443.062	51
443.529	53
443.995	51
444.461	49
444.927	57
445.393	59
445.859	65
446.325	63
446.792	71
447.258	67
447.724	71
448.191	69
448.657	72
449.124	78
449.59	76
450.057	83
450.523	79
450.99	77
451.457	80
451.923	82
452.39	81
452.857	86
453.324	74
453.791	85
454.257	83
454.724	88
455.191	86
455.658	83
456.125	90
456.592	90
457.059	93
457.527	89
457.994	92
458.461	94
458.928	97
459.396	96
459.863	99
460.33	101
460.798	104
461.265	103
461.732	103
462.2	102
462.668	102
463.135	111
463.603	103
464.07	103
464.538	104
465.006	109
465.474	107
465.941	106
466.409	106
466.877	104
467.345	111
467.813	110
468.281	107
468.749	110
469.217	110
469.685	110
470.153	116
470.621	115
471.09	119
471.558	116
472.026	122
472.494	122
472.963	125
473.431	133
473.9	139
474.368	137
474.837	138
475.305	144
475.774	147
476.242	154
476.711	149
477.18	156
477.648	157
478.117	160
478.586	154
479.055	153
479.524	154
479.993	159
480.462	157
480.93	158
481.399	156
481.869	155
482.338	160
482.807	161
483.276	157
483.745	162
484.214	163
484.684	171
485.153	171
485.622	167
486.092	172
486.561	172
487.031	172
487.5	180
487.97	182
488.439	190
488.909	193
489.378	199
489.848	199
490.318	211
490.787	212
491.257	222
491.727	221
492.197	227
492.667	221
493.137	223
493.607	226
494.077	230
494.547	229
495.017	229
495.487	233
495.957	241
496.427	236
496.897	232
497.368	240
497.838	244
498.308	239
498.779	243
499.249	244
499.719	248
500.19	256
500.66	251
501.131	256
501.602	257
502.072	260
502.543	270
503.014	275
503.484	275
503.955	282
504.426	293
504.897	297
505.368	305
505.838	307
506.309	313
506.78	324
507.251	337
507.722	339
508.194	349
508.665	357
509.136	354
509.607	364
510.078	377
510.549	378
511.021	387
511.492	390
511.964	392
512.435	400
512.906	394
513.378	400
513.849	411
514.321	413
514.793	413
515.264	418
515.736	424
516.208	431
516.679	432
517.151	436
517.623	444
518.095	452
518.567	456
519.038	469
519.51	468
519.982	482
520.454	478
520.927	488
521.399	495
521.871	505
522.343	504
522.815	509
523.287	505
523.76	514
524.232	523
524.704	527
525.177	521
525.649	524
526.122	530
526.594	526
527.067	535
527.539	545
528.012	543
528.484	543
528.957	545
529.43	547
529.903	537
530.375	562
530.848	552
531.321	560
531.794	553
532.267	571
532.74	557
533.213	568
533.686	579
534.159	567
534.632	587
535.105	593
535.578	598
536.051	599
536.525	613
536.998	613
537.471	626
537.945	619
538.418	633
538.891	634
539.365	637
539.838	650
540.312	651
540.786	657
541.259	643
541.733	656
542.206	657
542.68	652
543.154	646
543.628	652
544.101	676
544.575	674
545.049	655
545.523	668
545.997	671
546.471	677
546.945	664
547.419	688
547.893	661
548.367	669
548.842	667
549.316	674
549.79	669
550.264	669
550.739	685
551.213	680
551.687	675
552.162	690
552.636	686
553.111	685
553.585	704
554.06	695
554.534	706
555.009	703
555.484	718
555.958	727
556.433	722
556.908	730
557.383	731
557.858	752
558.333	761
558.807	755
559.282	760
559.757	787
560.232	783
560.708	772
561.183	768
561.658	777
562.133	783
562.608	769
563.083	799
563.559	776
564.034	789
564.509	782
564.985	789
565.46	783
565.936	802
566.411	802
566.887	801
567.362	800
567.838	795
568.313	809
568.789	799
569.265	800
569.74	809
570.216	808
570.692	818
571.168	815
571.644	811
572.12	808
572.596	827
573.071	834
573.547	845
574.024	854
574.5	870
574.976	878
575.452	893
575.928	897
576.404	902
576.881	923
577.357	915
577.833	920
578.31	945
578.786	962
579.262	991
579.739	970
580.215	997
580.692	981
581.169	983
581.645	990
582.122	1010
582.598	1014
583.075	1015
583.552	1025
584.029	1027
584.506	1025
584.982	1017
585.459	1041
585.936	1030
586.413	1046
586.89	1066
587.367	1046
587.844	1072
588.321	1073
588.799	1061
589.276	1053
589.753	1068
590.23	1082
590.707	1081
591.185	1077
591.662	1072
592.139	1097
592.617	1109
593.094	1109
593.572	1114
594.049	1125
594.527	1135
595.004	1144
595.482	1175
595.96	1166
596.437	1162
596.915	1199
597.393	1183
597.871	1212
598.349	1200
598.826	1219
599.304	1216
599.782	1250
600.26	1239
600.738	1262
601.216	1269
601.694	1285
602.173	1296
602.651	1299
603.129	1280
603.607	1297
604.085	1303
604.564	1303
605.042	1298
605.52	1290
605.999	1332
606.477	1303
606.956	1311
607.434	1318
607.913	1325
608.391	1321
608.87	1326
609.348	1314
609.827	1314
610.306	1320
610.785	1326
611.263	1339
611.742	1329
612.221	1312
612.7	1330
613.179	1338
613.658	1322
614.137	1342
614.616	1351
615.095	1318
615.574	1340
616.053	1361
616.532	1346
617.011	1354
617.491	1361
617.97	1372
618.449	1400
618.928	1411
619.408	1391
619.887	1405
620.367	1414
620.846	1443
621.326	1430
621.805	1466
622.285	1458
622.764	1471
623.244	1472
623.724	1486
624.203	1488
624.683	1462
625.163	1493
625.643	1492
626.123	1478
626.602	1511
627.082	1485
627.562	1486
628.042	1528
628.522	1508
629.002	1503
629.482	1508
629.963	1509
630.443	1500
630.923	1516
631.403	1525
631.883	1523
632.364	1528
632.844	1499
633.324	1524
633.805	1538
634.285	1515
634.766	1513
635.246	1509
635.727	1509
636.207	1521
636.688	1528
637.168	1539
637.649	1508
638.13	1496
638.611	1515
639.091	1518
639.572	1503
640.053	1492
640.534	1510
641.015	1513
641.496	1492
641.977	1518
642.458	1509
642.939	1511
643.42	1518
643.901	1526
644.382	1542
644.863	1533
645.345	1542
645.826	1556
646.307	1558
646.788	1588
647.27	1560
647.751	1569
648.233	1581
648.714	1544
649.196	1581
649.677	1589
650.159	1583
650.64	1566
651.122	1588
651.603	1570
652.085	1583
652.567	1593
653.049	1571
653.53	1573
654.012	1586
654.494	1570
654.976	1586
655.458	1584
655.94	1586
656.422	1619
656.904	1600
657.386	1574
657.868	1577
658.35	1573
658.833	1585
659.315	1589
659.797	1583
660.279	1584
660.762	1600
661.244	1591
661.726	1572
662.209	1572
662.691	1576
663.174	1544
663.656	1559
664.139	1561
664.621	1541
665.104	1530
665.587	1552
666.069	1558
666.552	1548
667.035	1541
667.517	1545
668	1565
668.483	1560
668.966	1551
669.449	1547
669.932	1545
670.415	1556
670.898	1544
671.381	1564
671.864	1577
672.347	1561
672.83	1562
673.313	1561
673.797	1563
674.28	1594
674.763	1603
675.247	1616
675.73	1613
676.213	1630
676.697	1655
677.18	1646
677.664	1652
678.147	1650
678.631	1651
679.114	1654
679.598	1644
680.082	1664
680.565	1667
681.049	1659
681.533	1665
682.017	1676
682.5	1667
682.984	1685
683.468	1680
683.952	1649
684.436	1677
684.92	1670
685.404	1683
685.888	1698
686.372	1685
686.856	1701
687.341	1732
687.825	1711
688.309	1720
688.793	1717
689.278	1694
689.762	1715
690.246	1702
690.731	1713
691.215	1723
691.7	1679
692.184	1690
692.669	1698
693.153	1725
693.638	1707
694.122	1701
694.607	1697
695.092	1684
695.577	1715
696.061	1684
696.546	1666
697.031	1646
697.516	1659
698.001	1668
698.486	1656
698.971	1688
699.456	1648
699.941	1654
700.426	1658
700.911	1670
701.396	1652
701.881	1681
702.366	1678
702.852	1673
703.337	1684
703.822	1685
704.308	1690
704.793	1707
705.278	1704
705.764	1714
706.249	1701
706.735	1697
707.22	1717
707.706	1684
708.191	1721
708.677	1726
709.163	1708
709.648	1721
710.134	1738
710.62	1721
711.106	1725
711.592	1746
712.077	1735
712.563	1698
713.049	1684
713.535	1726
714.021	1724
714.507	1717
714.993	1706
715.479	1715
715.966	1699
716.452	1701
716.938	1702
717.424	1655
717.91	1697
718.397	1689
718.883	1680
719.369	1681
719.856	1668
720.342	1699
720.829	1687
721.315	1699
721.802	1694
722.288	1704
722.775	1633
723.262	1592
723.748	1667
724.235	1673
724.722	1701
725.208	1670
725.695	1667
726.182	1649
726.669	1630
727.156	1637
727.643	1619
728.13	1609
728.617	1595
729.104	1593
729.591	1580
730.078	1591
730.565	1600
731.052	1569
731.539	1575
732.027	1574
732.514	1559
733.001	1581
733.488	1569
733.976	1550
734.463	1547
734.951	1544
735.438	1562
735.926	1559
736.413	1586
736.901	1568
737.388	1592
737.876	1602
738.364	1592
738.851	1598
739.339	1589
739.827	1597
740.314	1552
740.802	1574
741.29	1584
741.778	1566
742.266	1577
742.754	1583
743.242	1592
743.73	1547
744.218	1541
744.706	1527
745.194	1544
745.682	1532
746.17	1545
746.659	1543
747.147	1504
747.635	1513
748.123	1512
748.612	1495
749.1	1500
749.589	1510
750.077	1496
750.566	1482
751.054	1488
751.543	1491
752.031	1473
752.52	1480
753.008	1450
753.497	1457
753.986	1445
754.474	1442
754.963	1455
755.452	1439
755.941	1438
756.43	1429
756.919	1427
757.408	1418
757.896	1429
758.385	1443
758.875	1424
759.364	1408
759.853	1403
760.342	1382
760.831	1411
761.32	1395
761.809	1362
762.299	1374
762.788	1378
763.277	1368
763.767	1351
764.256	1359
764.745	1338
765.235	1361
765.724	1319
766.214	1338
766.703	1324
767.193	1319
767.683	1324
768.172	1296
768.662	1314
769.152	1305
769.641	1304
770.131	1274
770.621	1290
771.111	1271
771.601	1277
772.09	1270
772.58	1257
773.07	1265
773.56	1276
774.05	1263
774.54	1263
775.031	1254
775.521	1251
776.011	1242
776.501	1252
776.991	1230
777.482	1238
777.972	1210
778.462	1202
778.953	1212
779.443	1201
779.933	1196
780.424	1181
780.914	1184
781.405	1189
781.895	1176
782.386	1183
782.877	1183
783.367	1153
783.858	1140
784.349	1142
784.839	1132
785.33	1142
785.821	1141
786.312	1128
786.803	1130
787.293	1139
787.784	1114
788.275	1100
788.766	1090
789.257	1116
789.748	1099
790.24	1095
790.731	1102
791.222	1086
791.713	1085
792.204	1088
792.696	1061
793.187	1072
793.678	1064
794.169	1039
794.661	1049
795.152	1039
795.644	1034
796.135	1031
796.627	1041
797.118	1025
797.61	1017
798.101	1003
798.593	1002
799.085	994
799.576	1003
800.068	985
800.56	993
801.052	966
801.544	960
802.035	970
802.527	941
803.019	939
803.511	930
804.003	927
804.495	938
804.987	928
805.479	900
805.971	916
806.464	917
806.956	894
807.448	899
807.94	901
808.433	896
808.925	890
809.417	882
809.91	877
810.402	850
810.894	856
811.387	859
811.879	840
812.372	858
812.865	839
813.357	843
813.85	836
814.342	835
814.835	833
815.328	825
815.821	817
816.313	821
816.806	825
817.299	819
817.792	822
818.285	817
818.778	832
819.271	826
819.764	813
820.257	814
820.75	817
821.243	812
821.736	803
822.229	806
822.722	804
823.216	824
