Data from lamp5helium_zwak_Subt4__26__181.txt Node

Date: Wed Apr 09 10:14:03 CEST 2025
User: fys-lab-0081
Spectrometer: S04999
Trigger mode: 0
Resolution mode: 1024 pixels
Integration Time (sec): 1.000000E-1
Scans to average: 1
Nonlinearity correction enabled: false
Boxcar width: 0
Baseline correction enabled: true
XAxis mode: Wavelengths
Number of Pixels in Spectrum: 1024
>>>>>Begin Spectral Data<<<<<
336.42	2
336.877	-2
337.334	5
337.792	-1
338.249	5
338.706	0
339.164	-1
339.621	-2
340.079	-4
340.536	8
340.994	5
341.452	-2
341.909	4
342.367	0
342.825	1
343.283	0
343.741	-2
344.198	1
344.656	1
345.114	-2
345.572	-1
346.03	6
346.488	2
346.947	-1
347.405	-2
347.863	3
348.321	5
348.779	1
349.238	1
349.696	-3
350.154	1
350.613	-1
351.071	3
351.53	-2
351.988	0
352.447	6
352.905	-1
353.364	-1
353.823	3
354.282	1
354.74	-2
355.199	1
355.658	2
356.117	-1
356.576	7
357.035	0
357.494	0
357.953	6
358.412	6
358.871	-3
359.33	3
359.789	3
360.249	-2
360.708	5
361.167	-1
361.626	-1
362.086	1
362.545	2
363.005	0
363.464	-2
363.924	-1
364.383	5
364.843	1
365.303	6
365.762	0
366.222	-3
366.682	5
367.142	6
367.601	1
368.061	0
368.521	5
368.981	0
369.441	4
369.901	5
370.361	3
370.821	1
371.282	8
371.742	1
372.202	-1
372.662	5
373.123	7
373.583	1
374.043	1
374.504	-4
374.964	4
375.425	4
375.885	6
376.346	4
376.806	1
377.267	7
377.728	7
378.188	3
378.649	0
379.11	5
379.571	6
380.032	3
380.493	2
380.954	8
381.414	4
381.876	3
382.337	9
382.798	7
383.259	10
383.72	3
384.181	8
384.642	4
385.104	9
385.565	17
386.026	9
386.488	4
386.949	10
387.411	10
387.872	4
388.334	12
388.795	8
389.257	13
389.719	13
390.181	7
390.642	11
391.104	10
391.566	7
392.028	15
392.49	7
392.952	12
393.414	11
393.876	10
394.338	9
394.8	10
395.262	7
395.724	7
396.186	12
396.648	16
397.111	13
397.573	12
398.035	11
398.498	13
398.96	8
399.423	15
399.885	16
400.348	16
400.81	20
401.273	12
401.736	15
402.198	17
402.661	16
403.124	13
403.587	16
404.049	16.5
404.512	17
404.975	15
405.438	15
405.901	15
406.364	16
406.827	16
407.29	18
407.754	15
408.217	17
408.68	11
409.143	16
409.607	19
410.07	21
410.533	18
410.997	17
411.46	12
411.924	17
412.387	21
412.851	23
413.314	21
413.778	17
414.242	22
414.705	20
415.169	22
415.633	17
416.097	25
416.561	26
417.024	27
417.488	28
417.952	25
418.416	32
418.88	25
419.344	23
419.809	25
420.273	26
420.737	24
421.201	16
421.665	27
422.13	26
422.594	27
423.059	30
423.523	26
423.987	30
424.452	29
424.916	35
425.381	27
425.846	28
426.31	33
426.775	29
427.24	33
427.704	31
428.169	37
428.634	35
429.099	29
429.564	34
430.029	34
430.494	36
430.959	35
431.424	30
431.889	32
432.354	35
432.819	34
433.284	35
433.75	34
434.215	40
434.68	42
435.146	42
435.611	45
436.077	40
436.542	44
437.008	46
437.473	48
437.939	49
438.404	50
438.87	49
439.336	49
439.801	47
440.267	48
440.733	53
441.199	55
441.665	54
442.131	52
442.596	53
443.062	50
443.529	58
443.995	55
444.461	55
444.927	64
445.393	61
445.859	65
446.325	66
446.792	70
447.258	72
447.724	73
448.191	76
448.657	74
449.124	80
449.59	78
450.057	81
450.523	84
450.99	82
451.457	84
451.923	86
452.39	82
452.857	89
453.324	84
453.791	90
454.257	88
454.724	92
455.191	89
455.658	81
456.125	93
456.592	94
457.059	97
457.527	94
457.994	99
458.461	96
458.928	107
459.396	101
459.863	106
460.33	105
460.798	104
461.265	106
461.732	106
462.2	109
462.668	112
463.135	108
463.603	112
464.07	104
464.538	110
465.006	118
465.474	109
465.941	108
466.409	112
466.877	115
467.345	120
467.813	113
468.281	114
468.749	113
469.217	111
469.685	117
470.153	118
470.621	119
471.09	119
471.558	125
472.026	129
472.494	125
472.963	127
473.431	139
473.9	136
474.368	143
474.837	144
475.305	147
475.774	156
476.242	163
476.711	152
477.18	159
477.648	161
478.117	159
478.586	162
479.055	155
479.524	166
479.993	167
480.462	158
480.93	162
481.399	160
481.869	165
482.338	168
482.807	162
483.276	168
483.745	171
484.214	169
484.684	178
485.153	173
485.622	170
486.092	177
486.561	179
487.031	179
487.5	185
487.97	195
488.439	197
488.909	206
489.378	208
489.848	210
490.318	216
490.787	219
491.257	230
491.727	227
492.197	235
492.667	227
493.137	233
493.607	236
494.077	242
494.547	233
495.017	240
495.487	241
495.957	248
496.427	246
496.897	244
497.368	247
497.838	249
498.308	254
498.779	252
499.249	257
499.719	254
500.19	264
500.66	265
501.131	271
501.602	266
502.072	269
502.543	276
503.014	285
503.484	284
503.955	296
504.426	307
504.897	311
505.368	315
505.838	314
506.309	327
506.78	340
507.251	345
507.722	350
508.194	357
508.665	366
509.136	368
509.607	376
510.078	385
510.549	389
511.021	402
511.492	403
511.964	409
512.435	410
512.906	412
513.378	416
513.849	420
514.321	425
514.793	424
515.264	433
515.736	434
516.208	447
516.679	453
517.151	453
517.623	459
518.095	465
518.567	473
519.038	482
519.51	483
519.982	495
520.454	499
520.927	503
521.399	506
521.871	526
522.343	528
522.815	526
523.287	524
523.76	530
524.232	541
524.704	540
525.177	538
525.649	536
526.122	548
526.594	539
527.067	556
527.539	564
528.012	558
528.484	561
528.957	571
529.43	566
529.903	560
530.375	578
530.848	574
531.321	580
531.794	574
532.267	589
532.74	586
533.213	584
533.686	602
534.159	587
534.632	606
535.105	614
535.578	613
536.051	618
536.525	626
536.998	632
537.471	648
537.945	640
538.418	655
538.891	652
539.365	664
539.838	671
540.312	670
540.786	680
541.259	677
541.733	672
542.206	678
542.68	680
543.154	672
543.628	678
544.101	700
544.575	695
545.049	681
545.523	684
545.997	693
546.471	702
546.945	694
547.419	709
547.893	684
548.367	693
548.842	692
549.316	694
549.79	704
550.264	690
550.739	701
551.213	698
551.687	701
552.162	710
552.636	706
553.111	706
553.585	733
554.06	711
554.534	722
555.009	726
555.484	746
555.958	750
556.433	753
556.908	759
557.383	752
557.858	781
558.333	790
558.807	781
559.282	788
559.757	810
560.232	814
560.708	797
561.183	793
561.658	809
562.133	807
562.608	797
563.083	824
563.559	802
564.034	817
564.509	810
564.985	811
565.46	807
565.936	834
566.411	832
566.887	826
567.362	828
567.838	822
568.313	828
568.789	826
569.265	824
569.74	835
570.216	827
570.692	842
571.168	842
571.644	840
572.12	838
572.596	857
573.071	861
573.547	873
574.024	884
574.5	899
574.976	908
575.452	923
575.928	928
576.404	929
576.881	956
577.357	943
577.833	952
578.31	979
578.786	992
579.262	1014
579.739	1002
580.215	1026
580.692	1015
581.169	1020
581.645	1009
582.122	1046
582.598	1046
583.075	1043
583.552	1059
584.029	1054
584.506	1056
584.982	1047
585.459	1066
585.936	1062
586.413	1076
586.89	1101
587.367	1088
587.844	1111
588.321	1101
588.799	1102
589.276	1084
589.753	1099
590.23	1116
590.707	1113
591.185	1111
591.662	1109
592.139	1125
592.617	1147
593.094	1151
593.572	1147
594.049	1156
594.527	1174
595.004	1178
595.482	1214
595.96	1194
596.437	1202
596.915	1239
597.393	1222
597.871	1254
598.349	1233
598.826	1260
599.304	1258
599.782	1288
600.26	1274
600.738	1300
601.216	1299
601.694	1322
602.173	1339
602.651	1339
603.129	1321
603.607	1339
604.085	1341
604.564	1335
605.042	1340
605.52	1336
605.999	1375
606.477	1340
606.956	1348
607.434	1358.5
607.913	1369
608.391	1367
608.87	1373
609.348	1351
609.827	1358
610.306	1359
610.785	1374
611.263	1380
611.742	1370
612.221	1353
612.7	1363
613.179	1380
613.658	1363
614.137	1379
614.616	1387
615.095	1365
615.574	1384
616.053	1405
616.532	1388
617.011	1403
617.491	1408
617.97	1417
618.449	1436
618.928	1458
619.408	1433
619.887	1452
620.367	1459
620.846	1489
621.326	1474
621.805	1510
622.285	1506
622.764	1519
623.244	1516
623.724	1535
624.203	1537
624.683	1508
625.163	1537
625.643	1543
626.123	1532
626.602	1557
627.082	1525
627.562	1533
628.042	1574
628.522	1557
629.002	1546
629.482	1551
629.963	1552
630.443	1546
630.923	1551
631.403	1567
631.883	1568
632.364	1580
632.844	1550
633.324	1569
633.805	1574
634.285	1559
634.766	1556
635.246	1562
635.727	1557
636.207	1564
636.688	1576
637.168	1581
637.649	1557
638.13	1541
638.611	1553
639.091	1558
639.572	1548
640.053	1539
640.534	1560
641.015	1552
641.496	1536
641.977	1566
642.458	1547
642.939	1552
643.42	1558
643.901	1574
644.382	1592
644.863	1578
645.345	1598
645.826	1595
646.307	1608
646.788	1635
647.27	1611
647.751	1621
648.233	1625
648.714	1587
649.196	1632
649.677	1623
650.159	1635
650.64	1613
651.122	1636
651.603	1609
652.085	1630
652.567	1637
653.049	1619
653.53	1614
654.012	1634
654.494	1611
654.976	1632
655.458	1632
655.94	1636
656.422	1665
656.904	1642
657.386	1624
657.868	1628
658.35	1625
658.833	1632
659.315	1639
659.797	1625
660.279	1632
660.762	1647
661.244	1635
661.726	1620
662.209	1621
662.691	1615
663.174	1596
663.656	1604
664.139	1598
664.621	1593
665.104	1568
665.587	1596
666.069	1599
666.552	1595
667.035	1580
667.517	1589
668	1612
668.483	1607
668.966	1597
669.449	1590
669.932	1597
670.415	1601
670.898	1595
671.381	1608
671.864	1615
672.347	1605
672.83	1601
673.313	1601
673.797	1606
674.28	1640
674.763	1647
675.247	1669
675.73	1656
676.213	1683
676.697	1697
677.18	1697
677.664	1702
678.147	1702
678.631	1699
679.114	1703
679.598	1702
680.082	1718
680.565	1720
681.049	1705
681.533	1702
682.017	1727
682.5	1719
682.984	1731
683.468	1727
683.952	1691
684.436	1729
684.92	1717
685.404	1726
685.888	1740
686.372	1737
686.856	1746
687.341	1781
687.825	1761
688.309	1765
688.793	1761
689.278	1738
689.762	1760
690.246	1752
690.731	1752
691.215	1768
691.7	1721
692.184	1744
692.669	1751
693.153	1775
693.638	1749
694.122	1749
694.607	1744
695.092	1732
695.577	1756
696.061	1720
696.546	1714
697.031	1690
697.516	1706
698.001	1709
698.486	1705
698.971	1732
699.456	1688
699.941	1698
700.426	1699
700.911	1720
701.396	1705
701.881	1721
702.366	1725
702.852	1728
703.337	1725
703.822	1730
704.308	1739
704.793	1749
705.278	1753
705.764	1764
706.249	1745
706.735	1739
707.22	1764
707.706	1734
708.191	1765
708.677	1768
709.163	1758
709.648	1770
710.134	1787
710.62	1767
711.106	1769
711.592	1786
712.077	1785
712.563	1741
713.049	1739
713.535	1767
714.021	1763
714.507	1763
714.993	1744
715.479	1768
715.966	1747
716.452	1753
716.938	1744
717.424	1700
717.91	1746
718.397	1737
718.883	1727
719.369	1725
719.856	1709
720.342	1746
720.829	1728
721.315	1744
721.802	1736
722.288	1748
722.775	1681
723.262	1632
723.748	1703
724.235	1710
724.722	1749
725.208	1714
725.695	1723
726.182	1700
726.669	1662
727.156	1684
727.643	1669
728.13	1659
728.617	1637
729.104	1639
729.591	1624
730.078	1633
730.565	1633
731.052	1603
731.539	1616
732.027	1609
732.514	1601
733.001	1622
733.488	1611
733.976	1599
734.463	1591
734.951	1578
735.438	1606
735.926	1597
736.413	1616
736.901	1604
737.388	1636
737.876	1641
738.364	1641
738.851	1643
739.339	1627
739.827	1643
740.314	1594
740.802	1612
741.29	1629
741.778	1614
742.266	1618
742.754	1619
743.242	1641
743.73	1590
744.218	1586
744.706	1564
745.194	1583
745.682	1579
746.17	1571
746.659	1582
747.147	1539
747.635	1552
748.123	1550
748.612	1541
749.1	1537
749.589	1552
750.077	1533
750.566	1528
751.054	1528
751.543	1530
752.031	1509
752.52	1513
753.008	1486
753.497	1492
753.986	1486
754.474	1478
754.963	1493
755.452	1473
755.941	1473
756.43	1469
756.919	1463
757.408	1456
757.896	1470
758.385	1476
758.875	1457
759.364	1441
759.853	1437
760.342	1419
760.831	1445
761.32	1429
761.809	1405
762.299	1406
762.788	1416
763.277	1413
763.767	1391
764.256	1395
764.745	1367
765.235	1396
765.724	1359
766.214	1374
766.703	1363
767.193	1354
767.683	1359
768.172	1334
768.662	1345
769.152	1335
769.641	1336
770.131	1304
770.621	1326
771.111	1303
771.601	1300
772.09	1298
772.58	1287
773.07	1291
773.56	1308
774.05	1294
774.54	1293
775.031	1284
775.521	1280
776.011	1265
776.501	1283
776.991	1264
777.482	1270
777.972	1242
778.462	1232
778.953	1243
779.443	1232
779.933	1225
780.424	1211
780.914	1216
781.405	1214
781.895	1209
782.386	1211
782.877	1213
783.367	1185
783.858	1173
784.349	1168
784.839	1158
785.33	1169
785.821	1167
786.312	1156
786.803	1162
787.293	1161
787.784	1144
788.275	1126
788.766	1114
789.257	1144
789.748	1124
790.24	1117
790.731	1130
791.222	1114
791.713	1111
792.204	1117
792.696	1086
793.187	1100
793.678	1091
794.169	1064
794.661	1080
795.152	1064
795.644	1054
796.135	1059
796.627	1069
797.118	1052
797.61	1039
798.101	1024
798.593	1029
799.085	1020
799.576	1028
800.068	1009
800.56	1014
801.052	990
801.544	985
802.035	986
802.527	969
803.019	960
803.511	956
804.003	952
804.495	956
804.987	944
805.479	920
805.971	939
806.464	931
806.956	919
807.448	915
807.94	918
808.433	920
808.925	915
809.417	903
809.91	899
810.402	869
810.894	873
811.387	876
811.879	859
812.372	871
812.865	862
813.357	867
813.85	857
814.342	858
814.835	853
815.328	848
815.821	840
816.313	843
816.806	847
817.299	839
817.792	843
818.285	839
818.778	850
819.271	846
819.764	837
820.257	828
820.75	835
821.243	822
821.736	817
822.229	828
822.722	822
823.216	840
