Data from lamp5bck_noballon_Subt4__87__442.txt Node

Date: Wed Apr 09 10:17:04 CEST 2025
User: fys-lab-0081
Spectrometer: S04999
Trigger mode: 0
Resolution mode: 1024 pixels
Integration Time (sec): 1.000000E-1
Scans to average: 1
Nonlinearity correction enabled: false
Boxcar width: 0
Baseline correction enabled: true
XAxis mode: Wavelengths
Number of Pixels in Spectrum: 1024
>>>>>Begin Spectral Data<<<<<
336.42	2
336.877	-2
337.334	0
337.792	1
338.249	3
338.706	2
339.164	-2
339.621	-1
340.079	4
340.536	8
340.994	5
341.452	0
341.909	3
342.367	0
342.825	-2
343.283	1
343.741	-1
344.198	0
344.656	-1
345.114	1
345.572	5
346.03	1
346.488	4
346.947	-1
347.405	2
347.863	0
348.321	3
348.779	1
349.238	3
349.696	4
350.154	2
350.613	1
351.071	0
351.53	3
351.988	2
352.447	1
352.905	-1
353.364	-3
353.823	4
354.282	4
354.74	-3
355.199	10
355.658	3
356.117	1
356.576	8
357.035	4
357.494	5
357.953	7
358.412	10
358.871	-5
359.33	1
359.789	7
360.249	3
360.708	7
361.167	3
361.626	5
362.086	4
362.545	8
363.005	8
363.464	2
363.924	3
364.383	8
364.843	6
365.303	10
365.762	10
366.222	1
366.682	9
367.142	10
367.601	6
368.061	6
368.521	8
368.981	11
369.441	6
369.901	13
370.361	8
370.821	5
371.282	14
371.742	8
372.202	7
372.662	13
373.123	6
373.583	8
374.043	8
374.504	9
374.964	7
375.425	6
375.885	10
376.346	12
376.806	6
377.267	15
377.728	18
378.188	13
378.649	14
379.11	11
379.571	9
380.032	9
380.493	9
380.954	15
381.414	15
381.876	14
382.337	15
382.798	17
383.259	19
383.72	15
384.181	19
384.642	13
385.104	22
385.565	28
386.026	21
386.488	17
386.949	24
387.411	20
387.872	18
388.334	23
388.795	23
389.257	27
389.719	28
390.181	22
390.642	29
391.104	24
391.566	24
392.028	34
392.49	28
392.952	32
393.414	37
393.876	27
394.338	29
394.8	26
395.262	34
395.724	32
396.186	34
396.648	33
397.111	35
397.573	37
398.035	37
398.498	36
398.96	36
399.423	33
399.885	37
400.348	39
400.81	46
401.273	37
401.736	46
402.198	43
402.661	48
403.124	43
403.587	50
404.049	48.5
404.512	47
404.975	51
405.438	45
405.901	48
406.364	55
406.827	50
407.29	58
407.754	56
408.217	54
408.68	50
409.143	53
409.607	59
410.07	57
410.533	57
410.997	58
411.46	54
411.924	63
412.387	63
412.851	61
413.314	63
413.778	62
414.242	69
414.705	66
415.169	70
415.633	68
416.097	69
416.561	73
417.024	69
417.488	69
417.952	76
418.416	78
418.88	71
419.344	75
419.809	70
420.273	76
420.737	76
421.201	67
421.665	77
422.13	78
422.594	84
423.059	84
423.523	85
423.987	85
424.452	84
424.916	92
425.381	96
425.846	95
426.31	97
426.775	93
427.24	103
427.704	92
428.169	101
428.634	100
429.099	97
429.564	99
430.029	101
430.494	100
430.959	105
431.424	100
431.889	103
432.354	109
432.819	107
433.284	110
433.75	110
434.215	119
434.68	121
435.146	118
435.611	123
436.077	134
436.542	131
437.008	135
437.473	136
437.939	135
438.404	144
438.87	144
439.336	143
439.801	142
440.267	144
440.733	153
441.199	157
441.665	148
442.131	158
442.596	155
443.062	153
443.529	169
443.995	169
444.461	169
444.927	186
445.393	185
445.859	189
446.325	191
446.792	209
447.258	207
447.724	214
448.191	219
448.657	219
449.124	233
449.59	224
450.057	247
450.523	237
450.99	244
451.457	244
451.923	251
452.39	249
452.857	253
453.324	251
453.791	260
454.257	262
454.724	263
455.191	268
455.658	261
456.125	279
456.592	270
457.059	273
457.527	278
457.994	291
458.461	292
458.928	297
459.396	298
459.863	304
460.33	303
460.798	310
461.265	311
461.732	312
462.2	315
462.668	313
463.135	329
463.603	313
464.07	318
464.538	315
465.006	331
465.474	322
465.941	324
466.409	323
466.877	321
467.345	335
467.813	331
468.281	332
468.749	332
469.217	335
469.685	342
470.153	347
470.621	344
471.09	352
471.558	363
472.026	367
472.494	378
472.963	385
473.431	392
473.9	406
474.368	417
474.837	421
475.305	425
475.774	443
476.242	454
476.711	448
477.18	464
477.648	466
478.117	466
478.586	463
479.055	461
479.524	472
479.993	469
480.462	466
480.93	472
481.399	471
481.869	476
482.338	472
482.807	482
483.276	478
483.745	489
484.214	498
484.684	500
485.153	507
485.622	508
486.092	528
486.561	520
487.031	531
487.5	544
487.97	553
488.439	572
488.909	590
489.378	607
489.848	608
490.318	627
490.787	644
491.257	660
491.727	657
492.197	674
492.667	668
493.137	676
493.607	683
494.077	692
494.547	688
495.017	689
495.487	697
495.957	714
496.427	694
496.897	701
497.368	710
497.838	710
498.308	723
498.779	733
499.249	736
499.719	746
500.19	754
500.66	758
501.131	763
501.602	780
502.072	772
502.543	785
503.014	823
503.484	817
503.955	840
504.426	879
504.897	887
505.368	903
505.838	914
506.309	936
506.78	976
507.251	994
507.722	1007
508.194	1027
508.665	1046
509.136	1045
509.607	1082
510.078	1097
510.549	1102
511.021	1130
511.492	1123
511.964	1149
512.435	1168
512.906	1156
513.378	1177
513.849	1193
514.321	1206
514.793	1212
515.264	1234
515.736	1243
516.208	1266
516.679	1275
517.151	1285
517.623	1295
518.095	1322
518.567	1336
519.038	1359
519.51	1353
519.982	1384
520.454	1406
520.927	1418
521.399	1445
521.871	1460
522.343	1469
522.815	1482
523.287	1484
523.76	1499
524.232	1517
524.704	1538
525.177	1513
525.649	1528
526.122	1536
526.594	1505
527.067	1552
527.539	1567
528.012	1554
528.484	1555
528.957	1560
529.43	1562
529.903	1553
530.375	1614
530.848	1585
531.321	1603
531.794	1596
532.267	1632
532.74	1613
533.213	1618
533.686	1655
534.159	1641
534.632	1684
535.105	1697
535.578	1729
536.051	1735
536.525	1746
536.998	1749
537.471	1790
537.945	1759
538.418	1808
538.891	1817
539.365	1825
539.838	1843
540.312	1840
540.786	1862
541.259	1850
541.733	1869
542.206	1876
542.68	1856
543.154	1856
543.628	1864
544.101	1922
544.575	1901
545.049	1846
545.523	1888
545.997	1887
546.471	1906
546.945	1880
547.419	1908
547.893	1845
548.367	1889
548.842	1884
549.316	1884
549.79	1905
550.264	1890
550.739	1915
551.213	1914
551.687	1915
552.162	1942
552.636	1925
553.111	1918
553.585	1970
554.06	1952
554.534	1987
555.009	1971
555.484	2006
555.958	2047
556.433	2054
556.908	2076
557.383	2050
557.858	2106
558.333	2119
558.807	2107
559.282	2120
559.757	2186
560.232	2203
560.708	2176
561.183	2153
561.658	2186
562.133	2190
562.608	2167
563.083	2223
563.559	2165
564.034	2185
564.509	2192
564.985	2196
565.46	2176
565.936	2221
566.411	2227
566.887	2201
567.362	2217
567.838	2220
568.313	2244
568.789	2209
569.265	2205
569.74	2231
570.216	2224
570.692	2266
571.168	2264
571.644	2245
572.12	2252
572.596	2273
573.071	2282
573.547	2354
574.024	2378
574.5	2413
574.976	2432
575.452	2454
575.928	2473
576.404	2486
576.881	2576
577.357	2535
577.833	2547
578.31	2611
578.786	2657
579.262	2705
579.739	2661
580.215	2732
580.692	2715
581.169	2720
581.645	2720
582.122	2795
582.598	2795
583.075	2798
583.552	2827
584.029	2817
584.506	2805
584.982	2782
585.459	2827
585.936	2812
586.413	2840
586.89	2884
587.367	2863
587.844	2942
588.321	2921
588.799	2919
589.276	2882
589.753	2922
590.23	2949
590.707	2943
591.185	2939
591.662	2942
592.139	2989
592.617	3043
593.094	3030
593.572	3038
594.049	3078
594.527	3115
595.004	3137
595.482	3208
595.96	3180
596.437	3196
596.915	3283
597.393	3232
597.871	3297
598.349	3257
598.826	3337
599.304	3335
599.782	3407
600.26	3370
600.738	3462
601.216	3463
601.694	3491
602.173	3511
602.651	3508
603.129	3445
603.607	3495
604.085	3511
604.564	3506
605.042	3512
605.52	3498
605.999	3593
606.477	3509
606.956	3529
607.434	3571
607.913	3613
608.391	3597
608.87	3568
609.348	3530
609.827	3556
610.306	3581
610.785	3610
611.263	3614
611.742	3570
612.221	3531
612.7	3570
613.179	3598
613.658	3557
614.137	3629
614.616	3647
615.095	3586
615.574	3653
616.053	3696
616.532	3652
617.011	3662
617.491	3686
617.97	3695
618.449	3759
618.928	3791
619.408	3752
619.887	3792
620.367	3817
620.846	3878
621.326	3855
621.805	3927
622.285	3918
622.764	3953
623.244	3960
623.724	4011
624.203	4021
624.683	3943
625.163	4029
625.643	4021
626.123	3987
626.602	4084
627.082	4017
627.562	4016
628.042	4106
628.522	4052
629.002	4025
629.482	4038
629.963	4041
630.443	4013
630.923	4022
631.403	4054
631.883	4053
632.364	4059
632.844	4024
633.324	4060
633.805	4089
634.285	4033
634.766	4016
635.246	4009
635.727	4013
636.207	4029
636.688	4049
637.168	4045
637.649	4010
638.13	3994
638.611	4035
639.091	4026
639.572	3991
640.053	3978
640.534	4017
641.015	4008
641.496	3959
641.977	4040
642.458	4003
642.939	4023
643.42	4027
643.901	4034
644.382	4083
644.863	4082
645.345	4080
645.826	4083
646.307	4091
646.788	4166
647.27	4087
647.751	4089
648.233	4115
648.714	4030
649.196	4155
649.677	4146
650.159	4146
650.64	4094
651.122	4157
651.603	4116
652.085	4170
652.567	4181
653.049	4133
653.53	4129
654.012	4193
654.494	4117
654.976	4172
655.458	4144
655.94	4140
656.422	4214
656.904	4155
657.386	4113
657.868	4126
658.35	4106
658.833	4134
659.315	4157
659.797	4100
660.279	4100
660.762	4143
661.244	4089
661.726	4035
662.209	4033
662.691	4035
663.174	3967
663.656	4006
664.139	3997
664.621	3953
665.104	3924
665.587	3986
666.069	4026
666.552	4038
667.035	3988
667.517	3998
668	4040
668.483	4036
668.966	4003
669.449	3979
669.932	3986
670.415	4018
670.898	3992
671.381	4021
671.864	4036
672.347	4016
672.83	4001
673.313	4012
673.797	3975
674.28	4059
674.763	4106
675.247	4141
675.73	4115
676.213	4128
676.697	4144
677.18	4144
677.664	4174
678.147	4171
678.631	4189
679.114	4209
679.598	4200
680.082	4246
680.565	4244
681.049	4234
681.533	4231
682.017	4245
682.5	4238
682.984	4258
683.468	4252
683.952	4179
684.436	4272
684.92	4234
685.404	4255
685.888	4303
686.372	4281
686.856	4303
687.341	4348
687.825	4290
688.309	4297
688.793	4272
689.278	4224
689.762	4272
690.246	4255
690.731	4272
691.215	4284
691.7	4173
692.184	4220
692.669	4201
693.153	4245
693.638	4193
694.122	4178
694.607	4205
695.092	4137
695.577	4182
696.061	4109
696.546	4116
697.031	4104
697.516	4135
698.001	4135
698.486	4123
698.971	4196
699.456	4116
699.941	4107
700.426	4103
700.911	4142
701.396	4138
701.881	4171
702.366	4169
702.852	4143
703.337	4172
703.822	4144
704.308	4153
704.793	4176
705.278	4189
705.764	4216
706.249	4183
706.735	4141
707.22	4165
707.706	4094
708.191	4189
708.677	4218
709.163	4166
709.648	4203
710.134	4258
710.62	4209
711.106	4217
711.592	4286
712.077	4264
712.563	4144
713.049	4135
713.535	4216
714.021	4198
714.507	4191
714.993	4155
715.479	4215
715.966	4152
716.452	4155
716.938	4158
717.424	4038
717.91	4124
718.397	4095
718.883	4083
719.369	4107
719.856	4066
720.342	4116
720.829	4056
721.315	4083
721.802	4053
722.288	4080
722.775	3916
723.262	3808
723.748	3964
724.235	3960
724.722	4037
725.208	3983
725.695	3986
726.182	3953
726.669	3880
727.156	3893
727.643	3839
728.13	3828
728.617	3787
729.104	3795
729.591	3778
730.078	3808
730.565	3833
731.052	3774
731.539	3790
732.027	3760
732.514	3709
733.001	3745
733.488	3735
733.976	3717
734.463	3706
734.951	3700
735.438	3739
735.926	3711
736.413	3746
736.901	3716
737.388	3770
737.876	3771
738.364	3732
738.851	3744
739.339	3734
739.827	3769
740.314	3652
740.802	3682
741.29	3710
741.778	3645
742.266	3653
742.754	3667
743.242	3703
743.73	3625
744.218	3604
744.706	3556
745.194	3589
745.682	3564
746.17	3582
746.659	3605
747.147	3524
747.635	3538
748.123	3528
748.612	3490
749.1	3483
749.589	3520
750.077	3489
750.566	3476
751.054	3491
751.543	3500
752.031	3440
752.52	3427
753.008	3357
753.497	3361
753.986	3337
754.474	3335
754.963	3372
755.452	3328
755.941	3310
756.43	3307
756.919	3299
757.408	3283
757.896	3302
758.385	3311
758.875	3272
759.364	3228
759.853	3195
760.342	3140
760.831	3198
761.32	3167
761.809	3113
762.299	3125
762.788	3147
763.277	3137
763.767	3095
764.256	3091
764.745	3038
765.235	3077
765.724	2982
766.214	3031
766.703	3013
767.193	2987
767.683	2995
768.172	2942
768.662	2969
769.152	2940
769.641	2958
770.131	2887
770.621	2931
771.111	2879
771.601	2866
772.09	2829
772.58	2796
773.07	2811
773.56	2849
774.05	2810
774.54	2814
775.031	2802
775.521	2777
776.011	2758
776.501	2771
776.991	2714
777.482	2746
777.972	2677
778.462	2674
778.953	2700
779.443	2683
779.933	2679
780.424	2637
780.914	2667
781.405	2685
781.895	2662
782.386	2651
782.877	2629
783.367	2580
783.858	2555
784.349	2550
784.839	2529
785.33	2527
785.821	2529
786.312	2511
786.803	2528
787.293	2531
787.784	2486
788.275	2442
788.766	2420
789.257	2460
789.748	2417
790.24	2393
790.731	2418
791.222	2374
791.713	2351
792.204	2373
792.696	2307
793.187	2336
793.678	2314
794.169	2241
794.661	2272
795.152	2245
795.644	2233
796.135	2225
796.627	2250
797.118	2205
797.61	2196
798.101	2168
798.593	2190
799.085	2159
799.576	2172
800.068	2130
800.56	2125
801.052	2068
801.544	2075
802.035	2082
802.527	2056
803.019	2030
803.511	2010
804.003	1996
804.495	2004
804.987	1982
805.479	1939
805.971	1963
806.464	1968
806.956	1915
807.448	1921
807.94	1916
808.433	1895
808.925	1899
809.417	1879
809.91	1872
810.402	1811
810.894	1817
811.387	1832
811.879	1804
812.372	1820
812.865	1790
813.357	1800
813.85	1782
814.342	1769
814.835	1772
815.328	1766
815.821	1741
816.313	1729
816.806	1739
817.299	1711
817.792	1716
818.285	1695
818.778	1716
819.271	1728
819.764	1697
820.257	1703
820.75	1716
821.243	1710
821.736	1688
822.229	1706
822.722	1699
823.216	1737
