Data from lamp5bck_noballon_Subt4__48__403.txt Node

Date: Wed Apr 09 10:16:59 CEST 2025
User: fys-lab-0081
Spectrometer: S04999
Trigger mode: 0
Resolution mode: 1024 pixels
Integration Time (sec): 1.000000E-1
Scans to average: 1
Nonlinearity correction enabled: false
Boxcar width: 0
Baseline correction enabled: true
XAxis mode: Wavelengths
Number of Pixels in Spectrum: 1024
>>>>>Begin Spectral Data<<<<<
336.42	2
336.877	1
337.334	0
337.792	2
338.249	2
338.706	5
339.164	-1
339.621	1
340.079	3
340.536	7
340.994	3
341.452	-2
341.909	1
342.367	2
342.825	-1
343.283	-1
343.741	-5
344.198	1
344.656	1
345.114	0
345.572	3
346.03	5
346.488	2
346.947	0
347.405	2
347.863	1
348.321	7
348.779	3
349.238	6
349.696	-1
350.154	6
350.613	-1
351.071	7
351.53	1
351.988	6
352.447	3
352.905	-1
353.364	1
353.823	3
354.282	7
354.74	4
355.199	1
355.658	6
356.117	3
356.576	5
357.035	6
357.494	6
357.953	7
358.412	6
358.871	-3
359.33	5
359.789	7
360.249	-1
360.708	5
361.167	5
361.626	6
362.086	2
362.545	9
363.005	8
363.464	0
363.924	0
364.383	10
364.843	4
365.303	8
365.762	7
366.222	0
366.682	9
367.142	8
367.601	10
368.061	8
368.521	7
368.981	6
369.441	9
369.901	9
370.361	6
370.821	8
371.282	8
371.742	6
372.202	11
372.662	9
373.123	6
373.583	9
374.043	12
374.504	4
374.964	9
375.425	9
375.885	10
376.346	12
376.806	6
377.267	12
377.728	11
378.188	15
378.649	13
379.11	15
379.571	13
380.032	8
380.493	13
380.954	16
381.414	11
381.876	15
382.337	13
382.798	18
383.259	23
383.72	16
384.181	16
384.642	20
385.104	18
385.565	26
386.026	21
386.488	17
386.949	20
387.411	18
387.872	16
388.334	26
388.795	25
389.257	27
389.719	25
390.181	21
390.642	27
391.104	26
391.566	22
392.028	32
392.49	23
392.952	31
393.414	31
393.876	29
394.338	30
394.8	29
395.262	35
395.724	30
396.186	35
396.648	38
397.111	35
397.573	33
398.035	37
398.498	40
398.96	36
399.423	35
399.885	38
400.348	36
400.81	45
401.273	36
401.736	42
402.198	42
402.661	41
403.124	47
403.587	49
404.049	48
404.512	47
404.975	48
405.438	46
405.901	48
406.364	53
406.827	53
407.29	55
407.754	52
408.217	52
408.68	53
409.143	56
409.607	61
410.07	55
410.533	58
410.997	56
411.46	57
411.924	56
412.387	58
412.851	58
413.314	64
413.778	59
414.242	64
414.705	67
415.169	69
415.633	66
416.097	68
416.561	70
417.024	72
417.488	72
417.952	71
418.416	80
418.88	71
419.344	69
419.809	74
420.273	79
420.737	75
421.201	75
421.665	75
422.13	82
422.594	85
423.059	84
423.523	83
423.987	87
424.452	91
424.916	93
425.381	89
425.846	94
426.31	94
426.775	95
427.24	100
427.704	95
428.169	100
428.634	100
429.099	100
429.564	100
430.029	102
430.494	105
430.959	107
431.424	101
431.889	99
432.354	106
432.819	106
433.284	109
433.75	108
434.215	116
434.68	123
435.146	118
435.611	126
436.077	128
436.542	130
437.008	136
437.473	134
437.939	146
438.404	146
438.87	148
439.336	144
439.801	141
440.267	143
440.733	151
441.199	155
441.665	150
442.131	159
442.596	155
443.062	154
443.529	163
443.995	167
444.461	170
444.927	181
445.393	180
445.859	190
446.325	194
446.792	208
447.258	204
447.724	210
448.191	221
448.657	219
449.124	227
449.59	226
450.057	244
450.523	238
450.99	244
451.457	244
451.923	253
452.39	248
452.857	257
453.324	250
453.791	256
454.257	256
454.724	265
455.191	262
455.658	259
456.125	274
456.592	271
457.059	279
457.527	275
457.994	287
458.461	291
458.928	302
459.396	297
459.863	310
460.33	304
460.798	306
461.265	313
461.732	309
462.2	317
462.668	318
463.135	325
463.603	314
464.07	317
464.538	322
465.006	330
465.474	319
465.941	326
466.409	327
466.877	317
467.345	332
467.813	327
468.281	327
468.749	333
469.217	335
469.685	340
470.153	348
470.621	343
471.09	352
471.558	362
472.026	366
472.494	375
472.963	383
473.431	398
473.9	407
474.368	415
474.837	423
475.305	427
475.774	436
476.242	451
476.711	446
477.18	463
477.648	467
478.117	467
478.586	465
479.055	461
479.524	467
479.993	471
480.462	459
480.93	469
481.399	468
481.869	475
482.338	476
482.807	481
483.276	478
483.745	484
484.214	496
484.684	504
485.153	503
485.622	507
486.092	525
486.561	519
487.031	527
487.5	543
487.97	562
488.439	572
488.909	593
489.378	607
489.848	610
490.318	624
490.787	645
491.257	661
491.727	655
492.197	673
492.667	668
493.137	676
493.607	685
494.077	694
494.547	685
495.017	691
495.487	700
495.957	714
496.427	702
496.897	704
497.368	713
497.838	707
498.308	721
498.779	726
499.249	742
499.719	747
500.19	753
500.66	751
501.131	762
501.602	772
502.072	769
502.543	788
503.014	818
503.484	815
503.955	843
504.426	876
504.897	883
505.368	898
505.838	914
506.309	937
506.78	973
507.251	991
507.722	1008
508.194	1034
508.665	1043
509.136	1040
509.607	1081
510.078	1090
510.549	1097
511.021	1127
511.492	1127
511.964	1152
512.435	1167
512.906	1156
513.378	1175
513.849	1194
514.321	1211
514.793	1215
515.264	1231
515.736	1242
516.208	1266
516.679	1274
517.151	1283
517.623	1296
518.095	1322
518.567	1340
519.038	1360
519.51	1359
519.982	1383
520.454	1400
520.927	1426
521.399	1449
521.871	1468
522.343	1470
522.815	1481
523.287	1480
523.76	1494
524.232	1526
524.704	1531
525.177	1513
525.649	1522
526.122	1536
526.594	1507
527.067	1547
527.539	1565
528.012	1559
528.484	1551
528.957	1564
529.43	1559
529.903	1550
530.375	1608
530.848	1580
531.321	1602
531.794	1605
532.267	1640
532.74	1616
533.213	1621
533.686	1654
534.159	1644
534.632	1677
535.105	1697
535.578	1730
536.051	1737
536.525	1751
536.998	1750
537.471	1782
537.945	1759
538.418	1802
538.891	1809
539.365	1830
539.838	1846
540.312	1844
540.786	1865
541.259	1852
541.733	1866
542.206	1878
542.68	1848
543.154	1861
543.628	1863
544.101	1921
544.575	1899
545.049	1851
545.523	1883
545.997	1882
546.471	1906
546.945	1883
547.419	1908
547.893	1850
548.367	1899
548.842	1881
549.316	1885
549.79	1898
550.264	1884
550.739	1909
551.213	1905
551.687	1915
552.162	1940
552.636	1920
553.111	1920
553.585	1979
554.06	1951
554.534	1985
555.009	1974
555.484	2012
555.958	2046
556.433	2053
556.908	2075
557.383	2051
557.858	2117
558.333	2116
558.807	2110
559.282	2116
559.757	2182
560.232	2206
560.708	2168
561.183	2159
561.658	2185
562.133	2198
562.608	2169
563.083	2218
563.559	2166
564.034	2189
564.509	2186
564.985	2200
565.46	2180
565.936	2217
566.411	2228
566.887	2201
567.362	2215
567.838	2226
568.313	2245
568.789	2205
569.265	2205
569.74	2236
570.216	2222
570.692	2261
571.168	2264
571.644	2249
572.12	2247
572.596	2274
573.071	2294
573.547	2352
574.024	2379
574.5	2413
574.976	2426
575.452	2458
575.928	2473
576.404	2485
576.881	2581
577.357	2532
577.833	2552
578.31	2615
578.786	2654
579.262	2710
579.739	2664
580.215	2732
580.692	2723
581.169	2715
581.645	2720
582.122	2797
582.598	2809
583.075	2798
583.552	2825
584.029	2817
584.506	2806
584.982	2768
585.459	2831
585.936	2807
586.413	2838
586.89	2888
587.367	2857
587.844	2930
588.321	2918
588.799	2921
589.276	2884
589.753	2931
590.23	2951
590.707	2942
591.185	2938
591.662	2942
592.139	2991
592.617	3042
593.094	3037
593.572	3036
594.049	3078
594.527	3111
595.004	3144
595.482	3214
595.96	3189
596.437	3191
596.915	3294
597.393	3231
597.871	3302
598.349	3259
598.826	3330
599.304	3328
599.782	3397
600.26	3374
600.738	3458
601.216	3456
601.694	3490
602.173	3516
602.651	3506
603.129	3451
603.607	3490
604.085	3506
604.564	3510
605.042	3517
605.52	3497
605.999	3592
606.477	3511
606.956	3531
607.434	3572.5
607.913	3614
608.391	3600
608.87	3573
609.348	3538
609.827	3559
610.306	3581
610.785	3601
611.263	3611
611.742	3573
612.221	3535
612.7	3572
613.179	3602
613.658	3564
614.137	3627
614.616	3646
615.095	3587
615.574	3646
616.053	3692
616.532	3664
617.011	3676
617.491	3689
617.97	3697
618.449	3767
618.928	3797
619.408	3752
619.887	3807
620.367	3823
620.846	3871
621.326	3851
621.805	3940
622.285	3926
622.764	3942
623.244	3962
623.724	3999
624.203	4013
624.683	3947
625.163	4030
625.643	4026
626.123	3994
626.602	4090
627.082	4016
627.562	4015
628.042	4112
628.522	4064
629.002	4015
629.482	4035
629.963	4037
630.443	4003
630.923	4027
631.403	4058
631.883	4056
632.364	4065
632.844	4023
633.324	4063
633.805	4079
634.285	4038
634.766	4019
635.246	4015
635.727	4024
636.207	4021
636.688	4037
637.168	4038
637.649	4018
638.13	4005
638.611	4028
639.091	4022
639.572	3995
640.053	3987
640.534	4021
641.015	4016
641.496	3960
641.977	4027
642.458	4006
642.939	4017
643.42	4028
643.901	4034
644.382	4091
644.863	4073
645.345	4086
645.826	4082
646.307	4089
646.788	4169
647.27	4098
647.751	4082
648.233	4121
648.714	4031
649.196	4156
649.677	4146
650.159	4143
650.64	4087
651.122	4162
651.603	4119
652.085	4171
652.567	4180
653.049	4133
653.53	4128
654.012	4189
654.494	4125
654.976	4172
655.458	4149
655.94	4141
656.422	4216
656.904	4158
657.386	4121
657.868	4130
658.35	4107
658.833	4138
659.315	4148
659.797	4108
660.279	4108
660.762	4138
661.244	4093
661.726	4030
662.209	4022
662.691	4034
663.174	3980
663.656	4001
664.139	4002
664.621	3954
665.104	3939
665.587	3986
666.069	4023
666.552	4027
667.035	3990
667.517	3995
668	4032
668.483	4035
668.966	3996
669.449	3982
669.932	3981
670.415	4017
670.898	3993
671.381	4019
671.864	4048
672.347	4002
672.83	4002
673.313	4003
673.797	3985
674.28	4063
674.763	4102
675.247	4137
675.73	4101
676.213	4130
676.697	4153
677.18	4151
677.664	4170
678.147	4169
678.631	4183
679.114	4211
679.598	4198
680.082	4243
680.565	4250
681.049	4251
681.533	4228
682.017	4249
682.5	4231
682.984	4267
683.468	4257
683.952	4183
684.436	4276
684.92	4233
685.404	4260
685.888	4305
686.372	4282
686.856	4314
687.341	4348
687.825	4293
688.309	4303
688.793	4289
689.278	4234
689.762	4262
690.246	4251
690.731	4274
691.215	4294
691.7	4173
692.184	4221
692.669	4211
693.153	4247
693.638	4191
694.122	4174
694.607	4208
695.092	4146
695.577	4184
696.061	4103
696.546	4121
697.031	4107
697.516	4131
698.001	4136
698.486	4127
698.971	4204
699.456	4120
699.941	4107
700.426	4106
700.911	4151
701.396	4136
701.881	4185
702.366	4173
702.852	4150
703.337	4169
703.822	4154
704.308	4146
704.793	4183
705.278	4198
705.764	4216
706.249	4178
706.735	4143
707.22	4162
707.706	4088
708.191	4183
708.677	4200
709.163	4172
709.648	4199
710.134	4258
710.62	4207
711.106	4221
711.592	4291
712.077	4258
712.563	4154
713.049	4133
713.535	4214
714.021	4193
714.507	4200
714.993	4162
715.479	4216
715.966	4157
716.452	4162
716.938	4158
717.424	4044
717.91	4123
718.397	4101
718.883	4084
719.369	4106
719.856	4065
720.342	4115
720.829	4058
721.315	4083
721.802	4061
722.288	4073
722.775	3916
723.262	3811
723.748	3965
724.235	3963
724.722	4045
725.208	3988
725.695	3989
726.182	3958
726.669	3882
727.156	3889
727.643	3839
728.13	3828
728.617	3795
729.104	3801
729.591	3781
730.078	3813
730.565	3825
731.052	3773
731.539	3792
732.027	3760
732.514	3702
733.001	3749
733.488	3732
733.976	3714
734.463	3709
734.951	3698
735.438	3737
735.926	3713
736.413	3751
736.901	3715
737.388	3767
737.876	3768
738.364	3737
738.851	3745
739.339	3728
739.827	3778
740.314	3663
740.802	3692
741.29	3701
741.778	3656
742.266	3657
742.754	3668
743.242	3695
743.73	3613
744.218	3606
744.706	3558
745.194	3583
745.682	3570
746.17	3580
746.659	3607
747.147	3522
747.635	3548
748.123	3545
748.612	3497
749.1	3480
749.589	3526
750.077	3493
750.566	3472
751.054	3488
751.543	3501
752.031	3439
752.52	3430
753.008	3356
753.497	3353
753.986	3353
754.474	3336
754.963	3370
755.452	3328
755.941	3317
756.43	3309
756.919	3307
757.408	3296
757.896	3303
758.385	3310
758.875	3268
759.364	3234
759.853	3203
760.342	3143
760.831	3198
761.32	3165
761.809	3107
762.299	3133
762.788	3143
763.277	3137
763.767	3088
764.256	3104
764.745	3046
765.235	3074
765.724	2989
766.214	3040
766.703	3011
767.193	2989
767.683	2997
768.172	2945
768.662	2963
769.152	2946
769.641	2956
770.131	2891
770.621	2929
771.111	2881
771.601	2867
772.09	2829
772.58	2797
773.07	2808
773.56	2853
774.05	2815
774.54	2814
775.031	2814
775.521	2777
776.011	2763
776.501	2773
776.991	2716
777.482	2747
777.972	2683
778.462	2689
778.953	2700
779.443	2680
779.933	2675
780.424	2649
780.914	2674
781.405	2683
781.895	2657
782.386	2645
782.877	2636
783.367	2582
783.858	2559
784.349	2556
784.839	2525
785.33	2528
785.821	2536
786.312	2512
786.803	2533
787.293	2538
787.784	2496
788.275	2452
788.766	2430
789.257	2468
789.748	2402
790.24	2396
790.731	2410
791.222	2370
791.713	2362
792.204	2367
792.696	2305
793.187	2328
793.678	2307
794.169	2243
794.661	2270
795.152	2245
795.644	2227
796.135	2219
796.627	2246
797.118	2216
797.61	2192
798.101	2169
798.593	2190
799.085	2160
799.576	2169
800.068	2128
800.56	2127
801.052	2075
801.544	2073
802.035	2082
802.527	2055
803.019	2033
803.511	2011
804.003	1996
804.495	2012
804.987	1980
805.479	1938
805.971	1965
806.464	1963
806.956	1919
807.448	1921
807.94	1917
808.433	1906
808.925	1896
809.417	1874
809.91	1864
810.402	1806
810.894	1815
811.387	1837
811.879	1799
812.372	1820
812.865	1796
813.357	1792
813.85	1779
814.342	1774
814.835	1772
815.328	1765
815.821	1740
816.313	1735
816.806	1736
817.299	1714
817.792	1726
818.285	1698
818.778	1719
819.271	1720
819.764	1699
820.257	1707
820.75	1716
821.243	1707
821.736	1695
822.229	1707
822.722	1704
823.216	1738
