Data from lamp5bck_noballon_Subt4__3__358.txt Node

Date: Wed Apr 09 10:16:54 CEST 2025
User: fys-lab-0081
Spectrometer: S04999
Trigger mode: 0
Resolution mode: 1024 pixels
Integration Time (sec): 1.000000E-1
Scans to average: 1
Nonlinearity correction enabled: false
Boxcar width: 0
Baseline correction enabled: true
XAxis mode: Wavelengths
Number of Pixels in Spectrum: 1024
>>>>>Begin Spectral Data<<<<<
336.42	2
336.877	1
337.334	-3
337.792	0
338.249	4
338.706	2
339.164	-3
339.621	-1
340.079	4
340.536	1
340.994	0
341.452	-2
341.909	2
342.367	0
342.825	-1
343.283	3
343.741	1
344.198	6
344.656	-1
345.114	0
345.572	2
346.03	5
346.488	6
346.947	-3
347.405	0
347.863	2
348.321	6
348.779	1
349.238	3
349.696	-1
350.154	4
350.613	4
351.071	5
351.53	2
351.988	5
352.447	4
352.905	7
353.364	0
353.823	2
354.282	2
354.74	0
355.199	4
355.658	4
356.117	3
356.576	4
357.035	2
357.494	6
357.953	4
358.412	5
358.871	-1
359.33	3
359.789	5
360.249	0
360.708	7
361.167	3
361.626	7
362.086	-1
362.545	3
363.005	5
363.464	1
363.924	3
364.383	9
364.843	2
365.303	6
365.762	6
366.222	2
366.682	7
367.142	9
367.601	5
368.061	8
368.521	10
368.981	7
369.441	9
369.901	8
370.361	7
370.821	4
371.282	9
371.742	9
372.202	7
372.662	12
373.123	10
373.583	7
374.043	9
374.504	3
374.964	7
375.425	7
375.885	9
376.346	11
376.806	10
377.267	14
377.728	12
378.188	7
378.649	11
379.11	11
379.571	11
380.032	8
380.493	9
380.954	16
381.414	8
381.876	11
382.337	18
382.798	20
383.259	22
383.72	14
384.181	17
384.642	14
385.104	21
385.565	28
386.026	22
386.488	19
386.949	24
387.411	22
387.872	16
388.334	25
388.795	25
389.257	29
389.719	26
390.181	21
390.642	29
391.104	28
391.566	21
392.028	31
392.49	22
392.952	34
393.414	34
393.876	25
394.338	29
394.8	32
395.262	34
395.724	31
396.186	34
396.648	33
397.111	39
397.573	37
398.035	36
398.498	32
398.96	35
399.423	35
399.885	44
400.348	40
400.81	45
401.273	37
401.736	43
402.198	40
402.661	42
403.124	47
403.587	46
404.049	46
404.512	46
404.975	48
405.438	50
405.901	51
406.364	50
406.827	51
407.29	56
407.754	57
408.217	52
408.68	49
409.143	50
409.607	56
410.07	57
410.533	58
410.997	56
411.46	54
411.924	58
412.387	59
412.851	64
413.314	64
413.778	62
414.242	66
414.705	67
415.169	65
415.633	69
416.097	69
416.561	72
417.024	73
417.488	77
417.952	74
418.416	74
418.88	71
419.344	71
419.809	74
420.273	82
420.737	78
421.201	69
421.665	79
422.13	82
422.594	86
423.059	85
423.523	82
423.987	86
424.452	89
424.916	94
425.381	89
425.846	92
426.31	92
426.775	96
427.24	100
427.704	94
428.169	103
428.634	100
429.099	100
429.564	100
430.029	103
430.494	98
430.959	104
431.424	99
431.889	106
432.354	108
432.819	105
433.284	110
433.75	116
434.215	115
434.68	118
435.146	121
435.611	123
436.077	130
436.542	131
437.008	136
437.473	139
437.939	146
438.404	145
438.87	144
439.336	143
439.801	141
440.267	142
440.733	154
441.199	152
441.665	145
442.131	156
442.596	150
443.062	155
443.529	161
443.995	166
444.461	166
444.927	183
445.393	184
445.859	194
446.325	195
446.792	209
447.258	208
447.724	203
448.191	221
448.657	213
449.124	229
449.59	227
450.057	244
450.523	238
450.99	245
451.457	243
451.923	252
452.39	249
452.857	253
453.324	249
453.791	261
454.257	261
454.724	264
455.191	262
455.658	260
456.125	272
456.592	272
457.059	273
457.527	280
457.994	295
458.461	298
458.928	304
459.396	295
459.863	305
460.33	304
460.798	307
461.265	312
461.732	308
462.2	319
462.668	321
463.135	324
463.603	309
464.07	321
464.538	316
465.006	329
465.474	323
465.941	325
466.409	329
466.877	320
467.345	333
467.813	328
468.281	331
468.749	332
469.217	341
469.685	340
470.153	349
470.621	345
471.09	349
471.558	368
472.026	370
472.494	380
472.963	386
473.431	399
473.9	408
474.368	421
474.837	422
475.305	426
475.774	439
476.242	452
476.711	449
477.18	464
477.648	462
478.117	467
478.586	460
479.055	460
479.524	467
479.993	469
480.462	468
480.93	468
481.399	473
481.869	480
482.338	478
482.807	481
483.276	479
483.745	484
484.214	501
484.684	508
485.153	506
485.622	513
486.092	528
486.561	518
487.031	531
487.5	545
487.97	560
488.439	571
488.909	591
489.378	605
489.848	609
490.318	619
490.787	644
491.257	661
491.727	660
492.197	672
492.667	666
493.137	671
493.607	683
494.077	694
494.547	687
495.017	693
495.487	699
495.957	709
496.427	702
496.897	699
497.368	711
497.838	707
498.308	722
498.779	733
499.249	738
499.719	750
500.19	753
500.66	752
501.131	763
501.602	776
502.072	772
502.543	791
503.014	818
503.484	814
503.955	844
504.426	875
504.897	888
505.368	903
505.838	920
506.309	936
506.78	964
507.251	991
507.722	1013
508.194	1031
508.665	1049
509.136	1038
509.607	1088
510.078	1099
510.549	1101
511.021	1120
511.492	1123
511.964	1147
512.435	1169
512.906	1158
513.378	1178
513.849	1192
514.321	1206
514.793	1217
515.264	1236
515.736	1244
516.208	1267
516.679	1275
517.151	1283
517.623	1301
518.095	1323
518.567	1345
519.038	1364
519.51	1354
519.982	1387
520.454	1395
520.927	1426
521.399	1442
521.871	1469
522.343	1473
522.815	1480
523.287	1481
523.76	1499
524.232	1519
524.704	1537
525.177	1513
525.649	1521
526.122	1538
526.594	1513
527.067	1548
527.539	1570
528.012	1560
528.484	1557
528.957	1558
529.43	1555
529.903	1551
530.375	1603
530.848	1585
531.321	1606
531.794	1594
532.267	1640
532.74	1617
533.213	1615
533.686	1650
534.159	1641
534.632	1681
535.105	1705
535.578	1724
536.051	1737
536.525	1749
536.998	1758
537.471	1786
537.945	1761
538.418	1807
538.891	1816
539.365	1833
539.838	1850
540.312	1844
540.786	1862
541.259	1846
541.733	1866
542.206	1882
542.68	1860
543.154	1861
543.628	1870
544.101	1919
544.575	1905
545.049	1851
545.523	1885
545.997	1885
546.471	1900
546.945	1882
547.419	1912
547.893	1853
548.367	1897
548.842	1883
549.316	1886
549.79	1905
550.264	1885
550.739	1915
551.213	1915
551.687	1919
552.162	1940
552.636	1923
553.111	1917
553.585	1977
554.06	1954
554.534	1980
555.009	1971
555.484	2010
555.958	2040
556.433	2056
556.908	2079
557.383	2054
557.858	2111
558.333	2123
558.807	2109
559.282	2122
559.757	2186
560.232	2202
560.708	2173
561.183	2156
561.658	2183
562.133	2185
562.608	2167
563.083	2227
563.559	2168
564.034	2187
564.509	2190
564.985	2198
565.46	2184
565.936	2218
566.411	2229
566.887	2197
567.362	2212
567.838	2219
568.313	2245
568.789	2208
569.265	2204
569.74	2232
570.216	2218
570.692	2264
571.168	2258
571.644	2240
572.12	2243
572.596	2280
573.071	2289
573.547	2350
574.024	2380
574.5	2411
574.976	2426
575.452	2463
575.928	2470
576.404	2489
576.881	2577
577.357	2537
577.833	2545
578.31	2614
578.786	2660
579.262	2710
579.739	2661
580.215	2733
580.692	2725
581.169	2710
581.645	2720
582.122	2802
582.598	2797
583.075	2801
583.552	2831
584.029	2824
584.506	2807
584.982	2774
585.459	2834
585.936	2811
586.413	2839
586.89	2887
587.367	2865
587.844	2934
588.321	2921
588.799	2914
589.276	2879
589.753	2926
590.23	2957
590.707	2940
591.185	2936
591.662	2945
592.139	2993
592.617	3041
593.094	3028
593.572	3036
594.049	3078
594.527	3111
595.004	3142
595.482	3212
595.96	3182
596.437	3194
596.915	3283
597.393	3224
597.871	3297
598.349	3262
598.826	3334
599.304	3332
599.782	3404
600.26	3377
600.738	3467
601.216	3461
601.694	3499
602.173	3520
602.651	3511
603.129	3456
603.607	3494
604.085	3508
604.564	3511
605.042	3513
605.52	3497
605.999	3598
606.477	3514
606.956	3533
607.434	3570.5
607.913	3608
608.391	3602
608.87	3584
609.348	3528
609.827	3556
610.306	3593
610.785	3618
611.263	3614
611.742	3584
612.221	3533
612.7	3579
613.179	3605
613.658	3559
614.137	3622
614.616	3647
615.095	3587
615.574	3652
616.053	3699
616.532	3663
617.011	3670
617.491	3689
617.97	3689
618.449	3758
618.928	3796
619.408	3762
619.887	3797
620.367	3824
620.846	3878
621.326	3850
621.805	3932
622.285	3911
622.764	3956
623.244	3971
623.724	3998
624.203	4019
624.683	3947
625.163	4020
625.643	4026
626.123	3995
626.602	4095
627.082	4016
627.562	4019
628.042	4116
628.522	4070
629.002	4019
629.482	4046
629.963	4043
630.443	4016
630.923	4022
631.403	4054
631.883	4058
632.364	4066
632.844	4028
633.324	4066
633.805	4086
634.285	4038
634.766	4013
635.246	4019
635.727	4013
636.207	4033
636.688	4046
637.168	4044
637.649	4012
638.13	3995
638.611	4035
639.091	4022
639.572	3997
640.053	3975
640.534	4023
641.015	4007
641.496	3970
641.977	4038
642.458	4000
642.939	4014
643.42	4026
643.901	4031
644.382	4085
644.863	4071
645.345	4081
645.826	4083
646.307	4081
646.788	4173
647.27	4090
647.751	4085
648.233	4120
648.714	4034
649.196	4153
649.677	4146
650.159	4142
650.64	4086
651.122	4158
651.603	4126
652.085	4166
652.567	4183
653.049	4139
653.53	4126
654.012	4188
654.494	4121
654.976	4168
655.458	4150
655.94	4145
656.422	4217
656.904	4165
657.386	4122
657.868	4123
658.35	4105
658.833	4144
659.315	4161
659.797	4107
660.279	4099
660.762	4140
661.244	4092
661.726	4038
662.209	4038
662.691	4044
663.174	3969
663.656	4005
664.139	4009
664.621	3959
665.104	3931
665.587	3994
666.069	4023
666.552	4034
667.035	3986
667.517	4001
668	4034
668.483	4033
668.966	3996
669.449	3971
669.932	3987
670.415	4018
670.898	3990
671.381	4012
671.864	4031
672.347	4003
672.83	4003
673.313	4000
673.797	3981
674.28	4070
674.763	4107
675.247	4130
675.73	4109
676.213	4129
676.697	4149
677.18	4158
677.664	4181
678.147	4181
678.631	4186
679.114	4212
679.598	4212
680.082	4253
680.565	4255
681.049	4233
681.533	4227
682.017	4253
682.5	4234
682.984	4261
683.468	4259
683.952	4178
684.436	4268
684.92	4232
685.404	4260
685.888	4298
686.372	4277
686.856	4304
687.341	4363
687.825	4296
688.309	4303
688.793	4281
689.278	4226
689.762	4269
690.246	4254
690.731	4278
691.215	4293
691.7	4178
692.184	4233
692.669	4201
693.153	4252
693.638	4194
694.122	4189
694.607	4204
695.092	4146
695.577	4186
696.061	4104
696.546	4129
697.031	4108
697.516	4126
698.001	4143
698.486	4134
698.971	4196
699.456	4108
699.941	4109
700.426	4109
700.911	4146
701.396	4131
701.881	4181
702.366	4162
702.852	4143
703.337	4175
703.822	4149
704.308	4158
704.793	4182
705.278	4188
705.764	4215
706.249	4175
706.735	4148
707.22	4165
707.706	4095
708.191	4186
708.677	4207
709.163	4173
709.648	4201
710.134	4251
710.62	4211
711.106	4211
711.592	4288
712.077	4262
712.563	4144
713.049	4134
713.535	4223
714.021	4194
714.507	4195
714.993	4162
715.479	4222
715.966	4152
716.452	4159
716.938	4158
717.424	4040
717.91	4120
718.397	4110
718.883	4089
719.369	4106
719.856	4062
720.342	4113
720.829	4054
721.315	4075
721.802	4050
722.288	4080
722.775	3913
723.262	3807
723.748	3970
724.235	3957
724.722	4044
725.208	3984
725.695	3976
726.182	3950
726.669	3884
727.156	3882
727.643	3847
728.13	3824
728.617	3788
729.104	3796
729.591	3778
730.078	3810
730.565	3833
731.052	3772
731.539	3790
732.027	3767
732.514	3706
733.001	3744
733.488	3728
733.976	3711
734.463	3707
734.951	3692
735.438	3736
735.926	3709
736.413	3749
736.901	3724
737.388	3768
737.876	3767
738.364	3747
738.851	3750
739.339	3740
739.827	3774
740.314	3660
740.802	3685
741.29	3703
741.778	3654
742.266	3656
742.754	3680
743.242	3701
743.73	3619
744.218	3605
744.706	3565
745.194	3579
745.682	3560
746.17	3577
746.659	3611
747.147	3523
747.635	3542
748.123	3537
748.612	3493
749.1	3483
749.589	3528
750.077	3499
750.566	3471
751.054	3497
751.543	3508
752.031	3441
752.52	3425
753.008	3352
753.497	3363
753.986	3359
754.474	3335
754.963	3371
755.452	3326
755.941	3316
756.43	3314
756.919	3305
757.408	3286
757.896	3300
758.385	3311
758.875	3267
759.364	3227
759.853	3202
760.342	3139
760.831	3197
761.32	3163
761.809	3115
762.299	3133
762.788	3146
763.277	3140
763.767	3088
764.256	3082
764.745	3038
765.235	3074
765.724	2984
766.214	3037
766.703	3013
767.193	2985
767.683	2995
768.172	2943
768.662	2968
769.152	2946
769.641	2949
770.131	2889
770.621	2921
771.111	2885
771.601	2862
772.09	2831
772.58	2800
773.07	2815
773.56	2849
774.05	2817
774.54	2821
775.031	2808
775.521	2783
776.011	2761
776.501	2774
776.991	2710
777.482	2748
777.972	2684
778.462	2673
778.953	2697
779.443	2683
779.933	2675
780.424	2642
780.914	2672
781.405	2678
781.895	2651
782.386	2655
782.877	2629
783.367	2577
783.858	2552
784.349	2550
784.839	2528
785.33	2534
785.821	2526
786.312	2523
786.803	2525
787.293	2538
787.784	2491
788.275	2441
788.766	2428
789.257	2465
789.748	2412
790.24	2394
790.731	2408
791.222	2370
791.713	2363
792.204	2366
792.696	2304
793.187	2331
793.678	2311
794.169	2244
794.661	2271
795.152	2252
795.644	2234
796.135	2230
796.627	2255
797.118	2205
797.61	2196
798.101	2171
798.593	2196
799.085	2164
799.576	2175
800.068	2131
800.56	2134
801.052	2073
801.544	2071
802.035	2086
802.527	2054
803.019	2028
803.511	2010
804.003	2003
804.495	2013
804.987	1981
805.479	1938
805.971	1959
806.464	1969
806.956	1915
807.448	1911
807.94	1923
808.433	1903
808.925	1898
809.417	1877
809.91	1868
810.402	1811
810.894	1815
811.387	1833
811.879	1803
812.372	1822
812.865	1791
813.357	1791
813.85	1779
814.342	1773
814.835	1780
815.328	1768
815.821	1743
816.313	1731
816.806	1736
817.299	1708
817.792	1723
818.285	1698
818.778	1723
819.271	1719
819.764	1701
820.257	1704
820.75	1712
821.243	1711
821.736	1696
822.229	1709
822.722	1706
823.216	1737
