Data from lamp5bck_noballon_Subt4__7__362.txt Node

Date: Wed Apr 09 10:16:54 CEST 2025
User: fys-lab-0081
Spectrometer: S04999
Trigger mode: 0
Resolution mode: 1024 pixels
Integration Time (sec): 1.000000E-1
Scans to average: 1
Nonlinearity correction enabled: false
Boxcar width: 0
Baseline correction enabled: true
XAxis mode: Wavelengths
Number of Pixels in Spectrum: 1024
>>>>>Begin Spectral Data<<<<<
336.42	2
336.877	-1
337.334	1
337.792	-2
338.249	-1
338.706	0
339.164	-4
339.621	-3
340.079	8
340.536	4
340.994	9
341.452	-3
341.909	-1
342.367	3
342.825	1
343.283	0
343.741	2
344.198	4
344.656	1
345.114	1
345.572	0
346.03	-2
346.488	2
346.947	-2
347.405	5
347.863	2
348.321	1
348.779	-1
349.238	2
349.696	3
350.154	1
350.613	3
351.071	3
351.53	8
351.988	8
352.447	8
352.905	3
353.364	-1
353.823	3
354.282	3
354.74	-2
355.199	5
355.658	2
356.117	2
356.576	7
357.035	2
357.494	5
357.953	7
358.412	4
358.871	-1
359.33	4
359.789	4
360.249	3
360.708	8
361.167	3
361.626	7
362.086	0
362.545	6
363.005	12
363.464	1
363.924	1
364.383	11
364.843	2
365.303	5
365.762	5
366.222	3
366.682	5
367.142	9
367.601	11
368.061	8
368.521	5
368.981	4
369.441	10
369.901	13
370.361	5
370.821	4
371.282	9
371.742	15
372.202	9
372.662	11
373.123	8
373.583	3
374.043	9
374.504	2
374.964	8
375.425	8
375.885	10
376.346	11
376.806	7
377.267	10
377.728	13
378.188	14
378.649	11
379.11	12
379.571	7
380.032	10
380.493	11
380.954	15
381.414	10
381.876	7
382.337	18
382.798	17
383.259	25
383.72	13
384.181	20
384.642	12
385.104	24
385.565	30
386.026	16
386.488	19
386.949	19
387.411	20
387.872	24
388.334	25
388.795	23
389.257	29
389.719	28
390.181	21
390.642	25
391.104	27
391.566	22
392.028	32
392.49	23
392.952	28
393.414	32
393.876	26
394.338	25
394.8	25
395.262	33
395.724	31
396.186	34
396.648	32
397.111	34
397.573	38
398.035	39
398.498	35
398.96	38
399.423	37
399.885	44
400.348	40
400.81	46
401.273	32
401.736	40
402.198	43
402.661	45
403.124	46
403.587	46
404.049	48.5
404.512	51
404.975	51
405.438	50
405.901	51
406.364	54
406.827	51
407.29	54
407.754	55
408.217	53
408.68	50
409.143	55
409.607	61
410.07	54
410.533	57
410.997	60
411.46	55
411.924	59
412.387	54
412.851	61
413.314	65
413.778	65
414.242	62
414.705	68
415.169	73
415.633	68
416.097	67
416.561	68
417.024	75
417.488	76
417.952	73
418.416	76
418.88	69
419.344	73
419.809	74
420.273	77
420.737	72
421.201	68
421.665	80
422.13	83
422.594	81
423.059	83
423.523	85
423.987	87
424.452	83
424.916	90
425.381	94
425.846	96
426.31	97
426.775	94
427.24	102
427.704	91
428.169	100
428.634	102
429.099	96
429.564	98
430.029	103
430.494	103
430.959	108
431.424	98
431.889	105
432.354	112
432.819	109
433.284	105
433.75	110
434.215	117
434.68	119
435.146	124
435.611	128
436.077	126
436.542	132
437.008	132
437.473	138
437.939	143
438.404	143
438.87	148
439.336	142
439.801	145
440.267	144
440.733	158
441.199	150
441.665	148
442.131	156
442.596	156
443.062	155
443.529	163
443.995	165
444.461	169
444.927	183
445.393	180
445.859	189
446.325	191
446.792	207
447.258	206
447.724	212
448.191	221
448.657	217
449.124	230
449.59	224
450.057	243
450.523	235
450.99	244
451.457	246
451.923	251
452.39	243
452.857	256
453.324	248
453.791	258
454.257	258
454.724	258
455.191	265
455.658	257
456.125	273
456.592	267
457.059	277
457.527	282
457.994	288
458.461	288
458.928	301
459.396	300
459.863	308
460.33	302
460.798	308
461.265	309
461.732	310
462.2	320
462.668	318
463.135	324
463.603	314
464.07	319
464.538	320
465.006	326
465.474	321
465.941	327
466.409	326
466.877	320
467.345	328
467.813	334
468.281	331
468.749	336
469.217	334
469.685	341
470.153	348
470.621	345
471.09	350
471.558	367
472.026	368
472.494	377
472.963	387
473.431	397
473.9	408
474.368	420
474.837	423
475.305	425
475.774	439
476.242	453
476.711	451
477.18	464
477.648	463
478.117	462
478.586	461
479.055	463
479.524	472
479.993	468
480.462	469
480.93	474
481.399	472
481.869	474
482.338	475
482.807	479
483.276	479
483.745	486
484.214	496
484.684	504
485.153	506
485.622	510
486.092	527
486.561	517
487.031	529
487.5	550
487.97	556
488.439	568
488.909	587
489.378	608
489.848	610
490.318	627
490.787	642
491.257	657
491.727	656
492.197	672
492.667	670
493.137	677
493.607	683
494.077	688
494.547	685
495.017	689
495.487	697
495.957	714
496.427	704
496.897	697
497.368	706
497.838	708
498.308	726
498.779	732
499.249	738
499.719	747
500.19	754
500.66	754
501.131	760
501.602	776
502.072	769
502.543	788
503.014	820
503.484	817
503.955	844
504.426	877
504.897	882
505.368	898
505.838	920
506.309	944
506.78	966
507.251	992
507.722	1008
508.194	1039
508.665	1042
509.136	1045
509.607	1081
510.078	1092
510.549	1099
511.021	1122
511.492	1130
511.964	1153
512.435	1170
512.906	1154
513.378	1177
513.849	1195
514.321	1202
514.793	1210
515.264	1232
515.736	1245
516.208	1264
516.679	1275
517.151	1294
517.623	1300
518.095	1329
518.567	1341
519.038	1354
519.51	1355
519.982	1383
520.454	1404
520.927	1423
521.399	1443
521.871	1467
522.343	1469
522.815	1477
523.287	1479
523.76	1500
524.232	1528
524.704	1537
525.177	1510
525.649	1520
526.122	1544
526.594	1506
527.067	1546
527.539	1565
528.012	1559
528.484	1554
528.957	1563
529.43	1554
529.903	1546
530.375	1611
530.848	1583
531.321	1605
531.794	1594
532.267	1639
532.74	1619
533.213	1620
533.686	1650
534.159	1640
534.632	1681
535.105	1697
535.578	1729
536.051	1736
536.525	1743
536.998	1756
537.471	1788
537.945	1763
538.418	1807
538.891	1810
539.365	1832
539.838	1849
540.312	1841
540.786	1866
541.259	1852
541.733	1876
542.206	1877
542.68	1861
543.154	1850
543.628	1867
544.101	1925
544.575	1902
545.049	1850
545.523	1888
545.997	1882
546.471	1906
546.945	1883
547.419	1909
547.893	1848
548.367	1897
548.842	1880
549.316	1882
549.79	1899
550.264	1886
550.739	1916
551.213	1912
551.687	1916
552.162	1940
552.636	1920
553.111	1919
553.585	1968
554.06	1952
554.534	1986
555.009	1981
555.484	2018
555.958	2045
556.433	2052
556.908	2075
557.383	2061
557.858	2114
558.333	2120
558.807	2105
559.282	2120
559.757	2184
560.232	2205
560.708	2170
561.183	2154
561.658	2191
562.133	2180
562.608	2169
563.083	2223
563.559	2164
564.034	2188
564.509	2195
564.985	2193
565.46	2177
565.936	2227
566.411	2221
566.887	2193
567.362	2211
567.838	2220
568.313	2241
568.789	2212
569.265	2207
569.74	2232
570.216	2220
570.692	2261
571.168	2256
571.644	2248
572.12	2244
572.596	2283
573.071	2291
573.547	2353
574.024	2376
574.5	2410
574.976	2426
575.452	2464
575.928	2474
576.404	2493
576.881	2574
577.357	2536
577.833	2547
578.31	2605
578.786	2662
579.262	2706
579.739	2666
580.215	2734
580.692	2724
581.169	2712
581.645	2720
582.122	2803
582.598	2795
583.075	2800
583.552	2832
584.029	2822
584.506	2802
584.982	2778
585.459	2832
585.936	2811
586.413	2839
586.89	2884
587.367	2866
587.844	2934
588.321	2926
588.799	2922
589.276	2877
589.753	2917
590.23	2947
590.707	2944
591.185	2942
591.662	2943
592.139	2995
592.617	3040
593.094	3031
593.572	3025
594.049	3082
594.527	3111
595.004	3148
595.482	3216
595.96	3175
596.437	3189
596.915	3288
597.393	3224
597.871	3296
598.349	3262
598.826	3334
599.304	3330
599.782	3402
600.26	3372
600.738	3470
601.216	3461
601.694	3490
602.173	3515
602.651	3512
603.129	3457
603.607	3495
604.085	3510
604.564	3504
605.042	3516
605.52	3494
605.999	3596
606.477	3518
606.956	3527
607.434	3566.5
607.913	3606
608.391	3589
608.87	3569
609.348	3537
609.827	3553
610.306	3587
610.785	3610
611.263	3610
611.742	3571
612.221	3530
612.7	3573
613.179	3598
613.658	3557
614.137	3631
614.616	3653
615.095	3585
615.574	3649
616.053	3692
616.532	3663
617.011	3665
617.491	3694
617.97	3696
618.449	3766
618.928	3792
619.408	3755
619.887	3797
620.367	3818
620.846	3873
621.326	3844
621.805	3934
622.285	3917
622.764	3952
623.244	3969
623.724	3996
624.203	4018
624.683	3949
625.163	4025
625.643	4021
626.123	3986
626.602	4098
627.082	4011
627.562	4022
628.042	4110
628.522	4061
629.002	4028
629.482	4040
629.963	4035
630.443	4009
630.923	4026
631.403	4060
631.883	4056
632.364	4063
632.844	4028
633.324	4067
633.805	4080
634.285	4037
634.766	4012
635.246	4014
635.727	4024
636.207	4034
636.688	4048
637.168	4045
637.649	4009
638.13	3994
638.611	4028
639.091	4022
639.572	3996
640.053	3978
640.534	4011
641.015	4010
641.496	3964
641.977	4037
642.458	4007
642.939	4020
643.42	4032
643.901	4041
644.382	4088
644.863	4076
645.345	4080
645.826	4087
646.307	4097
646.788	4165
647.27	4095
647.751	4085
648.233	4112
648.714	4023
649.196	4155
649.677	4146
650.159	4151
650.64	4088
651.122	4153
651.603	4118
652.085	4170
652.567	4181
653.049	4144
653.53	4133
654.012	4191
654.494	4120
654.976	4166
655.458	4146
655.94	4142
656.422	4214
656.904	4161
657.386	4116
657.868	4119
658.35	4106
658.833	4134
659.315	4154
659.797	4101
660.279	4104
660.762	4130
661.244	4085
661.726	4028
662.209	4027
662.691	4037
663.174	3976
663.656	3999
664.139	4009
664.621	3961
665.104	3930
665.587	3987
666.069	4017
666.552	4036
667.035	3983
667.517	4007
668	4037
668.483	4029
668.966	4004
669.449	3983
669.932	3984
670.415	4013
670.898	3997
671.381	4008
671.864	4037
672.347	4006
672.83	3993
673.313	4000
673.797	3977
674.28	4060
674.763	4100
675.247	4130
675.73	4107
676.213	4133
676.697	4149
677.18	4160
677.664	4174
678.147	4176
678.631	4187
679.114	4206
679.598	4199
680.082	4247
680.565	4248
681.049	4233
681.533	4225
682.017	4250
682.5	4235
682.984	4252
683.468	4259
683.952	4180
684.436	4269
684.92	4225
685.404	4256
685.888	4299
686.372	4287
686.856	4307
687.341	4354
687.825	4286
688.309	4289
688.793	4273
689.278	4218
689.762	4264
690.246	4247
690.731	4270
691.215	4292
691.7	4171
692.184	4228
692.669	4204
693.153	4243
693.638	4189
694.122	4179
694.607	4203
695.092	4142
695.577	4180
696.061	4107
696.546	4122
697.031	4107
697.516	4121
698.001	4134
698.486	4129
698.971	4201
699.456	4110
699.941	4109
700.426	4099
700.911	4146
701.396	4134
701.881	4176
702.366	4170
702.852	4150
703.337	4162
703.822	4145
704.308	4153
704.793	4172
705.278	4187
705.764	4219
706.249	4176
706.735	4140
707.22	4168
707.706	4094
708.191	4181
708.677	4205
709.163	4175
709.648	4202
710.134	4254
710.62	4208
711.106	4222
711.592	4287
712.077	4255
712.563	4150
713.049	4127
713.535	4217
714.021	4200
714.507	4198
714.993	4158
715.479	4211
715.966	4158
716.452	4161
716.938	4154
717.424	4035
717.91	4123
718.397	4101
718.883	4082
719.369	4106
719.856	4061
720.342	4106
720.829	4056
721.315	4075
721.802	4050
722.288	4076
722.775	3910
723.262	3805
723.748	3969
724.235	3966
724.722	4037
725.208	3982
725.695	3986
726.182	3955
726.669	3885
727.156	3879
727.643	3840
728.13	3833
728.617	3789
729.104	3795
729.591	3774
730.078	3807
730.565	3826
731.052	3772
731.539	3790
732.027	3758
732.514	3708
733.001	3742
733.488	3739
733.976	3713
734.463	3713
734.951	3689
735.438	3736
735.926	3712
736.413	3746
736.901	3727
737.388	3771
737.876	3759
738.364	3736
738.851	3742
739.339	3733
739.827	3764
740.314	3653
740.802	3698
741.29	3705
741.778	3655
742.266	3661
742.754	3671
743.242	3705
743.73	3617
744.218	3607
744.706	3564
745.194	3574
745.682	3568
746.17	3576
746.659	3606
747.147	3523
747.635	3537
748.123	3535
748.612	3493
749.1	3482
749.589	3522
750.077	3501
750.566	3476
751.054	3483
751.543	3503
752.031	3440
752.52	3431
753.008	3355
753.497	3363
753.986	3351
754.474	3333
754.963	3373
755.452	3328
755.941	3316
756.43	3316
756.919	3301
757.408	3282
757.896	3306
758.385	3308
758.875	3273
759.364	3224
759.853	3199
760.342	3141
760.831	3186
761.32	3164
761.809	3111
762.299	3129
762.788	3146
763.277	3126
763.767	3095
764.256	3089
764.745	3040
765.235	3085
765.724	2985
766.214	3031
766.703	3008
767.193	2985
767.683	2991
768.172	2945
768.662	2962
769.152	2944
769.641	2955
770.131	2882
770.621	2932
771.111	2883
771.601	2864
772.09	2835
772.58	2803
773.07	2809
773.56	2848
774.05	2812
774.54	2815
775.031	2806
775.521	2778
776.011	2759
776.501	2771
776.991	2717
777.482	2746
777.972	2680
778.462	2679
778.953	2699
779.443	2684
779.933	2673
780.424	2650
780.914	2664
781.405	2686
781.895	2652
782.386	2647
782.877	2637
783.367	2578
783.858	2551
784.349	2548
784.839	2530
785.33	2532
785.821	2532
786.312	2518
786.803	2530
787.293	2531
787.784	2487
788.275	2445
788.766	2419
789.257	2460
789.748	2409
790.24	2390
790.731	2412
791.222	2375
791.713	2360
792.204	2370
792.696	2298
793.187	2325
793.678	2303
794.169	2247
794.661	2276
795.152	2249
795.644	2231
796.135	2225
796.627	2247
797.118	2211
797.61	2192
798.101	2162
798.593	2194
799.085	2166
799.576	2166
800.068	2129
800.56	2118
801.052	2070
801.544	2076
802.035	2087
802.527	2055
803.019	2030
803.511	2016
804.003	2006
804.495	2012
804.987	1983
805.479	1935
805.971	1963
806.464	1966
806.956	1917
807.448	1912
807.94	1921
808.433	1902
808.925	1895
809.417	1868
809.91	1864
810.402	1809
810.894	1819
811.387	1832
811.879	1805
812.372	1822
812.865	1795
813.357	1788
813.85	1779
814.342	1777
814.835	1775
815.328	1762
815.821	1742
816.313	1731
816.806	1743
817.299	1714
817.792	1723
818.285	1694
818.778	1713
819.271	1720
819.764	1700
820.257	1704
820.75	1712
821.243	1712
821.736	1693
822.229	1709
822.722	1709
823.216	1741
