Data from lamp5bck_noballon_Subt4__10__365.txt Node

Date: Wed Apr 09 10:16:55 CEST 2025
User: fys-lab-0081
Spectrometer: S04999
Trigger mode: 0
Resolution mode: 1024 pixels
Integration Time (sec): 1.000000E-1
Scans to average: 1
Nonlinearity correction enabled: false
Boxcar width: 0
Baseline correction enabled: true
XAxis mode: Wavelengths
Number of Pixels in Spectrum: 1024
>>>>>Begin Spectral Data<<<<<
336.42	2
336.877	-2
337.334	1
337.792	-1
338.249	4
338.706	2
339.164	-2
339.621	-4
340.079	7
340.536	5
340.994	1
341.452	-6
341.909	0
342.367	-4
342.825	1
343.283	1
343.741	1
344.198	3
344.656	2
345.114	-2
345.572	7
346.03	6
346.488	6
346.947	-5
347.405	4
347.863	2
348.321	3
348.779	2
349.238	2
349.696	0
350.154	0
350.613	3
351.071	5
351.53	4
351.988	3
352.447	3
352.905	2
353.364	1
353.823	2
354.282	4
354.74	5
355.199	2
355.658	5
356.117	1
356.576	11
357.035	2
357.494	3
357.953	7
358.412	5
358.871	-3
359.33	5
359.789	2
360.249	4
360.708	6
361.167	4
361.626	8
362.086	4
362.545	2
363.005	10
363.464	-1
363.924	4
364.383	9
364.843	0
365.303	5
365.762	4
366.222	2
366.682	5
367.142	8
367.601	9
368.061	2
368.521	12
368.981	6
369.441	11
369.901	13
370.361	4
370.821	5
371.282	11
371.742	9
372.202	12
372.662	12
373.123	8
373.583	8
374.043	11
374.504	6
374.964	11
375.425	10
375.885	10
376.346	10
376.806	8
377.267	13
377.728	12
378.188	10
378.649	15
379.11	13
379.571	10
380.032	10
380.493	8
380.954	13
381.414	17
381.876	14
382.337	11
382.798	19
383.259	23
383.72	16
384.181	15
384.642	20
385.104	22
385.565	28
386.026	22
386.488	23
386.949	21
387.411	22
387.872	19
388.334	23
388.795	25
389.257	27
389.719	24
390.181	21
390.642	25
391.104	26
391.566	26
392.028	30
392.49	25
392.952	30
393.414	32
393.876	26
394.338	25
394.8	32
395.262	32
395.724	31
396.186	33
396.648	36
397.111	34
397.573	35
398.035	36
398.498	35
398.96	32
399.423	35
399.885	40
400.348	42
400.81	46
401.273	36
401.736	39
402.198	43
402.661	45
403.124	46
403.587	45
404.049	49
404.512	53
404.975	51
405.438	46
405.901	51
406.364	52
406.827	56
407.29	55
407.754	56
408.217	53
408.68	50
409.143	54
409.607	56
410.07	55
410.533	58
410.997	59
411.46	55
411.924	59
412.387	59
412.851	63
413.314	63
413.778	62
414.242	67
414.705	65
415.169	65
415.633	66
416.097	69
416.561	66
417.024	75
417.488	79
417.952	75
418.416	77
418.88	72
419.344	74
419.809	70
420.273	75
420.737	77
421.201	66
421.665	81
422.13	79
422.594	81
423.059	86
423.523	89
423.987	83
424.452	87
424.916	91
425.381	91
425.846	93
426.31	97
426.775	93
427.24	100
427.704	90
428.169	103
428.634	100
429.099	98
429.564	97
430.029	103
430.494	105
430.959	106
431.424	98
431.889	105
432.354	106
432.819	107
433.284	107
433.75	114
434.215	119
434.68	118
435.146	124
435.611	127
436.077	129
436.542	131
437.008	134
437.473	138
437.939	141
438.404	145
438.87	146
439.336	144
439.801	143
440.267	145
440.733	155
441.199	151
441.665	150
442.131	160
442.596	155
443.062	157
443.529	165
443.995	169
444.461	169
444.927	179
445.393	181
445.859	188
446.325	196
446.792	212
447.258	205
447.724	217
448.191	215
448.657	218
449.124	226
449.59	226
450.057	245
450.523	241
450.99	242
451.457	244
451.923	251
452.39	252
452.857	253
453.324	247
453.791	258
454.257	263
454.724	260
455.191	262
455.658	257
456.125	276
456.592	266
457.059	274
457.527	275
457.994	288
458.461	289
458.928	301
459.396	296
459.863	304
460.33	310
460.798	309
461.265	306
461.732	307
462.2	316
462.668	319
463.135	325
463.603	308
464.07	316
464.538	317
465.006	328
465.474	323
465.941	322
466.409	324
466.877	319
467.345	334
467.813	334
468.281	329
468.749	327
469.217	337
469.685	336
470.153	347
470.621	349
471.09	352
471.558	364
472.026	368
472.494	379
472.963	382
473.431	396
473.9	413
474.368	420
474.837	424
475.305	423
475.774	440
476.242	454
476.711	451
477.18	459
477.648	458
478.117	468
478.586	469
479.055	462
479.524	464
479.993	467
480.462	466
480.93	464
481.399	466
481.869	474
482.338	474
482.807	482
483.276	481
483.745	481
484.214	495
484.684	502
485.153	505
485.622	507
486.092	523
486.561	517
487.031	534
487.5	542
487.97	555
488.439	572
488.909	593
489.378	611
489.848	610
490.318	624
490.787	647
491.257	660
491.727	657
492.197	672
492.667	667
493.137	674
493.607	686
494.077	698
494.547	688
495.017	691
495.487	699
495.957	712
496.427	700
496.897	700
497.368	709
497.838	709
498.308	724
498.779	733
499.249	734
499.719	746
500.19	757
500.66	757
501.131	762
501.602	778
502.072	768
502.543	788
503.014	817
503.484	809
503.955	844
504.426	878
504.897	884
505.368	899
505.838	918
506.309	940
506.78	973
507.251	994
507.722	1005
508.194	1032
508.665	1052
509.136	1042
509.607	1078
510.078	1091
510.549	1097
511.021	1125
511.492	1126
511.964	1150
512.435	1169
512.906	1156
513.378	1169
513.849	1207
514.321	1198
514.793	1216
515.264	1230
515.736	1242
516.208	1268
516.679	1272
517.151	1292
517.623	1299
518.095	1330
518.567	1340
519.038	1355
519.51	1350
519.982	1383
520.454	1403
520.927	1426
521.399	1441
521.871	1463
522.343	1472
522.815	1479
523.287	1481
523.76	1493
524.232	1528
524.704	1537
525.177	1509
525.649	1522
526.122	1540
526.594	1510
527.067	1552
527.539	1570
528.012	1554
528.484	1550
528.957	1562
529.43	1555
529.903	1550
530.375	1609
530.848	1589
531.321	1604
531.794	1598
532.267	1638
532.74	1614
533.213	1623
533.686	1652
534.159	1635
534.632	1688
535.105	1699
535.578	1731
536.051	1737
536.525	1745
536.998	1753
537.471	1790
537.945	1765
538.418	1804
538.891	1809
539.365	1832
539.838	1845
540.312	1849
540.786	1859
541.259	1851
541.733	1868
542.206	1877
542.68	1849
543.154	1862
543.628	1866
544.101	1919
544.575	1904
545.049	1850
545.523	1883
545.997	1888
546.471	1902
546.945	1882
547.419	1911
547.893	1851
548.367	1895
548.842	1884
549.316	1889
549.79	1897
550.264	1882
550.739	1917
551.213	1912
551.687	1918
552.162	1941
552.636	1923
553.111	1913
553.585	1972
554.06	1949
554.534	1983
555.009	1973
555.484	2014
555.958	2050
556.433	2049
556.908	2075
557.383	2051
557.858	2107
558.333	2118
558.807	2110
559.282	2115
559.757	2194
560.232	2202
560.708	2176
561.183	2150
561.658	2184
562.133	2191
562.608	2165
563.083	2227
563.559	2172
564.034	2186
564.509	2197
564.985	2198
565.46	2178
565.936	2223
566.411	2230
566.887	2202
567.362	2213
567.838	2219
568.313	2239
568.789	2204
569.265	2210
569.74	2232
570.216	2216
570.692	2259
571.168	2258
571.644	2241
572.12	2242
572.596	2277
573.071	2299
573.547	2353
574.024	2383
574.5	2410
574.976	2425
575.452	2460
575.928	2469
576.404	2489
576.881	2581
577.357	2539
577.833	2550
578.31	2618
578.786	2655
579.262	2711
579.739	2663
580.215	2725
580.692	2728
581.169	2713
581.645	2717
582.122	2802
582.598	2803
583.075	2798
583.552	2831
584.029	2820
584.506	2808
584.982	2774
585.459	2838
585.936	2805
586.413	2837
586.89	2886
587.367	2862
587.844	2937
588.321	2924
588.799	2920
589.276	2886
589.753	2929
590.23	2946
590.707	2939
591.185	2942
591.662	2944
592.139	3003
592.617	3050
593.094	3030
593.572	3036
594.049	3078
594.527	3109
595.004	3136
595.482	3212
595.96	3184
596.437	3192
596.915	3290
597.393	3230
597.871	3296
598.349	3259
598.826	3333
599.304	3332
599.782	3396
600.26	3374
600.738	3474
601.216	3458
601.694	3486
602.173	3507
602.651	3513
603.129	3449
603.607	3485
604.085	3512
604.564	3509
605.042	3513
605.52	3503
605.999	3594
606.477	3507
606.956	3536
607.434	3573.5
607.913	3611
608.391	3593
608.87	3573
609.348	3530
609.827	3553
610.306	3585
610.785	3605
611.263	3609
611.742	3575
612.221	3531
612.7	3572
613.179	3602
613.658	3564
614.137	3625
614.616	3645
615.095	3588
615.574	3655
616.053	3697
616.532	3666
617.011	3672
617.491	3689
617.97	3698
618.449	3756
618.928	3792
619.408	3754
619.887	3799
620.367	3811
620.846	3875
621.326	3847
621.805	3936
622.285	3918
622.764	3945
623.244	3964
623.724	3998
624.203	4011
624.683	3948
625.163	4025
625.643	4024
626.123	3985
626.602	4096
627.082	4020
627.562	4018
628.042	4112
628.522	4062
629.002	4023
629.482	4039
629.963	4038
630.443	4016
630.923	4021
631.403	4044
631.883	4056
632.364	4057
632.844	4034
633.324	4064
633.805	4090
634.285	4041
634.766	4010
635.246	4009
635.727	4014
636.207	4035
636.688	4042
637.168	4044
637.649	4012
638.13	3996
638.611	4027
639.091	4030
639.572	4001
640.053	3978
640.534	4015
641.015	4007
641.496	3951
641.977	4040
642.458	4006
642.939	4009
643.42	4024
643.901	4033
644.382	4091
644.863	4073
645.345	4080
645.826	4087
646.307	4092
646.788	4170
647.27	4091
647.751	4087
648.233	4121
648.714	4028
649.196	4150
649.677	4151
650.159	4146
650.64	4087
651.122	4156
651.603	4115
652.085	4162
652.567	4186
653.049	4133
653.53	4128
654.012	4191
654.494	4117
654.976	4169
655.458	4153
655.94	4146
656.422	4215
656.904	4162
657.386	4122
657.868	4124
658.35	4113
658.833	4137
659.315	4152
659.797	4102
660.279	4105
660.762	4137
661.244	4094
661.726	4032
662.209	4028
662.691	4034
663.174	3975
663.656	4003
664.139	4001
664.621	3949
665.104	3931
665.587	3985
666.069	4026
666.552	4035
667.035	3983
667.517	3995
668	4036
668.483	4034
668.966	4001
669.449	3987
669.932	3982
670.415	4021
670.898	3993
671.381	4012
671.864	4035
672.347	4010
672.83	3994
673.313	4000
673.797	3986
674.28	4071
674.763	4109
675.247	4130
675.73	4107
676.213	4118
676.697	4148
677.18	4152
677.664	4173
678.147	4173
678.631	4178
679.114	4208
679.598	4214
680.082	4253
680.565	4252
681.049	4240
681.533	4225
682.017	4240
682.5	4239
682.984	4255
683.468	4260
683.952	4180
684.436	4269
684.92	4226
685.404	4270
685.888	4301
686.372	4275
686.856	4315
687.341	4356
687.825	4293
688.309	4290
688.793	4279
689.278	4225
689.762	4266
690.246	4255
690.731	4273
691.215	4284
691.7	4171
692.184	4223
692.669	4204
693.153	4242
693.638	4185
694.122	4183
694.607	4202
695.092	4142
695.577	4187
696.061	4100
696.546	4119
697.031	4106
697.516	4128
698.001	4146
698.486	4127
698.971	4207
699.456	4113
699.941	4104
700.426	4104
700.911	4161
701.396	4147
701.881	4183
702.366	4166
702.852	4149
703.337	4178
703.822	4147
704.308	4147
704.793	4183
705.278	4188
705.764	4211
706.249	4184
706.735	4143
707.22	4173
707.706	4098
708.191	4185
708.677	4211
709.163	4172
709.648	4195
710.134	4253
710.62	4202
711.106	4216
711.592	4281
712.077	4265
712.563	4141
713.049	4133
713.535	4219
714.021	4197
714.507	4184
714.993	4160
715.479	4213
715.966	4162
716.452	4158
716.938	4161
717.424	4038
717.91	4125
718.397	4105
718.883	4088
719.369	4105
719.856	4073
720.342	4108
720.829	4059
721.315	4075
721.802	4049
722.288	4073
722.775	3915
723.262	3804
723.748	3970
724.235	3960
724.722	4040
725.208	3988
725.695	3980
726.182	3958
726.669	3881
727.156	3890
727.643	3847
728.13	3826
728.617	3795
729.104	3795
729.591	3772
730.078	3808
730.565	3825
731.052	3767
731.539	3790
732.027	3764
732.514	3708
733.001	3745
733.488	3717
733.976	3711
734.463	3707
734.951	3686
735.438	3736
735.926	3705
736.413	3750
736.901	3728
737.388	3772
737.876	3761
738.364	3740
738.851	3742
739.339	3732
739.827	3769
740.314	3667
740.802	3689
741.29	3706
741.778	3653
742.266	3657
742.754	3676
743.242	3707
743.73	3616
744.218	3603
744.706	3562
745.194	3587
745.682	3561
746.17	3582
746.659	3607
747.147	3527
747.635	3539
748.123	3532
748.612	3490
749.1	3484
749.589	3527
750.077	3497
750.566	3475
751.054	3487
751.543	3499
752.031	3448
752.52	3438
753.008	3357
753.497	3366
753.986	3345
754.474	3332
754.963	3371
755.452	3334
755.941	3321
756.43	3316
756.919	3300
757.408	3289
757.896	3307
758.385	3323
758.875	3262
759.364	3232
759.853	3201
760.342	3141
760.831	3199
761.32	3165
761.809	3117
762.299	3134
762.788	3141
763.277	3131
763.767	3093
764.256	3091
764.745	3039
765.235	3078
765.724	2984
766.214	3040
766.703	3014
767.193	2984
767.683	2996
768.172	2945
768.662	2964
769.152	2946
769.641	2952
770.131	2884
770.621	2923
771.111	2883
771.601	2864
772.09	2832
772.58	2804
773.07	2816
773.56	2839
774.05	2814
774.54	2817
775.031	2813
775.521	2783
776.011	2759
776.501	2775
776.991	2719
777.482	2744
777.972	2673
778.462	2675
778.953	2694
779.443	2678
779.933	2670
780.424	2640
780.914	2668
781.405	2680
781.895	2656
782.386	2651
782.877	2640
783.367	2575
783.858	2554
784.349	2556
784.839	2521
785.33	2532
785.821	2520
786.312	2511
786.803	2525
787.293	2547
787.784	2493
788.275	2453
788.766	2418
789.257	2464
789.748	2410
790.24	2396
790.731	2413
791.222	2368
791.713	2359
792.204	2362
792.696	2305
793.187	2330
793.678	2309
794.169	2242
794.661	2268
795.152	2245
795.644	2231
796.135	2226
796.627	2256
797.118	2206
797.61	2196
798.101	2172
798.593	2190
799.085	2165
799.576	2175
800.068	2132
800.56	2127
801.052	2078
801.544	2069
802.035	2087
802.527	2055
803.019	2034
803.511	2015
804.003	2002
804.495	2012
804.987	1984
805.479	1938
805.971	1959
806.464	1962
806.956	1916
807.448	1915
807.94	1921
808.433	1902
808.925	1899
809.417	1877
809.91	1865
810.402	1803
810.894	1819
811.387	1833
811.879	1807
812.372	1819
812.865	1791
813.357	1793
813.85	1781
814.342	1769
814.835	1776
815.328	1766
815.821	1742
816.313	1729
816.806	1739
817.299	1712
817.792	1721
818.285	1697
818.778	1720
819.271	1723
819.764	1699
820.257	1705
820.75	1708
821.243	1716
821.736	1697
822.229	1707
822.722	1707
823.216	1745
