Data from lamp5bck_noballon_Subt4__34__389.txt Node

Date: Wed Apr 09 10:16:58 CEST 2025
User: fys-lab-0081
Spectrometer: S04999
Trigger mode: 0
Resolution mode: 1024 pixels
Integration Time (sec): 1.000000E-1
Scans to average: 1
Nonlinearity correction enabled: false
Boxcar width: 0
Baseline correction enabled: true
XAxis mode: Wavelengths
Number of Pixels in Spectrum: 1024
>>>>>Begin Spectral Data<<<<<
336.42	4
336.877	3
337.334	3
337.792	-2
338.249	6
338.706	2
339.164	-3
339.621	-1
340.079	7
340.536	5
340.994	10
341.452	0
341.909	3
342.367	-3
342.825	-1
343.283	1
343.741	4
344.198	1
344.656	3
345.114	-3
345.572	1
346.03	6
346.488	5
346.947	-2
347.405	1
347.863	2
348.321	5
348.779	-2
349.238	3
349.696	2
350.154	2
350.613	0
351.071	0
351.53	4
351.988	1
352.447	0
352.905	3
353.364	-1
353.823	4
354.282	0
354.74	-1
355.199	1
355.658	5
356.117	3
356.576	8
357.035	1
357.494	2
357.953	10
358.412	4
358.871	-3
359.33	3
359.789	6
360.249	0
360.708	7
361.167	3
361.626	8
362.086	2
362.545	4
363.005	9
363.464	-2
363.924	3
364.383	7
364.843	4
365.303	5
365.762	4
366.222	2
366.682	4
367.142	8
367.601	5
368.061	5
368.521	8
368.981	8
369.441	8
369.901	12
370.361	7
370.821	7
371.282	12
371.742	10
372.202	9
372.662	15
373.123	9
373.583	7
374.043	8
374.504	4
374.964	7
375.425	9
375.885	12
376.346	11
376.806	9
377.267	11
377.728	15
378.188	8
378.649	11
379.11	13
379.571	11
380.032	12
380.493	7
380.954	13
381.414	9
381.876	13
382.337	13
382.798	13
383.259	22
383.72	16
384.181	18
384.642	16
385.104	22
385.565	29
386.026	21
386.488	17
386.949	19
387.411	21
387.872	18
388.334	21
388.795	19
389.257	25
389.719	28
390.181	23
390.642	28
391.104	26
391.566	21
392.028	32
392.49	25
392.952	28
393.414	29
393.876	31
394.338	26
394.8	30
395.262	32
395.724	30
396.186	36
396.648	33
397.111	33
397.573	39
398.035	37
398.498	33
398.96	33
399.423	40
399.885	39
400.348	39
400.81	44
401.273	36
401.736	43
402.198	44
402.661	43
403.124	41
403.587	47
404.049	49
404.512	51
404.975	51
405.438	46
405.901	49
406.364	55
406.827	52
407.29	52
407.754	55
408.217	54
408.68	49
409.143	49
409.607	59
410.07	51
410.533	57
410.997	57
411.46	55
411.924	61
412.387	60
412.851	60
413.314	63
413.778	59
414.242	67
414.705	68
415.169	69
415.633	68
416.097	68
416.561	69
417.024	74
417.488	74
417.952	74
418.416	73
418.88	71
419.344	77
419.809	76
420.273	78
420.737	74
421.201	74
421.665	79
422.13	79
422.594	81
423.059	85
423.523	85
423.987	82
424.452	84
424.916	93
425.381	98
425.846	91
426.31	94
426.775	95
427.24	102
427.704	93
428.169	100
428.634	105
429.099	99
429.564	100
430.029	100
430.494	105
430.959	107
431.424	102
431.889	104
432.354	105
432.819	106
433.284	110
433.75	111
434.215	117
434.68	116
435.146	120
435.611	128
436.077	131
436.542	134
437.008	138
437.473	142
437.939	144
438.404	144
438.87	150
439.336	143
439.801	140
440.267	147
440.733	153
441.199	151
441.665	152
442.131	160
442.596	157
443.062	156
443.529	169
443.995	164
444.461	169
444.927	184
445.393	183
445.859	189
446.325	192
446.792	214
447.258	207
447.724	212
448.191	219
448.657	221
449.124	233
449.59	224
450.057	243
450.523	240
450.99	244
451.457	244
451.923	246
452.39	252
452.857	252
453.324	252
453.791	262
454.257	258
454.724	262
455.191	255
455.658	262
456.125	274
456.592	267
457.059	277
457.527	282
457.994	290
458.461	292
458.928	299
459.396	295
459.863	307
460.33	304
460.798	305
461.265	307
461.732	314
462.2	319
462.668	319
463.135	322
463.603	311
464.07	317
464.538	317
465.006	329
465.474	320
465.941	322
466.409	329
466.877	313
467.345	335
467.813	332
468.281	331
468.749	330
469.217	337
469.685	341
470.153	347
470.621	345
471.09	350
471.558	364
472.026	369
472.494	382
472.963	388
473.431	398
473.9	405
474.368	415
474.837	422
475.305	426
475.774	443
476.242	452
476.711	450
477.18	462
477.648	465
478.117	466
478.586	462
479.055	466
479.524	466
479.993	470
480.462	469
480.93	476
481.399	474
481.869	473
482.338	478
482.807	481
483.276	485
483.745	485
484.214	495
484.684	502
485.153	506
485.622	508
486.092	525
486.561	520
487.031	533
487.5	546
487.97	558
488.439	576
488.909	586
489.378	604
489.848	611
490.318	625
490.787	650
491.257	660
491.727	659
492.197	675
492.667	673
493.137	676
493.607	683
494.077	696
494.547	684
495.017	690
495.487	698
495.957	713
496.427	706
496.897	704
497.368	710
497.838	711
498.308	725
498.779	727
499.249	744
499.719	748
500.19	756
500.66	760
501.131	765
501.602	773
502.072	770
502.543	791
503.014	817
503.484	820
503.955	843
504.426	879
504.897	884
505.368	898
505.838	916
506.309	941
506.78	971
507.251	990
507.722	1009
508.194	1032
508.665	1044
509.136	1045
509.607	1083
510.078	1095
510.549	1103
511.021	1124
511.492	1134
511.964	1151
512.435	1166
512.906	1161
513.378	1174
513.849	1195
514.321	1203
514.793	1216
515.264	1230
515.736	1243
516.208	1273
516.679	1275
517.151	1289
517.623	1300
518.095	1322
518.567	1340
519.038	1362
519.51	1355
519.982	1383
520.454	1404
520.927	1425
521.399	1450
521.871	1469
522.343	1469
522.815	1487
523.287	1482
523.76	1500
524.232	1522
524.704	1536
525.177	1517
525.649	1524
526.122	1544
526.594	1522
527.067	1551
527.539	1571
528.012	1566
528.484	1557
528.957	1558
529.43	1563
529.903	1546
530.375	1610
530.848	1584
531.321	1604
531.794	1604
532.267	1640
532.74	1615
533.213	1620
533.686	1653
534.159	1643
534.632	1693
535.105	1697
535.578	1730
536.051	1740
536.525	1747
536.998	1752
537.471	1783
537.945	1768
538.418	1807
538.891	1816
539.365	1838
539.838	1844
540.312	1846
540.786	1864
541.259	1850
541.733	1873
542.206	1881
542.68	1853
543.154	1856
543.628	1868
544.101	1923
544.575	1907
545.049	1851
545.523	1885
545.997	1888
546.471	1908
546.945	1884
547.419	1921
547.893	1853
548.367	1894
548.842	1880
549.316	1881
549.79	1903
550.264	1889
550.739	1920
551.213	1911
551.687	1917
552.162	1945
552.636	1927
553.111	1922
553.585	1978
554.06	1949
554.534	1984
555.009	1974
555.484	2014
555.958	2047
556.433	2055
556.908	2071
557.383	2057
557.858	2114
558.333	2125
558.807	2115
559.282	2129
559.757	2187
560.232	2202
560.708	2168
561.183	2157
561.658	2188
562.133	2190
562.608	2170
563.083	2230
563.559	2170
564.034	2189
564.509	2192
564.985	2198
565.46	2178
565.936	2224
566.411	2224
566.887	2202
567.362	2213
567.838	2222
568.313	2247
568.789	2206
569.265	2205
569.74	2233
570.216	2222
570.692	2258
571.168	2255
571.644	2249
572.12	2242
572.596	2280
573.071	2294
573.547	2351
574.024	2383
574.5	2418
574.976	2430
575.452	2462
575.928	2480
576.404	2493
576.881	2581
577.357	2534
577.833	2547
578.31	2621
578.786	2664
579.262	2714
579.739	2668
580.215	2736
580.692	2725
581.169	2717
581.645	2726
582.122	2806
582.598	2800
583.075	2805
583.552	2825
584.029	2824
584.506	2806
584.982	2775
585.459	2836
585.936	2805
586.413	2840
586.89	2885
587.367	2866
587.844	2940
588.321	2916
588.799	2913
589.276	2879
589.753	2925
590.23	2946
590.707	2949
591.185	2937
591.662	2945
592.139	2997
592.617	3043
593.094	3037
593.572	3039
594.049	3076
594.527	3118
595.004	3137
595.482	3217
595.96	3184
596.437	3196
596.915	3292
597.393	3230
597.871	3297
598.349	3258
598.826	3336
599.304	3328
599.782	3398
600.26	3380
600.738	3466
601.216	3455
601.694	3492
602.173	3523
602.651	3517
603.129	3447
603.607	3490
604.085	3510
604.564	3513
605.042	3516
605.52	3504
605.999	3598
606.477	3519
606.956	3537
607.434	3574.5
607.913	3612
608.391	3599
608.87	3579
609.348	3543
609.827	3555
610.306	3585
610.785	3606
611.263	3615
611.742	3578
612.221	3533
612.7	3575
613.179	3595
613.658	3573
614.137	3634
614.616	3654
615.095	3580
615.574	3648
616.053	3703
616.532	3666
617.011	3672
617.491	3693
617.97	3699
618.449	3766
618.928	3796
619.408	3761
619.887	3800
620.367	3820
620.846	3875
621.326	3852
621.805	3945
622.285	3922
622.764	3946
623.244	3968
623.724	4005
624.203	4021
624.683	3952
625.163	4028
625.643	4033
626.123	3996
626.602	4097
627.082	4020
627.562	4014
628.042	4112
628.522	4059
629.002	4034
629.482	4040
629.963	4035
630.443	4019
630.923	4029
631.403	4050
631.883	4052
632.364	4072
632.844	4039
633.324	4065
633.805	4092
634.285	4043
634.766	4018
635.246	4020
635.727	4016
636.207	4034
636.688	4048
637.168	4044
637.649	4020
638.13	3999
638.611	4029
639.091	4023
639.572	4001
640.053	3983
640.534	4021
641.015	4012
641.496	3958
641.977	4035
642.458	3994
642.939	4021
643.42	4029
643.901	4033
644.382	4095
644.863	4084
645.345	4079
645.826	4087
646.307	4101
646.788	4169
647.27	4093
647.751	4098
648.233	4121
648.714	4036
649.196	4155
649.677	4148
650.159	4151
650.64	4090
651.122	4168
651.603	4118
652.085	4176
652.567	4190
653.049	4137
653.53	4130
654.012	4193
654.494	4134
654.976	4167
655.458	4150
655.94	4137
656.422	4213
656.904	4166
657.386	4119
657.868	4131
658.35	4107
658.833	4139
659.315	4159
659.797	4103
660.279	4108
660.762	4142
661.244	4096
661.726	4027
662.209	4039
662.691	4037
663.174	3976
663.656	4015
664.139	4007
664.621	3957
665.104	3932
665.587	3994
666.069	4029
666.552	4040
667.035	3990
667.517	3999
668	4044
668.483	4039
668.966	4004
669.449	3989
669.932	3989
670.415	4029
670.898	3999
671.381	4019
671.864	4036
672.347	3999
672.83	4003
673.313	4012
673.797	3978
674.28	4069
674.763	4112
675.247	4144
675.73	4116
676.213	4134
676.697	4152
677.18	4164
677.664	4179
678.147	4171
678.631	4191
679.114	4207
679.598	4208
680.082	4249
680.565	4257
681.049	4241
681.533	4225
682.017	4259
682.5	4239
682.984	4261
683.468	4257
683.952	4193
684.436	4280
684.92	4236
685.404	4264
685.888	4301
686.372	4279
686.856	4310
687.341	4358
687.825	4294
688.309	4299
688.793	4276
689.278	4228
689.762	4274
690.246	4260
690.731	4273
691.215	4291
691.7	4186
692.184	4226
692.669	4217
693.153	4251
693.638	4192
694.122	4175
694.607	4204
695.092	4145
695.577	4192
696.061	4113
696.546	4124
697.031	4111
697.516	4139
698.001	4137
698.486	4131
698.971	4199
699.456	4112
699.941	4107
700.426	4100
700.911	4156
701.396	4129
701.881	4188
702.366	4169
702.852	4153
703.337	4172
703.822	4158
704.308	4153
704.793	4174
705.278	4196
705.764	4211
706.249	4179
706.735	4150
707.22	4166
707.706	4097
708.191	4188
708.677	4210
709.163	4174
709.648	4197
710.134	4255
710.62	4212
711.106	4226
711.592	4294
712.077	4268
712.563	4153
713.049	4129
713.535	4222
714.021	4204
714.507	4192
714.993	4164
715.479	4218
715.966	4163
716.452	4158
716.938	4157
717.424	4041
717.91	4125
718.397	4106
718.883	4089
719.369	4110
719.856	4071
720.342	4117
720.829	4068
721.315	4081
721.802	4059
722.288	4081
722.775	3915
723.262	3808
723.748	3977
724.235	3969
724.722	4043
725.208	3984
725.695	3979
726.182	3959
726.669	3889
727.156	3894
727.643	3845
728.13	3835
728.617	3792
729.104	3799
729.591	3780
730.078	3815
730.565	3828
731.052	3775
731.539	3793
732.027	3767
732.514	3715
733.001	3753
733.488	3726
733.976	3717
734.463	3710
734.951	3702
735.438	3751
735.926	3709
736.413	3750
736.901	3713
737.388	3773
737.876	3764
738.364	3733
738.851	3748
739.339	3730
739.827	3769
740.314	3659
740.802	3690
741.29	3701
741.778	3646
742.266	3652
742.754	3670
743.242	3701
743.73	3622
744.218	3608
744.706	3567
745.194	3578
745.682	3564
746.17	3578
746.659	3606
747.147	3524
747.635	3545
748.123	3542
748.612	3493
749.1	3478
749.589	3532
750.077	3495
750.566	3483
751.054	3492
751.543	3498
752.031	3442
752.52	3428
753.008	3357
753.497	3370
753.986	3350
754.474	3331
754.963	3377
755.452	3331
755.941	3318
756.43	3317
756.919	3304
757.408	3287
757.896	3308
758.385	3315
758.875	3267
759.364	3233
759.853	3199
760.342	3145
760.831	3192
761.32	3168
761.809	3114
762.299	3132
762.788	3141
763.277	3137
763.767	3092
764.256	3097
764.745	3041
765.235	3077
765.724	2991
766.214	3037
766.703	3021
767.193	2992
767.683	3001
768.172	2945
768.662	2961
769.152	2951
769.641	2955
770.131	2887
770.621	2933
771.111	2879
771.601	2863
772.09	2837
772.58	2800
773.07	2809
773.56	2839
774.05	2817
774.54	2816
775.031	2806
775.521	2786
776.011	2761
776.501	2772
776.991	2713
777.482	2745
777.972	2674
778.462	2678
778.953	2698
779.443	2689
779.933	2673
780.424	2648
780.914	2663
781.405	2683
781.895	2654
782.386	2651
782.877	2639
783.367	2578
783.858	2558
784.349	2552
784.839	2533
785.33	2533
785.821	2527
786.312	2521
786.803	2533
787.293	2533
787.784	2493
788.275	2457
788.766	2426
789.257	2463
789.748	2411
790.24	2396
790.731	2416
791.222	2371
791.713	2360
792.204	2370
792.696	2303
793.187	2323
793.678	2305
794.169	2247
794.661	2270
795.152	2247
795.644	2226
796.135	2224
796.627	2252
797.118	2210
797.61	2196
798.101	2169
798.593	2192
799.085	2157
799.576	2174
800.068	2132
800.56	2123
801.052	2075
801.544	2071
802.035	2086
802.527	2048
803.019	2033
803.511	2008
804.003	1996
804.495	2009
804.987	1986
805.479	1938
805.971	1964
806.464	1960
806.956	1919
807.448	1919
807.94	1913
808.433	1905
808.925	1899
809.417	1877
809.91	1860
810.402	1815
810.894	1818
811.387	1826
811.879	1811
812.372	1819
812.865	1788
813.357	1789
813.85	1782
814.342	1770
814.835	1776
815.328	1766
815.821	1738
816.313	1737
816.806	1737
817.299	1716
817.792	1726
818.285	1696
818.778	1720
819.271	1720
819.764	1704
820.257	1702
820.75	1718
821.243	1708
821.736	1698
822.229	1711
822.722	1704
823.216	1742
