Data from lamp5bck_noballon_Subt4__43__398.txt Node

Date: Wed Apr 09 10:16:59 CEST 2025
User: fys-lab-0081
Spectrometer: S04999
Trigger mode: 0
Resolution mode: 1024 pixels
Integration Time (sec): 1.000000E-1
Scans to average: 1
Nonlinearity correction enabled: false
Boxcar width: 0
Baseline correction enabled: true
XAxis mode: Wavelengths
Number of Pixels in Spectrum: 1024
>>>>>Begin Spectral Data<<<<<
336.42	2
336.877	2
337.334	3
337.792	-1
338.249	3
338.706	-5
339.164	0
339.621	4
340.079	4
340.536	6
340.994	7
341.452	-3
341.909	5
342.367	-3
342.825	-3
343.283	2
343.741	0
344.198	2
344.656	-3
345.114	1
345.572	3
346.03	3
346.488	3
346.947	-4
347.405	5
347.863	3
348.321	6
348.779	1
349.238	0
349.696	2
350.154	1
350.613	-1
351.071	6
351.53	1
351.988	3
352.447	2
352.905	3
353.364	2
353.823	4
354.282	3
354.74	4
355.199	4
355.658	7
356.117	2
356.576	4
357.035	0
357.494	5
357.953	8
358.412	10
358.871	-3
359.33	6
359.789	4
360.249	3
360.708	7
361.167	4
361.626	7
362.086	3
362.545	2
363.005	10
363.464	0
363.924	7
364.383	10
364.843	6
365.303	8
365.762	5
366.222	2
366.682	6
367.142	9
367.601	7
368.061	8
368.521	8
368.981	8
369.441	9
369.901	16
370.361	6
370.821	7
371.282	8
371.742	11
372.202	7
372.662	14
373.123	8
373.583	8
374.043	6
374.504	4
374.964	7
375.425	9
375.885	7
376.346	14
376.806	6
377.267	13
377.728	15
378.188	18
378.649	12
379.11	14
379.571	11
380.032	8
380.493	13
380.954	18
381.414	12
381.876	13
382.337	12
382.798	15
383.259	21
383.72	16
384.181	17
384.642	12
385.104	20
385.565	29
386.026	18
386.488	16
386.949	23
387.411	24
387.872	22
388.334	25
388.795	21
389.257	26
389.719	27
390.181	23
390.642	29
391.104	25
391.566	24
392.028	32
392.49	28
392.952	27
393.414	32
393.876	30
394.338	29
394.8	28
395.262	34
395.724	31
396.186	35
396.648	36
397.111	32
397.573	34
398.035	33
398.498	38
398.96	34
399.423	38
399.885	41
400.348	39
400.81	45
401.273	37
401.736	40
402.198	44
402.661	41
403.124	47
403.587	46
404.049	47
404.512	48
404.975	53
405.438	51
405.901	50
406.364	53
406.827	52
407.29	54
407.754	59
408.217	56
408.68	50
409.143	51
409.607	58
410.07	56
410.533	58
410.997	58
411.46	57
411.924	58
412.387	56
412.851	59
413.314	61
413.778	65
414.242	68
414.705	71
415.169	66
415.633	65
416.097	68
416.561	70
417.024	71
417.488	76
417.952	73
418.416	83
418.88	76
419.344	73
419.809	72
420.273	73
420.737	74
421.201	65
421.665	80
422.13	80
422.594	86
423.059	83
423.523	84
423.987	80
424.452	84
424.916	92
425.381	93
425.846	92
426.31	91
426.775	94
427.24	98
427.704	92
428.169	101
428.634	105
429.099	100
429.564	99
430.029	100
430.494	103
430.959	109
431.424	103
431.889	103
432.354	106
432.819	110
433.284	107
433.75	113
434.215	116
434.68	119
435.146	122
435.611	128
436.077	129
436.542	136
437.008	133
437.473	143
437.939	142
438.404	142
438.87	147
439.336	136
439.801	143
440.267	148
440.733	151
441.199	153
441.665	151
442.131	160
442.596	156
443.062	157
443.529	164
443.995	165
444.461	169
444.927	182
445.393	178
445.859	188
446.325	195
446.792	215
447.258	209
447.724	212
448.191	220
448.657	220
449.124	233
449.59	225
450.057	241
450.523	243
450.99	241
451.457	247
451.923	248
452.39	246
452.857	257
453.324	247
453.791	260
454.257	259
454.724	262
455.191	263
455.658	259
456.125	274
456.592	272
457.059	274
457.527	281
457.994	290
458.461	293
458.928	299
459.396	300
459.863	309
460.33	308
460.798	302
461.265	311
461.732	313
462.2	315
462.668	319
463.135	321
463.603	317
464.07	317
464.538	318
465.006	326
465.474	318
465.941	324
466.409	328
466.877	319
467.345	330
467.813	327
468.281	330
468.749	333
469.217	341
469.685	338
470.153	343
470.621	348
471.09	353
471.558	365
472.026	367
472.494	376
472.963	387
473.431	395
473.9	405
474.368	414
474.837	424
475.305	428
475.774	438
476.242	453
476.711	453
477.18	462
477.648	464
478.117	469
478.586	464
479.055	461
479.524	469
479.993	468
480.462	467
480.93	473
481.399	476
481.869	475
482.338	478
482.807	484
483.276	479
483.745	486
484.214	495
484.684	505
485.153	508
485.622	509
486.092	524
486.561	520
487.031	533
487.5	542
487.97	559
488.439	572
488.909	590
489.378	606
489.848	609
490.318	623
490.787	645
491.257	658
491.727	657
492.197	675
492.667	673
493.137	676
493.607	683
494.077	698
494.547	688
495.017	696
495.487	698
495.957	715
496.427	701
496.897	704
497.368	710
497.838	706
498.308	721
498.779	731
499.249	736
499.719	746
500.19	753
500.66	754
501.131	759
501.602	773
502.072	771
502.543	788
503.014	817
503.484	819
503.955	845
504.426	878
504.897	887
505.368	901
505.838	916
506.309	940
506.78	969
507.251	993
507.722	1001
508.194	1038
508.665	1046
509.136	1044
509.607	1082
510.078	1098
510.549	1097
511.021	1123
511.492	1124
511.964	1152
512.435	1170
512.906	1156
513.378	1180
513.849	1200
514.321	1207
514.793	1216
515.264	1229
515.736	1247
516.208	1265
516.679	1277
517.151	1289
517.623	1300
518.095	1329
518.567	1338
519.038	1360
519.51	1359
519.982	1385
520.454	1403
520.927	1423
521.399	1444
521.871	1470
522.343	1474
522.815	1486
523.287	1480
523.76	1499
524.232	1528
524.704	1536
525.177	1521
525.649	1521
526.122	1537
526.594	1515
527.067	1546
527.539	1571
528.012	1560
528.484	1556
528.957	1559
529.43	1558
529.903	1547
530.375	1614
530.848	1589
531.321	1606
531.794	1605
532.267	1638
532.74	1621
533.213	1622
533.686	1655
534.159	1638
534.632	1683
535.105	1701
535.578	1737
536.051	1733
536.525	1744
536.998	1747
537.471	1787
537.945	1764
538.418	1800
538.891	1818
539.365	1831
539.838	1846
540.312	1851
540.786	1863
541.259	1846
541.733	1867
542.206	1879
542.68	1857
543.154	1863
543.628	1872
544.101	1920
544.575	1907
545.049	1851
545.523	1880
545.997	1894
546.471	1909
546.945	1888
547.419	1907
547.893	1847
548.367	1897
548.842	1880
549.316	1884
549.79	1902
550.264	1892
550.739	1917
551.213	1912
551.687	1920
552.162	1941
552.636	1929
553.111	1923
553.585	1975
554.06	1951
554.534	1985
555.009	1979
555.484	2009
555.958	2046
556.433	2053
556.908	2076
557.383	2063
557.858	2114
558.333	2126
558.807	2112
559.282	2121
559.757	2188
560.232	2205
560.708	2171
561.183	2151
561.658	2183
562.133	2190
562.608	2175
563.083	2226
563.559	2171
564.034	2195
564.509	2192
564.985	2193
565.46	2181
565.936	2226
566.411	2226
566.887	2198
567.362	2214
567.838	2221
568.313	2245
568.789	2202
569.265	2202
569.74	2233
570.216	2222
570.692	2259
571.168	2262
571.644	2245
572.12	2244
572.596	2282
573.071	2290
573.547	2361
574.024	2383
574.5	2412
574.976	2438
575.452	2466
575.928	2481
576.404	2484
576.881	2584
577.357	2537
577.833	2552
578.31	2615
578.786	2655
579.262	2711
579.739	2666
580.215	2733
580.692	2716
581.169	2715
581.645	2719
582.122	2806
582.598	2799
583.075	2796
583.552	2828
584.029	2817
584.506	2807
584.982	2779
585.459	2833
585.936	2804
586.413	2842
586.89	2900
587.367	2871
587.844	2935
588.321	2921
588.799	2919
589.276	2880
589.753	2927
590.23	2955
590.707	2950
591.185	2942
591.662	2947
592.139	2992
592.617	3040
593.094	3031
593.572	3044
594.049	3078
594.527	3119
595.004	3142
595.482	3218
595.96	3187
596.437	3200
596.915	3297
597.393	3228
597.871	3299
598.349	3265
598.826	3333
599.304	3330
599.782	3403
600.26	3375
600.738	3464
601.216	3462
601.694	3494
602.173	3518
602.651	3511
603.129	3455
603.607	3497
604.085	3515
604.564	3509
605.042	3512
605.52	3504
605.999	3602
606.477	3516
606.956	3528
607.434	3571.5
607.913	3615
608.391	3603
608.87	3576
609.348	3535
609.827	3557
610.306	3589
610.785	3607
611.263	3622
611.742	3577
612.221	3531
612.7	3582
613.179	3605
613.658	3559
614.137	3630
614.616	3647
615.095	3583
615.574	3651
616.053	3699
616.532	3660
617.011	3672
617.491	3691
617.97	3701
618.449	3772
618.928	3795
619.408	3761
619.887	3806
620.367	3824
620.846	3882
621.326	3855
621.805	3934
622.285	3914
622.764	3950
623.244	3965
623.724	4005
624.203	4019
624.683	3950
625.163	4028
625.643	4037
626.123	3996
626.602	4098
627.082	4018
627.562	4015
628.042	4113
628.522	4060
629.002	4029
629.482	4037
629.963	4041
630.443	4015
630.923	4025
631.403	4057
631.883	4050
632.364	4069
632.844	4034
633.324	4072
633.805	4090
634.285	4040
634.766	4020
635.246	4024
635.727	4013
636.207	4032
636.688	4048
637.168	4048
637.649	4018
638.13	4002
638.611	4037
639.091	4021
639.572	4003
640.053	3978
640.534	4022
641.015	4018
641.496	3957
641.977	4046
642.458	4000
642.939	4023
643.42	4032
643.901	4044
644.382	4084
644.863	4086
645.345	4086
645.826	4077
646.307	4093
646.788	4165
647.27	4093
647.751	4087
648.233	4122
648.714	4037
649.196	4150
649.677	4155
650.159	4145
650.64	4090
651.122	4166
651.603	4123
652.085	4173
652.567	4184
653.049	4138
653.53	4139
654.012	4192
654.494	4122
654.976	4166
655.458	4143
655.94	4145
656.422	4220
656.904	4164
657.386	4116
657.868	4127
658.35	4122
658.833	4139
659.315	4152
659.797	4113
660.279	4100
660.762	4135
661.244	4097
661.726	4035
662.209	4042
662.691	4032
663.174	3973
663.656	4005
664.139	4007
664.621	3961
665.104	3943
665.587	3993
666.069	4031
666.552	4038
667.035	3991
667.517	4000
668	4040
668.483	4033
668.966	3999
669.449	3991
669.932	3984
670.415	4022
670.898	3989
671.381	4012
671.864	4040
672.347	4008
672.83	4018
673.313	4012
673.797	3980
674.28	4072
674.763	4097
675.247	4137
675.73	4113
676.213	4132
676.697	4158
677.18	4159
677.664	4171
678.147	4171
678.631	4186
679.114	4206
679.598	4207
680.082	4247
680.565	4253
681.049	4241
681.533	4236
682.017	4260
682.5	4236
682.984	4260
683.468	4265
683.952	4178
684.436	4269
684.92	4240
685.404	4273
685.888	4296
686.372	4285
686.856	4315
687.341	4362
687.825	4290
688.309	4305
688.793	4278
689.278	4231
689.762	4273
690.246	4254
690.731	4266
691.215	4297
691.7	4171
692.184	4232
692.669	4212
693.153	4247
693.638	4193
694.122	4186
694.607	4203
695.092	4148
695.577	4190
696.061	4112
696.546	4115
697.031	4113
697.516	4139
698.001	4146
698.486	4131
698.971	4193
699.456	4122
699.941	4115
700.426	4104
700.911	4145
701.396	4129
701.881	4184
702.366	4172
702.852	4152
703.337	4174
703.822	4153
704.308	4154
704.793	4189
705.278	4194
705.764	4212
706.249	4179
706.735	4154
707.22	4172
707.706	4096
708.191	4182
708.677	4208
709.163	4174
709.648	4203
710.134	4266
710.62	4213
711.106	4224
711.592	4289
712.077	4262
712.563	4153
713.049	4129
713.535	4220
714.021	4194
714.507	4198
714.993	4173
715.479	4209
715.966	4164
716.452	4161
716.938	4159
717.424	4048
717.91	4128
718.397	4104
718.883	4095
719.369	4110
719.856	4071
720.342	4114
720.829	4061
721.315	4086
721.802	4053
722.288	4085
722.775	3916
723.262	3812
723.748	3976
724.235	3961
724.722	4044
725.208	3991
725.695	3981
726.182	3955
726.669	3891
727.156	3894
727.643	3841
728.13	3834
728.617	3793
729.104	3804
729.591	3776
730.078	3816
730.565	3823
731.052	3780
731.539	3788
732.027	3766
732.514	3706
733.001	3752
733.488	3735
733.976	3721
734.463	3705
734.951	3705
735.438	3741
735.926	3705
736.413	3748
736.901	3725
737.388	3773
737.876	3762
738.364	3734
738.851	3747
739.339	3729
739.827	3767
740.314	3658
740.802	3698
741.29	3708
741.778	3651
742.266	3664
742.754	3668
743.242	3706
743.73	3619
744.218	3615
744.706	3571
745.194	3590
745.682	3574
746.17	3584
746.659	3615
747.147	3528
747.635	3538
748.123	3539
748.612	3494
749.1	3487
749.589	3522
750.077	3496
750.566	3481
751.054	3493
751.543	3507
752.031	3447
752.52	3434
753.008	3352
753.497	3365
753.986	3352
754.474	3330
754.963	3377
755.452	3331
755.941	3322
756.43	3315
756.919	3311
757.408	3287
757.896	3302
758.385	3310
758.875	3266
759.364	3232
759.853	3193
760.342	3141
760.831	3201
761.32	3165
761.809	3119
762.299	3128
762.788	3143
763.277	3134
763.767	3093
764.256	3100
764.745	3044
765.235	3082
765.724	2996
766.214	3040
766.703	3018
767.193	2990
767.683	2993
768.172	2944
768.662	2970
769.152	2951
769.641	2962
770.131	2893
770.621	2927
771.111	2885
771.601	2867
772.09	2835
772.58	2801
773.07	2812
773.56	2844
774.05	2815
774.54	2820
775.031	2807
775.521	2784
776.011	2763
776.501	2774
776.991	2714
777.482	2750
777.972	2681
778.462	2689
778.953	2693
779.443	2680
779.933	2674
780.424	2647
780.914	2668
781.405	2681
781.895	2652
782.386	2657
782.877	2637
783.367	2581
783.858	2554
784.349	2548
784.839	2528
785.33	2536
785.821	2533
786.312	2517
786.803	2529
787.293	2539
787.784	2491
788.275	2448
788.766	2423
789.257	2468
789.748	2417
790.24	2402
790.731	2412
791.222	2370
791.713	2367
792.204	2366
792.696	2299
793.187	2329
793.678	2310
794.169	2251
794.661	2270
795.152	2245
795.644	2232
796.135	2231
796.627	2252
797.118	2206
797.61	2197
798.101	2169
798.593	2195
799.085	2164
799.576	2171
800.068	2132
800.56	2126
801.052	2076
801.544	2074
802.035	2085
802.527	2059
803.019	2036
803.511	2014
804.003	2004
804.495	2008
804.987	1979
805.479	1941
805.971	1968
806.464	1961
806.956	1915
807.448	1917
807.94	1924
808.433	1904
808.925	1902
809.417	1877
809.91	1859
810.402	1812
810.894	1816
811.387	1831
811.879	1809
812.372	1824
812.865	1790
813.357	1799
813.85	1775
814.342	1774
814.835	1774
815.328	1769
815.821	1739
816.313	1728
816.806	1733
817.299	1713
817.792	1719
818.285	1701
818.778	1719
819.271	1725
819.764	1701
820.257	1706
820.75	1714
821.243	1712
821.736	1698
822.229	1708
822.722	1709
823.216	1739
