Data from lamp5bck_noballon_Subt4__26__381.txt Node

Date: Wed Apr 09 10:16:57 CEST 2025
User: fys-lab-0081
Spectrometer: S04999
Trigger mode: 0
Resolution mode: 1024 pixels
Integration Time (sec): 1.000000E-1
Scans to average: 1
Nonlinearity correction enabled: false
Boxcar width: 0
Baseline correction enabled: true
XAxis mode: Wavelengths
Number of Pixels in Spectrum: 1024
>>>>>Begin Spectral Data<<<<<
336.42	2
336.877	1
337.334	2
337.792	0
338.249	6
338.706	-2
339.164	0
339.621	2
340.079	2
340.536	5
340.994	8
341.452	-1
341.909	3
342.367	2
342.825	2
343.283	2
343.741	0
344.198	2
344.656	5
345.114	-1
345.572	-2
346.03	5
346.488	-1
346.947	-4
347.405	4
347.863	5
348.321	7
348.779	0
349.238	4
349.696	4
350.154	3
350.613	1
351.071	-1
351.53	5
351.988	5
352.447	-1
352.905	2
353.364	-2
353.823	3
354.282	3
354.74	1
355.199	3
355.658	5
356.117	3
356.576	6
357.035	4
357.494	4
357.953	7
358.412	5
358.871	1
359.33	1
359.789	5
360.249	1
360.708	7
361.167	1
361.626	7
362.086	3
362.545	9
363.005	8
363.464	0
363.924	2
364.383	6
364.843	3
365.303	9
365.762	5
366.222	5
366.682	6
367.142	5
367.601	5
368.061	5
368.521	10
368.981	7
369.441	9
369.901	10
370.361	6
370.821	9
371.282	12
371.742	9
372.202	11
372.662	15
373.123	7
373.583	4
374.043	11
374.504	4
374.964	8
375.425	10
375.885	12
376.346	9
376.806	9
377.267	11
377.728	12
378.188	10
378.649	8
379.11	14
379.571	13
380.032	10
380.493	11
380.954	14
381.414	10
381.876	8
382.337	18
382.798	20
383.259	25
383.72	13
384.181	16
384.642	12
385.104	21
385.565	30
386.026	20
386.488	17
386.949	22
387.411	24
387.872	19
388.334	24
388.795	23
389.257	25
389.719	26
390.181	24
390.642	28
391.104	21
391.566	21
392.028	31
392.49	26
392.952	27
393.414	31
393.876	28
394.338	32
394.8	32
395.262	29
395.724	34
396.186	34
396.648	40
397.111	35
397.573	38
398.035	35
398.498	35
398.96	35
399.423	37
399.885	41
400.348	37
400.81	44
401.273	35
401.736	41
402.198	47
402.661	45
403.124	42
403.587	45
404.049	47.5
404.512	50
404.975	51
405.438	45
405.901	52
406.364	53
406.827	48
407.29	51
407.754	52
408.217	54
408.68	49
409.143	52
409.607	58
410.07	53
410.533	57
410.997	55
411.46	55
411.924	58
412.387	59
412.851	59
413.314	64
413.778	60
414.242	64
414.705	68
415.169	65
415.633	69
416.097	69
416.561	69
417.024	76
417.488	71
417.952	74
418.416	75
418.88	73
419.344	72
419.809	71
420.273	77
420.737	75
421.201	72
421.665	81
422.13	78
422.594	84
423.059	84
423.523	84
423.987	88
424.452	84
424.916	92
425.381	96
425.846	93
426.31	94
426.775	93
427.24	99
427.704	91
428.169	101
428.634	102
429.099	100
429.564	98
430.029	100
430.494	100
430.959	105
431.424	97
431.889	104
432.354	104
432.819	103
433.284	110
433.75	113
434.215	117
434.68	120
435.146	123
435.611	127
436.077	125
436.542	133
437.008	139
437.473	138
437.939	142
438.404	145
438.87	147
439.336	143
439.801	140
440.267	145
440.733	155
441.199	158
441.665	147
442.131	158
442.596	152
443.062	154
443.529	168
443.995	167
444.461	171
444.927	183
445.393	182
445.859	188
446.325	194
446.792	208
447.258	205
447.724	207
448.191	217
448.657	223
449.124	227
449.59	227
450.057	243
450.523	245
450.99	244
451.457	244
451.923	248
452.39	245
452.857	255
453.324	249
453.791	257
454.257	256
454.724	264
455.191	261
455.658	256
456.125	274
456.592	269
457.059	277
457.527	283
457.994	287
458.461	293
458.928	296
459.396	297
459.863	304
460.33	311
460.798	308
461.265	311
461.732	308
462.2	319
462.668	317
463.135	325
463.603	311
464.07	317
464.538	315
465.006	330
465.474	323
465.941	324
466.409	325
466.877	317
467.345	328
467.813	330
468.281	328
468.749	332
469.217	332
469.685	338
470.153	344
470.621	347
471.09	349
471.558	367
472.026	369
472.494	376
472.963	383
473.431	397
473.9	407
474.368	416
474.837	420
475.305	427
475.774	440
476.242	450
476.711	447
477.18	459
477.648	460
478.117	463
478.586	463
479.055	459
479.524	468
479.993	469
480.462	462
480.93	473
481.399	468
481.869	466
482.338	474
482.807	482
483.276	482
483.745	481
484.214	489
484.684	500
485.153	507
485.622	512
486.092	523
486.561	519
487.031	527
487.5	548
487.97	556
488.439	570
488.909	587
489.378	606
489.848	609
490.318	620
490.787	642
491.257	658
491.727	654
492.197	672
492.667	668
493.137	675
493.607	680
494.077	696
494.547	684
495.017	687
495.487	697
495.957	712
496.427	698
496.897	697
497.368	711
497.838	705
498.308	718
498.779	731
499.249	734
499.719	745
500.19	751
500.66	755
501.131	761
501.602	772
502.072	771
502.543	786
503.014	820
503.484	810
503.955	841
504.426	878
504.897	881
505.368	897
505.838	916
506.309	935
506.78	966
507.251	988
507.722	1001
508.194	1028
508.665	1043
509.136	1047
509.607	1071
510.078	1091
510.549	1093
511.021	1117
511.492	1121
511.964	1142
512.435	1162
512.906	1157
513.378	1175
513.849	1190
514.321	1206
514.793	1216
515.264	1225
515.736	1237
516.208	1264
516.679	1269
517.151	1281
517.623	1294
518.095	1325
518.567	1338
519.038	1352
519.51	1347
519.982	1378
520.454	1399
520.927	1421
521.399	1439
521.871	1459
522.343	1459
522.815	1473
523.287	1476
523.76	1494
524.232	1522
524.704	1538
525.177	1508
525.649	1516
526.122	1534
526.594	1508
527.067	1549
527.539	1559
528.012	1548
528.484	1546
528.957	1555
529.43	1556
529.903	1546
530.375	1594
530.848	1579
531.321	1600
531.794	1590
532.267	1633
532.74	1611
533.213	1616
533.686	1647
534.159	1631
534.632	1677
535.105	1691
535.578	1727
536.051	1727
536.525	1745
536.998	1741
537.471	1779
537.945	1756
538.418	1793
538.891	1806
539.365	1827
539.838	1843
540.312	1839
540.786	1858
541.259	1849
541.733	1860
542.206	1874
542.68	1848
543.154	1853
543.628	1857
544.101	1915
544.575	1898
545.049	1839
545.523	1876
545.997	1873
546.471	1898
546.945	1875
547.419	1907
547.893	1844
548.367	1888
548.842	1873
549.316	1880
549.79	1898
550.264	1879
550.739	1905
551.213	1906
551.687	1907
552.162	1933
552.636	1919
553.111	1911
553.585	1972
554.06	1944
554.534	1976
555.009	1964
555.484	2008
555.958	2035
556.433	2039
556.908	2072
557.383	2047
557.858	2104
558.333	2117
558.807	2103
559.282	2113
559.757	2176
560.232	2198
560.708	2166
561.183	2143
561.658	2181
562.133	2187
562.608	2161
563.083	2213
563.559	2162
564.034	2180
564.509	2177
564.985	2194
565.46	2162
565.936	2217
566.411	2217
566.887	2192
567.362	2205
567.838	2211
568.313	2239
568.789	2209
569.265	2197
569.74	2228
570.216	2212
570.692	2257
571.168	2247
571.644	2236
572.12	2230
572.596	2266
573.071	2280
573.547	2345
574.024	2373
574.5	2404
574.976	2423
575.452	2446
575.928	2463
576.404	2480
576.881	2573
577.357	2534
577.833	2533
578.31	2600
578.786	2646
579.262	2701
579.739	2656
580.215	2725
580.692	2703
581.169	2703
581.645	2710
582.122	2790
582.598	2788
583.075	2790
583.552	2818
584.029	2814
584.506	2793
584.982	2770
585.459	2826
585.936	2809
586.413	2827
586.89	2878
587.367	2849
587.844	2921
588.321	2908
588.799	2910
589.276	2877
589.753	2910
590.23	2946
590.707	2933
591.185	2921
591.662	2928
592.139	2982
592.617	3032
593.094	3019
593.572	3030
594.049	3067
594.527	3104
595.004	3133
595.482	3208
595.96	3171
596.437	3192
596.915	3280
597.393	3209
597.871	3287
598.349	3246
598.826	3323
599.304	3324
599.782	3391
600.26	3358
600.738	3455
601.216	3441
601.694	3479
602.173	3501
602.651	3499
603.129	3438
603.607	3482
604.085	3501
604.564	3495
605.042	3496
605.52	3475
605.999	3582
606.477	3496
606.956	3512
607.434	3554.5
607.913	3597
608.391	3582
608.87	3558
609.348	3514
609.827	3540
610.306	3574
610.785	3594
611.263	3602
611.742	3567
612.221	3519
612.7	3563
613.179	3583
613.658	3549
614.137	3628
614.616	3639
615.095	3573
615.574	3633
616.053	3682
616.532	3647
617.011	3659
617.491	3667
617.97	3675
618.449	3756
618.928	3779
619.408	3744
619.887	3786
620.367	3804
620.846	3867
621.326	3837
621.805	3920
622.285	3901
622.764	3936
623.244	3954
623.724	3991
624.203	3999
624.683	3932
625.163	4015
625.643	4014
626.123	3979
626.602	4078
627.082	4002
627.562	4012
628.042	4103
628.522	4044
629.002	4007
629.482	4024
629.963	4031
630.443	3996
630.923	4012
631.403	4045
631.883	4034
632.364	4050
632.844	4015
633.324	4052
633.805	4070
634.285	4033
634.766	4000
635.246	4000
635.727	4008
636.207	4023
636.688	4029
637.168	4041
637.649	3996
638.13	3981
638.611	4012
639.091	4018
639.572	3982
640.053	3968
640.534	4008
641.015	3990
641.496	3948
641.977	4024
642.458	3987
642.939	4004
643.42	4020
643.901	4016
644.382	4076
644.863	4058
645.345	4068
645.826	4062
646.307	4083
646.788	4150
647.27	4072
647.751	4076
648.233	4095
648.714	4018
649.196	4141
649.677	4136
650.159	4131
650.64	4067
651.122	4145
651.603	4100
652.085	4152
652.567	4165
653.049	4122
653.53	4112
654.012	4178
654.494	4102
654.976	4152
655.458	4129
655.94	4120
656.422	4203
656.904	4151
657.386	4096
657.868	4113
658.35	4091
658.833	4128
659.315	4140
659.797	4095
660.279	4088
660.762	4118
661.244	4074
661.726	4021
662.209	4021
662.691	4010
663.174	3957
663.656	3984
664.139	3992
664.621	3943
665.104	3923
665.587	3978
666.069	4010
666.552	4016
667.035	3977
667.517	3986
668	4018
668.483	4011
668.966	3984
669.449	3963
669.932	3978
670.415	4020
670.898	3985
671.381	4003
671.864	4022
672.347	3995
672.83	3990
673.313	3990
673.797	3963
674.28	4056
674.763	4099
675.247	4125
675.73	4095
676.213	4109
676.697	4132
677.18	4142
677.664	4158
678.147	4159
678.631	4180
679.114	4205
679.598	4183
680.082	4229
680.565	4234
681.049	4222
681.533	4212
682.017	4230
682.5	4210
682.984	4241
683.468	4244
683.952	4169
684.436	4255
684.92	4217
685.404	4238
685.888	4280
686.372	4266
686.856	4288
687.341	4342
687.825	4274
688.309	4286
688.793	4268
689.278	4214
689.762	4257
690.246	4236
690.731	4258
691.215	4283
691.7	4151
692.184	4209
692.669	4189
693.153	4231
693.638	4181
694.122	4163
694.607	4185
695.092	4130
695.577	4166
696.061	4091
696.546	4099
697.031	4094
697.516	4123
698.001	4118
698.486	4123
698.971	4187
699.456	4101
699.941	4092
700.426	4088
700.911	4137
701.396	4125
701.881	4169
702.366	4149
702.852	4142
703.337	4160
703.822	4139
704.308	4132
704.793	4171
705.278	4179
705.764	4191
706.249	4161
706.735	4133
707.22	4156
707.706	4078
708.191	4166
708.677	4194
709.163	4164
709.648	4189
710.134	4245
710.62	4197
711.106	4204
711.592	4273
712.077	4248
712.563	4139
713.049	4132
713.535	4203
714.021	4180
714.507	4179
714.993	4149
715.479	4207
715.966	4145
716.452	4144
716.938	4148
717.424	4026
717.91	4115
718.397	4087
718.883	4078
719.369	4099
719.856	4052
720.342	4097
720.829	4048
721.315	4065
721.802	4043
722.288	4064
722.775	3897
723.262	3789
723.748	3958
724.235	3956
724.722	4024
725.208	3968
725.695	3962
726.182	3944
726.669	3873
727.156	3877
727.643	3830
728.13	3818
728.617	3783
729.104	3779
729.591	3759
730.078	3803
730.565	3815
731.052	3759
731.539	3777
732.027	3749
732.514	3692
733.001	3738
733.488	3712
733.976	3706
734.463	3697
734.951	3682
735.438	3724
735.926	3696
736.413	3743
736.901	3703
737.388	3756
737.876	3749
738.364	3720
738.851	3735
739.339	3725
739.827	3755
740.314	3649
740.802	3681
741.29	3688
741.778	3648
742.266	3652
742.754	3655
743.242	3687
743.73	3611
744.218	3593
744.706	3543
745.194	3579
745.682	3545
746.17	3573
746.659	3597
747.147	3517
747.635	3526
748.123	3520
748.612	3480
749.1	3468
749.589	3512
750.077	3486
750.566	3459
751.054	3477
751.543	3497
752.031	3427
752.52	3419
753.008	3348
753.497	3349
753.986	3333
754.474	3322
754.963	3369
755.452	3315
755.941	3309
756.43	3307
756.919	3297
757.408	3281
757.896	3289
758.385	3303
758.875	3267
759.364	3222
759.853	3184
760.342	3131
760.831	3186
761.32	3158
761.809	3098
762.299	3121
762.788	3137
763.277	3125
763.767	3072
764.256	3077
764.745	3027
765.235	3071
765.724	2980
766.214	3025
766.703	3006
767.193	2975
767.683	2986
768.172	2932
768.662	2956
769.152	2944
769.641	2945
770.131	2888
770.621	2919
771.111	2858
771.601	2854
772.09	2824
772.58	2789
773.07	2807
773.56	2834
774.05	2810
774.54	2809
775.031	2806
775.521	2767
776.011	2749
776.501	2765
776.991	2712
777.482	2736
777.972	2672
778.462	2662
778.953	2689
779.443	2669
779.933	2669
780.424	2637
780.914	2664
781.405	2673
781.895	2643
782.386	2638
782.877	2625
783.367	2570
783.858	2546
784.349	2546
784.839	2518
785.33	2519
785.821	2519
786.312	2506
786.803	2519
787.293	2526
787.784	2484
788.275	2439
788.766	2410
789.257	2454
789.748	2403
790.24	2391
790.731	2404
791.222	2365
791.713	2355
792.204	2356
792.696	2297
793.187	2323
793.678	2298
794.169	2236
794.661	2263
795.152	2242
795.644	2227
796.135	2229
796.627	2246
797.118	2201
797.61	2191
798.101	2161
798.593	2178
799.085	2161
799.576	2158
800.068	2123
800.56	2122
801.052	2065
801.544	2062
802.035	2079
802.527	2049
803.019	2032
803.511	2007
804.003	2000
804.495	2009
804.987	1976
805.479	1930
805.971	1954
806.464	1953
806.956	1908
807.448	1913
807.94	1915
808.433	1898
808.925	1895
809.417	1873
809.91	1863
810.402	1805
810.894	1809
811.387	1825
811.879	1805
812.372	1812
812.865	1785
813.357	1787
813.85	1780
814.342	1775
814.835	1775
815.328	1760
815.821	1735
816.313	1728
816.806	1733
817.299	1708
817.792	1715
818.285	1690
818.778	1715
819.271	1714
819.764	1687
820.257	1705
820.75	1708
821.243	1705
821.736	1690
822.229	1703
822.722	1699
823.216	1737
