Data from lamp5bck_noballon_Subt4__0__355.txt Node

Date: Wed Apr 09 10:16:53 CEST 2025
User: fys-lab-0081
Spectrometer: S04999
Trigger mode: 0
Resolution mode: 1024 pixels
Integration Time (sec): 1.000000E-1
Scans to average: 1
Nonlinearity correction enabled: false
Boxcar width: 0
Baseline correction enabled: true
XAxis mode: Wavelengths
Number of Pixels in Spectrum: 1024
>>>>>Begin Spectral Data<<<<<
336.42	-2
336.877	2
337.334	-1
337.792	-5
338.249	7
338.706	3
339.164	-1
339.621	1
340.079	3
340.536	6
340.994	2
341.452	-5
341.909	3
342.367	2
342.825	0
343.283	-2
343.741	0
344.198	1
344.656	1
345.114	0
345.572	3
346.03	3
346.488	4
346.947	2
347.405	1
347.863	1
348.321	6
348.779	2
349.238	5
349.696	-1
350.154	-2
350.613	4
351.071	3
351.53	4
351.988	6
352.447	0
352.905	-1
353.364	3
353.823	0
354.282	1
354.74	2
355.199	7
355.658	3
356.117	1
356.576	4
357.035	5
357.494	4
357.953	5
358.412	4
358.871	-2
359.33	-2
359.789	5
360.249	1
360.708	6
361.167	2
361.626	10
362.086	2
362.545	4
363.005	10
363.464	-2
363.924	-3
364.383	11
364.843	4
365.303	4
365.762	5
366.222	8
366.682	4
367.142	5
367.601	8
368.061	7
368.521	11
368.981	3
369.441	8
369.901	8
370.361	6
370.821	4
371.282	10
371.742	12
372.202	7
372.662	11
373.123	11
373.583	4
374.043	10
374.504	9
374.964	11
375.425	9
375.885	9
376.346	11
376.806	5
377.267	10
377.728	16
378.188	15
378.649	7
379.11	10
379.571	11
380.032	9
380.493	11
380.954	13
381.414	14
381.876	15
382.337	16
382.798	18
383.259	17
383.72	11
384.181	17
384.642	16
385.104	21
385.565	27
386.026	21
386.488	18
386.949	20
387.411	24
387.872	21
388.334	23
388.795	17
389.257	26
389.719	28
390.181	24
390.642	28
391.104	21
391.566	24
392.028	33
392.49	27
392.952	28
393.414	32
393.876	29
394.338	30
394.8	25
395.262	27
395.724	32
396.186	38
396.648	34
397.111	37
397.573	41
398.035	30
398.498	38
398.96	37
399.423	36
399.885	44
400.348	39
400.81	49
401.273	39
401.736	45
402.198	43
402.661	45
403.124	47
403.587	43
404.049	47.5
404.512	52
404.975	49
405.438	47
405.901	46
406.364	55
406.827	53
407.29	53
407.754	52
408.217	55
408.68	49
409.143	53
409.607	58
410.07	55
410.533	57
410.997	59
411.46	57
411.924	58
412.387	65
412.851	64
413.314	62
413.778	65
414.242	62
414.705	70
415.169	72
415.633	66
416.097	71
416.561	72
417.024	74
417.488	74
417.952	71
418.416	79
418.88	73
419.344	69
419.809	72
420.273	73
420.737	70
421.201	69
421.665	81
422.13	79
422.594	79
423.059	80
423.523	85
423.987	86
424.452	85
424.916	93
425.381	93
425.846	93
426.31	95
426.775	92
427.24	102
427.704	94
428.169	101
428.634	100
429.099	102
429.564	102
430.029	102
430.494	101
430.959	105
431.424	103
431.889	103
432.354	106
432.819	107
433.284	112
433.75	109
434.215	120
434.68	118
435.146	124
435.611	126
436.077	125
436.542	134
437.008	136
437.473	137
437.939	140
438.404	144
438.87	148
439.336	146
439.801	141
440.267	143
440.733	153
441.199	154
441.665	151
442.131	157
442.596	156
443.062	158
443.529	164
443.995	166
444.461	171
444.927	184
445.393	182
445.859	190
446.325	194
446.792	210
447.258	210
447.724	213
448.191	220
448.657	220
449.124	229
449.59	220
450.057	240
450.523	240
450.99	242
451.457	241
451.923	251
452.39	244
452.857	252
453.324	249
453.791	265
454.257	255
454.724	260
455.191	262
455.658	261
456.125	274
456.592	270
457.059	279
457.527	277
457.994	289
458.461	290
458.928	298
459.396	293
459.863	307
460.33	310
460.798	307
461.265	307
461.732	311
462.2	319
462.668	320
463.135	329
463.603	314
464.07	318
464.538	319
465.006	331
465.474	327
465.941	321
466.409	327
466.877	321
467.345	329
467.813	330
468.281	331
468.749	336
469.217	338
469.685	341
470.153	348
470.621	350
471.09	354
471.558	366
472.026	368
472.494	379
472.963	386
473.431	397
473.9	408
474.368	418
474.837	423
475.305	423
475.774	439
476.242	453
476.711	447
477.18	460
477.648	460
478.117	468
478.586	460
479.055	460
479.524	470
479.993	471
480.462	466
480.93	467
481.399	469
481.869	479
482.338	482
482.807	484
483.276	481
483.745	488
484.214	494
484.684	506
485.153	506
485.622	508
486.092	524
486.561	518
487.031	533
487.5	546
487.97	556
488.439	569
488.909	590
489.378	605
489.848	612
490.318	626
490.787	646
491.257	661
491.727	659
492.197	676
492.667	669
493.137	678
493.607	684
494.077	699
494.547	686
495.017	690
495.487	698
495.957	716
496.427	700
496.897	696
497.368	710
497.838	708
498.308	722
498.779	726
499.249	735
499.719	747
500.19	759
500.66	757
501.131	760
501.602	773
502.072	770
502.543	791
503.014	820
503.484	817
503.955	838
504.426	878
504.897	883
505.368	898
505.838	911
506.309	934
506.78	966
507.251	997
507.722	1008
508.194	1035
508.665	1047
509.136	1047
509.607	1078
510.078	1097
510.549	1094
511.021	1119
511.492	1129
511.964	1151
512.435	1166
512.906	1157
513.378	1177
513.849	1199
514.321	1198
514.793	1215
515.264	1233
515.736	1249
516.208	1266
516.679	1276
517.151	1287
517.623	1304
518.095	1326
518.567	1338
519.038	1359
519.51	1352
519.982	1381
520.454	1405
520.927	1424
521.399	1441
521.871	1466
522.343	1465
522.815	1487
523.287	1481
523.76	1499
524.232	1526
524.704	1535
525.177	1509
525.649	1526
526.122	1538
526.594	1517
527.067	1550
527.539	1572
528.012	1553
528.484	1557
528.957	1555
529.43	1554
529.903	1546
530.375	1609
530.848	1582
531.321	1601
531.794	1597
532.267	1638
532.74	1620
533.213	1626
533.686	1649
534.159	1631
534.632	1682
535.105	1694
535.578	1732
536.051	1744
536.525	1743
536.998	1750
537.471	1792
537.945	1766
538.418	1802
538.891	1812
539.365	1824
539.838	1849
540.312	1844
540.786	1863
541.259	1851
541.733	1872
542.206	1879
542.68	1850
543.154	1849
543.628	1872
544.101	1922
544.575	1901
545.049	1849
545.523	1881
545.997	1885
546.471	1902
546.945	1877
547.419	1916
547.893	1850
548.367	1900
548.842	1875
549.316	1881
549.79	1895
550.264	1889
550.739	1924
551.213	1914
551.687	1910
552.162	1943
552.636	1929
553.111	1918
553.585	1976
554.06	1946
554.534	1981
555.009	1973
555.484	2005
555.958	2045
556.433	2046
556.908	2080
557.383	2055
557.858	2108
558.333	2119
558.807	2103
559.282	2117
559.757	2188
560.232	2195
560.708	2171
561.183	2151
561.658	2182
562.133	2193
562.608	2165
563.083	2222
563.559	2173
564.034	2190
564.509	2191
564.985	2195
565.46	2178
565.936	2224
566.411	2229
566.887	2197
567.362	2215
567.838	2217
568.313	2248
568.789	2200
569.265	2208
569.74	2235
570.216	2218
570.692	2263
571.168	2260
571.644	2246
572.12	2243
572.596	2279
573.071	2287
573.547	2358
574.024	2381
574.5	2417
574.976	2435
575.452	2452
575.928	2470
576.404	2490
576.881	2572
577.357	2534
577.833	2540
578.31	2617
578.786	2658
579.262	2701
579.739	2663
580.215	2729
580.692	2712
581.169	2707
581.645	2722
582.122	2795
582.598	2800
583.075	2795
583.552	2832
584.029	2819
584.506	2804
584.982	2776
585.459	2829
585.936	2817
586.413	2840
586.89	2890
587.367	2864
587.844	2930
588.321	2914
588.799	2913
589.276	2879
589.753	2920
590.23	2948
590.707	2939
591.185	2937
591.662	2947
592.139	2999
592.617	3040
593.094	3023
593.572	3035
594.049	3078
594.527	3110
595.004	3143
595.482	3201
595.96	3179
596.437	3200
596.915	3285
597.393	3224
597.871	3290
598.349	3253
598.826	3325
599.304	3326
599.782	3398
600.26	3371
600.738	3463
601.216	3460
601.694	3486
602.173	3507
602.651	3512
603.129	3454
603.607	3490
604.085	3504
604.564	3506
605.042	3515
605.52	3496
605.999	3590
606.477	3513
606.956	3521
607.434	3563.5
607.913	3606
608.391	3588
608.87	3577
609.348	3532
609.827	3555
610.306	3581
610.785	3610
611.263	3609
611.742	3570
612.221	3522
612.7	3576
613.179	3602
613.658	3556
614.137	3635
614.616	3654
615.095	3583
615.574	3643
616.053	3697
616.532	3664
617.011	3667
617.491	3682
617.97	3694
618.449	3762
618.928	3791
619.408	3759
619.887	3799
620.367	3820
620.846	3872
621.326	3850
621.805	3939
622.285	3912
622.764	3957
623.244	3958
623.724	3996
624.203	4020
624.683	3946
625.163	4021
625.643	4026
626.123	3987
626.602	4094
627.082	4018
627.562	4013
628.042	4116
628.522	4054
629.002	4024
629.482	4034
629.963	4037
630.443	4006
630.923	4035
631.403	4054
631.883	4046
632.364	4059
632.844	4032
633.324	4061
633.805	4078
634.285	4036
634.766	4015
635.246	4013
635.727	4014
636.207	4027
636.688	4043
637.168	4044
637.649	4017
638.13	3997
638.611	4025
639.091	4020
639.572	3992
640.053	3974
640.534	4014
641.015	4009
641.496	3966
641.977	4033
642.458	3991
642.939	4020
643.42	4025
643.901	4038
644.382	4095
644.863	4081
645.345	4077
645.826	4076
646.307	4093
646.788	4161
647.27	4082
647.751	4087
648.233	4118
648.714	4020
649.196	4151
649.677	4152
650.159	4141
650.64	4089
651.122	4158
651.603	4121
652.085	4158
652.567	4176
653.049	4127
653.53	4132
654.012	4192
654.494	4117
654.976	4164
655.458	4155
655.94	4137
656.422	4207
656.904	4164
657.386	4116
657.868	4129
658.35	4106
658.833	4131
659.315	4150
659.797	4094
660.279	4104
660.762	4135
661.244	4086
661.726	4031
662.209	4030
662.691	4030
663.174	3966
663.656	4002
664.139	3999
664.621	3950
665.104	3933
665.587	3991
666.069	4022
666.552	4027
667.035	3993
667.517	4000
668	4047
668.483	4026
668.966	3999
669.449	3991
669.932	3991
670.415	4025
670.898	3991
671.381	4014
671.864	4039
672.347	4005
672.83	3997
673.313	4001
673.797	3969
674.28	4072
674.763	4098
675.247	4139
675.73	4103
676.213	4118
676.697	4144
677.18	4162
677.664	4175
678.147	4176
678.631	4193
679.114	4207
679.598	4194
680.082	4235
680.565	4255
681.049	4239
681.533	4228
682.017	4245
682.5	4230
682.984	4259
683.468	4258
683.952	4179
684.436	4268
684.92	4234
685.404	4264
685.888	4302
686.372	4284
686.856	4302
687.341	4357
687.825	4293
688.309	4297
688.793	4280
689.278	4224
689.762	4272
690.246	4255
690.731	4269
691.215	4291
691.7	4167
692.184	4221
692.669	4200
693.153	4243
693.638	4180
694.122	4187
694.607	4208
695.092	4144
695.577	4194
696.061	4102
696.546	4119
697.031	4106
697.516	4142
698.001	4138
698.486	4128
698.971	4195
699.456	4118
699.941	4112
700.426	4103
700.911	4155
701.396	4142
701.881	4177
702.366	4163
702.852	4152
703.337	4182
703.822	4152
704.308	4153
704.793	4170
705.278	4191
705.764	4212
706.249	4170
706.735	4138
707.22	4162
707.706	4101
708.191	4186
708.677	4202
709.163	4175
709.648	4201
710.134	4252
710.62	4210
711.106	4223
711.592	4283
712.077	4254
712.563	4149
713.049	4132
713.535	4214
714.021	4197
714.507	4192
714.993	4163
715.479	4213
715.966	4152
716.452	4165
716.938	4155
717.424	4043
717.91	4118
718.397	4096
718.883	4084
719.369	4110
719.856	4062
720.342	4119
720.829	4051
721.315	4077
721.802	4058
722.288	4073
722.775	3910
723.262	3810
723.748	3969
724.235	3960
724.722	4037
725.208	3983
725.695	3989
726.182	3955
726.669	3881
727.156	3883
727.643	3837
728.13	3826
728.617	3798
729.104	3790
729.591	3769
730.078	3812
730.565	3833
731.052	3769
731.539	3797
732.027	3760
732.514	3711
733.001	3749
733.488	3720
733.976	3709
734.463	3700
734.951	3687
735.438	3738
735.926	3707
736.413	3749
736.901	3722
737.388	3767
737.876	3761
738.364	3733
738.851	3730
739.339	3728
739.827	3765
740.314	3658
740.802	3694
741.29	3702
741.778	3647
742.266	3661
742.754	3675
743.242	3699
743.73	3618
744.218	3607
744.706	3559
745.194	3592
745.682	3559
746.17	3578
746.659	3611
747.147	3533
747.635	3542
748.123	3532
748.612	3494
749.1	3480
749.589	3519
750.077	3500
750.566	3472
751.054	3485
751.543	3503
752.031	3443
752.52	3430
753.008	3353
753.497	3365
753.986	3345
754.474	3328
754.963	3377
755.452	3318
755.941	3313
756.43	3322
756.919	3308
757.408	3286
757.896	3311
758.385	3319
758.875	3272
759.364	3226
759.853	3200
760.342	3132
760.831	3193
761.32	3168
761.809	3119
762.299	3132
762.788	3146
763.277	3131
763.767	3089
764.256	3088
764.745	3032
765.235	3064
765.724	2982
766.214	3038
766.703	3017
767.193	2983
767.683	2990
768.172	2938
768.662	2968
769.152	2946
769.641	2951
770.131	2891
770.621	2928
771.111	2868
771.601	2859
772.09	2837
772.58	2801
773.07	2813
773.56	2850
774.05	2809
774.54	2818
775.031	2806
775.521	2777
776.011	2761
776.501	2780
776.991	2712
777.482	2743
777.972	2681
778.462	2678
778.953	2693
779.443	2682
779.933	2676
780.424	2646
780.914	2667
781.405	2677
781.895	2651
782.386	2650
782.877	2630
783.367	2582
783.858	2556
784.349	2560
784.839	2527
785.33	2530
785.821	2535
786.312	2516
786.803	2524
787.293	2537
787.784	2492
788.275	2452
788.766	2420
789.257	2459
789.748	2407
790.24	2397
790.731	2410
791.222	2370
791.713	2367
792.204	2367
792.696	2301
793.187	2332
793.678	2307
794.169	2253
794.661	2278
795.152	2238
795.644	2231
796.135	2223
796.627	2250
797.118	2207
797.61	2199
798.101	2169
798.593	2187
799.085	2159
799.576	2173
800.068	2128
800.56	2125
801.052	2075
801.544	2069
802.035	2083
802.527	2056
803.019	2027
803.511	2008
804.003	1997
804.495	2010
804.987	1984
805.479	1939
805.971	1967
806.464	1967
806.956	1917
807.448	1916
807.94	1914
808.433	1901
808.925	1897
809.417	1872
809.91	1862
810.402	1804
810.894	1814
811.387	1837
811.879	1808
812.372	1818
812.865	1788
813.357	1790
813.85	1781
814.342	1775
814.835	1775
815.328	1770
815.821	1741
816.313	1740
816.806	1734
817.299	1716
817.792	1725
818.285	1701
818.778	1715
819.271	1717
819.764	1697
820.257	1706
820.75	1707
821.243	1705
821.736	1689
822.229	1711
822.722	1708
823.216	1736
