Data from lamp5bck_noballon_Subt4__20__375.txt Node

Date: Wed Apr 09 10:16:56 CEST 2025
User: fys-lab-0081
Spectrometer: S04999
Trigger mode: 0
Resolution mode: 1024 pixels
Integration Time (sec): 1.000000E-1
Scans to average: 1
Nonlinearity correction enabled: false
Boxcar width: 0
Baseline correction enabled: true
XAxis mode: Wavelengths
Number of Pixels in Spectrum: 1024
>>>>>Begin Spectral Data<<<<<
336.42	-2
336.877	-1
337.334	2
337.792	0
338.249	2
338.706	1
339.164	-3
339.621	0
340.079	3
340.536	7
340.994	6
341.452	-3
341.909	2
342.367	1
342.825	2
343.283	1
343.741	1
344.198	-2
344.656	-1
345.114	-1
345.572	0
346.03	2
346.488	4
346.947	2
347.405	3
347.863	-2
348.321	2
348.779	4
349.238	4
349.696	4
350.154	3
350.613	2
351.071	5
351.53	8
351.988	4
352.447	-1
352.905	4
353.364	2
353.823	3
354.282	3
354.74	-1
355.199	2
355.658	7
356.117	3
356.576	8
357.035	5
357.494	7
357.953	10
358.412	2
358.871	-4
359.33	3
359.789	4
360.249	1
360.708	8
361.167	-3
361.626	11
362.086	2
362.545	6
363.005	10
363.464	1
363.924	2
364.383	9
364.843	4
365.303	10
365.762	8
366.222	1
366.682	6
367.142	11
367.601	6
368.061	3
368.521	6
368.981	5
369.441	10
369.901	14
370.361	6
370.821	6
371.282	8
371.742	14
372.202	9
372.662	13
373.123	9
373.583	6
374.043	11
374.504	4
374.964	6
375.425	11
375.885	10
376.346	14
376.806	7
377.267	14
377.728	14
378.188	13
378.649	10
379.11	13
379.571	13
380.032	9
380.493	13
380.954	16
381.414	17
381.876	15
382.337	16
382.798	20
383.259	21
383.72	17
384.181	15
384.642	16
385.104	23
385.565	29
386.026	17
386.488	20
386.949	22
387.411	27
387.872	20
388.334	23
388.795	22
389.257	24
389.719	26
390.181	19
390.642	28
391.104	22
391.566	24
392.028	35
392.49	26
392.952	28
393.414	35
393.876	32
394.338	28
394.8	32
395.262	30
395.724	34
396.186	31
396.648	29
397.111	35
397.573	37
398.035	36
398.498	35
398.96	36
399.423	36
399.885	42
400.348	37
400.81	49
401.273	36
401.736	44
402.198	43
402.661	45
403.124	45
403.587	50
404.049	49
404.512	48
404.975	53
405.438	46
405.901	52
406.364	53
406.827	53
407.29	55
407.754	56
408.217	55
408.68	48
409.143	52
409.607	60
410.07	59
410.533	53
410.997	59
411.46	54
411.924	61
412.387	58
412.851	56
413.314	60
413.778	61
414.242	68
414.705	65
415.169	68
415.633	70
416.097	70
416.561	68
417.024	78
417.488	73
417.952	73
418.416	76
418.88	69
419.344	70
419.809	73
420.273	75
420.737	74
421.201	68
421.665	79
422.13	79
422.594	87
423.059	87
423.523	86
423.987	83
424.452	85
424.916	93
425.381	94
425.846	92
426.31	92
426.775	92
427.24	99
427.704	96
428.169	102
428.634	100
429.099	97
429.564	98
430.029	102
430.494	102
430.959	103
431.424	98
431.889	101
432.354	109
432.819	104
433.284	110
433.75	111
434.215	117
434.68	119
435.146	117
435.611	132
436.077	128
436.542	132
437.008	137
437.473	136
437.939	139
438.404	145
438.87	150
439.336	147
439.801	141
440.267	145
440.733	150
441.199	155
441.665	149
442.131	159
442.596	155
443.062	154
443.529	162
443.995	168
444.461	170
444.927	179
445.393	180
445.859	189
446.325	190
446.792	208
447.258	208
447.724	210
448.191	218
448.657	220
449.124	230
449.59	226
450.057	241
450.523	235
450.99	246
451.457	243
451.923	250
452.39	247
452.857	253
453.324	249
453.791	258
454.257	258
454.724	260
455.191	266
455.658	256
456.125	275
456.592	268
457.059	273
457.527	283
457.994	288
458.461	297
458.928	303
459.396	296
459.863	307
460.33	303
460.798	305
461.265	310
461.732	311
462.2	314
462.668	321
463.135	326
463.603	310
464.07	314
464.538	319
465.006	330
465.474	317
465.941	324
466.409	323
466.877	315
467.345	331
467.813	329
468.281	328
468.749	332
469.217	337
469.685	341
470.153	346
470.621	346
471.09	352
471.558	362
472.026	365
472.494	376
472.963	381
473.431	394
473.9	410
474.368	415
474.837	420
475.305	425
475.774	438
476.242	450
476.711	453
477.18	461
477.648	460
478.117	463
478.586	465
479.055	460
479.524	469
479.993	466
480.462	463
480.93	473
481.399	466
481.869	477
482.338	477
482.807	483
483.276	479
483.745	482
484.214	494
484.684	499
485.153	502
485.622	509
486.092	520
486.561	520
487.031	533
487.5	546
487.97	556
488.439	573
488.909	592
489.378	606
489.848	602
490.318	620
490.787	642
491.257	659
491.727	654
492.197	669
492.667	672
493.137	677
493.607	681
494.077	696
494.547	683
495.017	689
495.487	696
495.957	713
496.427	699
496.897	695
497.368	710
497.838	707
498.308	719
498.779	727
499.249	737
499.719	743
500.19	750
500.66	755
501.131	761
501.602	778
502.072	768
502.543	782
503.014	816
503.484	813
503.955	836
504.426	877
504.897	884
505.368	900
505.838	913
506.309	937
506.78	967
507.251	986
507.722	1008
508.194	1032
508.665	1045
509.136	1036
509.607	1079
510.078	1093
510.549	1096
511.021	1122
511.492	1123
511.964	1147
512.435	1167
512.906	1152
513.378	1179
513.849	1196
514.321	1202
514.793	1217
515.264	1225
515.736	1238
516.208	1265
516.679	1271
517.151	1277
517.623	1298
518.095	1322
518.567	1334
519.038	1355
519.51	1351
519.982	1382
520.454	1396
520.927	1419
521.399	1445
521.871	1464
522.343	1464
522.815	1474
523.287	1484
523.76	1496
524.232	1522
524.704	1533
525.177	1503
525.649	1521
526.122	1534
526.594	1509
527.067	1539
527.539	1564
528.012	1557
528.484	1552
528.957	1550
529.43	1560
529.903	1547
530.375	1602
530.848	1581
531.321	1595
531.794	1594
532.267	1642
532.74	1616
533.213	1618
533.686	1643
534.159	1636
534.632	1677
535.105	1695
535.578	1726
536.051	1733
536.525	1746
536.998	1750
537.471	1776
537.945	1752
538.418	1799
538.891	1808
539.365	1826
539.838	1841
540.312	1835
540.786	1859
541.259	1849
541.733	1866
542.206	1876
542.68	1849
543.154	1843
543.628	1862
544.101	1923
544.575	1894
545.049	1852
545.523	1875
545.997	1878
546.471	1901
546.945	1882
547.419	1908
547.893	1839
548.367	1891
548.842	1873
549.316	1879
549.79	1895
550.264	1886
550.739	1908
551.213	1909
551.687	1906
552.162	1936
552.636	1919
553.111	1914
553.585	1970
554.06	1944
554.534	1985
555.009	1962
555.484	2009
555.958	2031
556.433	2051
556.908	2071
557.383	2051
557.858	2109
558.333	2112
558.807	2106
559.282	2115
559.757	2184
560.232	2196
560.708	2169
561.183	2152
561.658	2181
562.133	2186
562.608	2160
563.083	2218
563.559	2163
564.034	2189
564.509	2187
564.985	2190
565.46	2175
565.936	2211
566.411	2223
566.887	2191
567.362	2210
567.838	2210
568.313	2240
568.789	2202
569.265	2203
569.74	2222
570.216	2213
570.692	2254
571.168	2255
571.644	2241
572.12	2243
572.596	2269
573.071	2292
573.547	2345
574.024	2375
574.5	2411
574.976	2425
575.452	2457
575.928	2468
576.404	2484
576.881	2573
577.357	2534
577.833	2542
578.31	2606
578.786	2650
579.262	2706
579.739	2659
580.215	2723
580.692	2718
581.169	2706
581.645	2713
582.122	2796
582.598	2795
583.075	2791
583.552	2824
584.029	2812
584.506	2803
584.982	2771
585.459	2826
585.936	2804
586.413	2841
586.89	2883
587.367	2866
587.844	2922
588.321	2911
588.799	2913
589.276	2878
589.753	2917
590.23	2942
590.707	2938
591.185	2925
591.662	2942
592.139	2985
592.617	3037
593.094	3014
593.572	3032
594.049	3066
594.527	3109
595.004	3131
595.482	3205
595.96	3174
596.437	3184
596.915	3280
597.393	3216
597.871	3290
598.349	3248
598.826	3327
599.304	3322
599.782	3391
600.26	3368
600.738	3457
601.216	3453
601.694	3484
602.173	3516
602.651	3498
603.129	3447
603.607	3489
604.085	3508
604.564	3488
605.042	3501
605.52	3488
605.999	3585
606.477	3503
606.956	3527
607.434	3562
607.913	3597
608.391	3584
608.87	3565
609.348	3527
609.827	3549
610.306	3574
610.785	3598
611.263	3601
611.742	3566
612.221	3529
612.7	3568
613.179	3600
613.658	3552
614.137	3616
614.616	3642
615.095	3576
615.574	3643
616.053	3692
616.532	3649
617.011	3666
617.491	3683
617.97	3684
618.449	3757
618.928	3788
619.408	3751
619.887	3785
620.367	3813
620.846	3866
621.326	3844
621.805	3928
622.285	3905
622.764	3942
623.244	3961
623.724	3988
624.203	3996
624.683	3937
625.163	4024
625.643	4011
626.123	3980
626.602	4081
627.082	4002
627.562	4012
628.042	4101
628.522	4048
629.002	4015
629.482	4027
629.963	4028
630.443	4002
630.923	4019
631.403	4041
631.883	4046
632.364	4059
632.844	4019
633.324	4053
633.805	4080
634.285	4029
634.766	3998
635.246	4013
635.727	4007
636.207	4012
636.688	4032
637.168	4040
637.649	4005
638.13	3992
638.611	4016
639.091	4019
639.572	3987
640.053	3969
640.534	3996
641.015	3995
641.496	3951
641.977	4024
642.458	3984
642.939	4006
643.42	4019
643.901	4028
644.382	4087
644.863	4057
645.345	4060
645.826	4065
646.307	4085
646.788	4154
647.27	4088
647.751	4075
648.233	4112
648.714	4013
649.196	4137
649.677	4131
650.159	4124
650.64	4082
651.122	4154
651.603	4109
652.085	4163
652.567	4176
653.049	4126
653.53	4123
654.012	4193
654.494	4118
654.976	4161
655.458	4136
655.94	4129
656.422	4205
656.904	4149
657.386	4109
657.868	4118
658.35	4090
658.833	4136
659.315	4152
659.797	4090
660.279	4086
660.762	4133
661.244	4075
661.726	4018
662.209	4023
662.691	4025
663.174	3959
663.656	3985
664.139	3995
664.621	3944
665.104	3918
665.587	3975
666.069	4009
666.552	4034
667.035	3977
667.517	3994
668	4035
668.483	4021
668.966	3987
669.449	3975
669.932	3974
670.415	4013
670.898	3988
671.381	4002
671.864	4027
672.347	3985
672.83	3989
673.313	3989
673.797	3964
674.28	4061
674.763	4091
675.247	4129
675.73	4094
676.213	4121
676.697	4144
677.18	4155
677.664	4162
678.147	4169
678.631	4177
679.114	4200
679.598	4190
680.082	4238
680.565	4241
681.049	4223
681.533	4223
682.017	4244
682.5	4225
682.984	4243
683.468	4253
683.952	4179
684.436	4264
684.92	4225
685.404	4253
685.888	4291
686.372	4270
686.856	4302
687.341	4338
687.825	4274
688.309	4290
688.793	4274
689.278	4221
689.762	4258
690.246	4245
690.731	4262
691.215	4279
691.7	4162
692.184	4218
692.669	4201
693.153	4241
693.638	4180
694.122	4171
694.607	4186
695.092	4141
695.577	4182
696.061	4106
696.546	4106
697.031	4097
697.516	4121
698.001	4132
698.486	4127
698.971	4194
699.456	4103
699.941	4096
700.426	4092
700.911	4145
701.396	4124
701.881	4174
702.366	4162
702.852	4151
703.337	4167
703.822	4137
704.308	4141
704.793	4172
705.278	4179
705.764	4204
706.249	4164
706.735	4138
707.22	4157
707.706	4090
708.191	4176
708.677	4198
709.163	4164
709.648	4193
710.134	4249
710.62	4197
711.106	4213
711.592	4278
712.077	4252
712.563	4141
713.049	4121
713.535	4203
714.021	4190
714.507	4184
714.993	4156
715.479	4202
715.966	4144
716.452	4142
716.938	4150
717.424	4023
717.91	4118
718.397	4097
718.883	4081
719.369	4094
719.856	4057
720.342	4106
720.829	4047
721.315	4070
721.802	4049
722.288	4061
722.775	3905
723.262	3794
723.748	3956
724.235	3954
724.722	4035
725.208	3975
725.695	3978
726.182	3948
726.669	3872
727.156	3878
727.643	3832
728.13	3825
728.617	3788
729.104	3787
729.591	3767
730.078	3800
730.565	3816
731.052	3757
731.539	3779
732.027	3749
732.514	3707
733.001	3743
733.488	3722
733.976	3707
734.463	3699
734.951	3687
735.438	3726
735.926	3701
736.413	3741
736.901	3714
737.388	3761
737.876	3753
738.364	3716
738.851	3742
739.339	3721
739.827	3759
740.314	3646
740.802	3688
741.29	3692
741.778	3641
742.266	3644
742.754	3672
743.242	3687
743.73	3610
744.218	3600
744.706	3545
745.194	3580
745.682	3561
746.17	3573
746.659	3609
747.147	3516
747.635	3536
748.123	3522
748.612	3480
749.1	3480
749.589	3519
750.077	3487
750.566	3457
751.054	3478
751.543	3500
752.031	3433
752.52	3420
753.008	3353
753.497	3348
753.986	3343
754.474	3329
754.963	3365
755.452	3323
755.941	3309
756.43	3305
756.919	3303
757.408	3281
757.896	3297
758.385	3301
758.875	3261
759.364	3221
759.853	3193
760.342	3140
760.831	3188
761.32	3155
761.809	3107
762.299	3126
762.788	3143
763.277	3132
763.767	3086
764.256	3089
764.745	3032
765.235	3072
765.724	2971
766.214	3024
766.703	3005
767.193	2981
767.683	2988
768.172	2936
768.662	2963
769.152	2938
769.641	2953
770.131	2881
770.621	2920
771.111	2865
771.601	2858
772.09	2827
772.58	2795
773.07	2803
773.56	2841
774.05	2807
774.54	2812
775.031	2803
775.521	2773
776.011	2752
776.501	2766
776.991	2714
777.482	2738
777.972	2672
778.462	2664
778.953	2693
779.443	2673
779.933	2664
780.424	2643
780.914	2664
781.405	2675
781.895	2652
782.386	2645
782.877	2628
783.367	2572
783.858	2555
784.349	2550
784.839	2523
785.33	2526
785.821	2523
786.312	2514
786.803	2525
787.293	2538
787.784	2491
788.275	2446
788.766	2423
789.257	2459
789.748	2402
790.24	2383
790.731	2408
791.222	2370
791.713	2348
792.204	2360
792.696	2300
793.187	2320
793.678	2310
794.169	2244
794.661	2262
795.152	2243
795.644	2229
796.135	2225
796.627	2238
797.118	2205
797.61	2194
798.101	2169
798.593	2190
799.085	2152
799.576	2167
800.068	2129
800.56	2119
801.052	2069
801.544	2063
802.035	2074
802.527	2050
803.019	2029
803.511	2010
804.003	1989
804.495	2002
804.987	1982
805.479	1934
805.971	1959
806.464	1956
806.956	1912
807.448	1910
807.94	1915
808.433	1895
808.925	1893
809.417	1873
809.91	1865
810.402	1808
810.894	1809
811.387	1833
811.879	1799
812.372	1816
812.865	1789
813.357	1786
813.85	1776
814.342	1773
814.835	1773
815.328	1762
815.821	1732
816.313	1730
816.806	1733
817.299	1711
817.792	1721
818.285	1691
818.778	1715
819.271	1722
819.764	1693
820.257	1701
820.75	1707
821.243	1716
821.736	1692
822.229	1701
822.722	1699
823.216	1732
