Data from lamp5bck_noballon_Subt4__94__449.txt Node

Date: Wed Apr 09 10:17:05 CEST 2025
User: fys-lab-0081
Spectrometer: S04999
Trigger mode: 0
Resolution mode: 1024 pixels
Integration Time (sec): 1.000000E-1
Scans to average: 1
Nonlinearity correction enabled: false
Boxcar width: 0
Baseline correction enabled: true
XAxis mode: Wavelengths
Number of Pixels in Spectrum: 1024
>>>>>Begin Spectral Data<<<<<
336.42	-3
336.877	3
337.334	0
337.792	-1
338.249	5
338.706	1
339.164	2
339.621	-6
340.079	5
340.536	6
340.994	7
341.452	-2
341.909	2
342.367	0
342.825	-1
343.283	3
343.741	2
344.198	0
344.656	0
345.114	2
345.572	4
346.03	2
346.488	1
346.947	-2
347.405	5
347.863	3
348.321	3
348.779	2
349.238	2
349.696	4
350.154	4
350.613	-1
351.071	5
351.53	6
351.988	7
352.447	0
352.905	1
353.364	-1
353.823	5
354.282	2
354.74	2
355.199	0
355.658	4
356.117	4
356.576	8
357.035	4
357.494	8
357.953	7
358.412	8
358.871	-3
359.33	4
359.789	7
360.249	-4
360.708	5
361.167	0
361.626	5
362.086	3
362.545	8
363.005	10
363.464	1
363.924	1
364.383	10
364.843	3
365.303	5
365.762	6
366.222	4
366.682	6
367.142	7
367.601	8
368.061	5
368.521	11
368.981	10
369.441	12
369.901	10
370.361	6
370.821	6
371.282	8
371.742	7
372.202	7
372.662	9
373.123	7
373.583	5
374.043	9
374.504	4
374.964	4
375.425	6
375.885	9
376.346	11
376.806	10
377.267	14
377.728	14
378.188	9
378.649	13
379.11	9
379.571	7
380.032	8
380.493	9
380.954	11
381.414	12
381.876	13
382.337	13
382.798	15
383.259	20
383.72	15
384.181	18
384.642	16
385.104	24
385.565	26
386.026	19
386.488	20
386.949	21
387.411	24
387.872	22
388.334	25
388.795	24
389.257	28
389.719	26
390.181	21
390.642	27
391.104	23
391.566	27
392.028	34
392.49	29
392.952	26
393.414	29
393.876	27
394.338	28
394.8	25
395.262	32
395.724	30
396.186	36
396.648	33
397.111	35
397.573	35
398.035	37
398.498	38
398.96	33
399.423	33
399.885	42
400.348	42
400.81	41
401.273	34
401.736	46
402.198	44
402.661	42
403.124	48
403.587	47
404.049	48
404.512	49
404.975	52
405.438	47
405.901	49
406.364	52
406.827	51
407.29	54
407.754	54
408.217	52
408.68	50
409.143	51
409.607	62
410.07	57
410.533	54
410.997	59
411.46	58
411.924	59
412.387	59
412.851	62
413.314	65
413.778	65
414.242	66
414.705	65
415.169	68
415.633	69
416.097	70
416.561	67
417.024	71
417.488	72
417.952	71
418.416	74
418.88	75
419.344	75
419.809	72
420.273	74
420.737	75
421.201	66
421.665	77
422.13	83
422.594	84
423.059	83
423.523	82
423.987	87
424.452	90
424.916	93
425.381	91
425.846	93
426.31	92
426.775	93
427.24	104
427.704	91
428.169	103
428.634	100
429.099	97
429.564	99
430.029	100
430.494	105
430.959	107
431.424	100
431.889	102
432.354	108
432.819	103
433.284	108
433.75	110
434.215	118
434.68	116
435.146	120
435.611	127
436.077	128
436.542	133
437.008	133
437.473	136
437.939	141
438.404	143
438.87	145
439.336	137
439.801	140
440.267	144
440.733	151
441.199	155
441.665	151
442.131	161
442.596	156
443.062	153
443.529	168
443.995	168
444.461	166
444.927	179
445.393	183
445.859	192
446.325	191
446.792	206
447.258	208
447.724	209
448.191	217
448.657	219
449.124	227
449.59	225
450.057	240
450.523	236
450.99	240
451.457	247
451.923	254
452.39	245
452.857	251
453.324	244
453.791	264
454.257	259
454.724	259
455.191	260
455.658	253
456.125	277
456.592	267
457.059	274
457.527	278
457.994	292
458.461	291
458.928	298
459.396	291
459.863	305
460.33	306
460.798	306
461.265	310
461.732	313
462.2	318
462.668	320
463.135	324
463.603	310
464.07	320
464.538	313
465.006	325
465.474	320
465.941	321
466.409	323
466.877	321
467.345	333
467.813	324
468.281	325
468.749	330
469.217	338
469.685	344
470.153	338
470.621	351
471.09	350
471.558	365
472.026	368
472.494	380
472.963	382
473.431	397
473.9	406
474.368	413
474.837	422
475.305	428
475.774	437
476.242	453
476.711	448
477.18	459
477.648	459
478.117	464
478.586	464
479.055	461
479.524	472
479.993	469
480.462	469
480.93	471
481.399	470
481.869	472
482.338	469
482.807	479
483.276	480
483.745	484
484.214	491
484.684	504
485.153	503
485.622	509
486.092	528
486.561	522
487.031	529
487.5	546
487.97	553
488.439	565
488.909	585
489.378	606
489.848	611
490.318	621
490.787	646
491.257	664
491.727	659
492.197	671
492.667	668
493.137	675
493.607	687
494.077	694
494.547	680
495.017	688
495.487	696
495.957	713
496.427	695
496.897	698
497.368	708
497.838	706
498.308	723
498.779	729
499.249	729
499.719	745
500.19	754
500.66	757
501.131	760
501.602	772
502.072	770
502.543	788
503.014	816
503.484	816
503.955	840
504.426	873
504.897	885
505.368	891
505.838	912
506.309	933
506.78	963
507.251	986
507.722	1004
508.194	1030
508.665	1047
509.136	1040
509.607	1070
510.078	1092
510.549	1098
511.021	1120
511.492	1121
511.964	1141
512.435	1168
512.906	1153
513.378	1169
513.849	1188
514.321	1198
514.793	1210
515.264	1226
515.736	1240
516.208	1266
516.679	1268
517.151	1285
517.623	1297
518.095	1316
518.567	1337
519.038	1357
519.51	1352
519.982	1383
520.454	1398
520.927	1421
521.399	1444
521.871	1462
522.343	1468
522.815	1482
523.287	1474
523.76	1496
524.232	1522
524.704	1535
525.177	1505
525.649	1525
526.122	1534
526.594	1507
527.067	1542
527.539	1565
528.012	1554
528.484	1556
528.957	1556
529.43	1553
529.903	1544
530.375	1605
530.848	1578
531.321	1603
531.794	1597
532.267	1632
532.74	1616
533.213	1616
533.686	1645
534.159	1636
534.632	1684
535.105	1694
535.578	1723
536.051	1725
536.525	1742
536.998	1746
537.471	1779
537.945	1755
538.418	1797
538.891	1812
539.365	1822
539.838	1835
540.312	1841
540.786	1860
541.259	1842
541.733	1864
542.206	1870
542.68	1842
543.154	1849
543.628	1866
544.101	1917
544.575	1901
545.049	1847
545.523	1880
545.997	1881
546.471	1898
546.945	1876
547.419	1909
547.893	1842
548.367	1885
548.842	1877
549.316	1879
549.79	1897
550.264	1889
550.739	1907
551.213	1906
551.687	1909
552.162	1937
552.636	1922
553.111	1916
553.585	1966
554.06	1944
554.534	1981
555.009	1968
555.484	2006
555.958	2038
556.433	2055
556.908	2072
557.383	2055
557.858	2109
558.333	2112
558.807	2104
559.282	2114
559.757	2182
560.232	2192
560.708	2163
561.183	2153
561.658	2177
562.133	2187
562.608	2161
563.083	2217
563.559	2164
564.034	2179
564.509	2183
564.985	2189
565.46	2171
565.936	2209
566.411	2219
566.887	2195
567.362	2211
567.838	2212
568.313	2232
568.789	2202
569.265	2200
569.74	2227
570.216	2213
570.692	2250
571.168	2249
571.644	2244
572.12	2243
572.596	2268
573.071	2289
573.547	2350
574.024	2377
574.5	2409
574.976	2419
575.452	2453
575.928	2468
576.404	2480
576.881	2577
577.357	2527
577.833	2538
578.31	2614
578.786	2650
579.262	2702
579.739	2650
580.215	2719
580.692	2714
581.169	2705
581.645	2714
582.122	2798
582.598	2796
583.075	2795
583.552	2823
584.029	2807
584.506	2798
584.982	2770
585.459	2824
585.936	2805
586.413	2827
586.89	2876
587.367	2861
587.844	2927
588.321	2915
588.799	2913
589.276	2878
589.753	2914
590.23	2944
590.707	2938
591.185	2928
591.662	2938
592.139	2988
592.617	3031
593.094	3027
593.572	3026
594.049	3074
594.527	3104
595.004	3138
595.482	3206
595.96	3169
596.437	3182
596.915	3277
597.393	3219
597.871	3298
598.349	3246
598.826	3323
599.304	3326
599.782	3392
600.26	3360
600.738	3454
601.216	3449
601.694	3482
602.173	3510
602.651	3501
603.129	3443
603.607	3482
604.085	3506
604.564	3491
605.042	3505
605.52	3486
605.999	3585
606.477	3502
606.956	3518
607.434	3554.5
607.913	3591
608.391	3588
608.87	3559
609.348	3532
609.827	3548
610.306	3578
610.785	3603
611.263	3611
611.742	3570
612.221	3519
612.7	3563
613.179	3589
613.658	3549
614.137	3623
614.616	3639
615.095	3570
615.574	3639
616.053	3687
616.532	3652
617.011	3655
617.491	3680
617.97	3690
618.449	3760
618.928	3783
619.408	3742
619.887	3784
620.367	3809
620.846	3867
621.326	3836
621.805	3924
622.285	3908
622.764	3939
623.244	3956
623.724	3991
624.203	4010
624.683	3936
625.163	4014
625.643	4016
626.123	3978
626.602	4075
627.082	4009
627.562	4009
628.042	4104
628.522	4051
629.002	4022
629.482	4028
629.963	4025
630.443	4007
630.923	4025
631.403	4044
631.883	4045
632.364	4055
632.844	4014
633.324	4046
633.805	4074
634.285	4027
634.766	3997
635.246	4010
635.727	4005
636.207	4018
636.688	4033
637.168	4032
637.649	4005
638.13	3992
638.611	4017
639.091	4015
639.572	3982
640.053	3969
640.534	4014
641.015	3997
641.496	3941
641.977	4031
642.458	3988
642.939	4007
643.42	4021
643.901	4036
644.382	4079
644.863	4070
645.345	4074
645.826	4076
646.307	4075
646.788	4154
647.27	4069
647.751	4075
648.233	4103
648.714	4017
649.196	4148
649.677	4128
650.159	4131
650.64	4082
651.122	4149
651.603	4102
652.085	4161
652.567	4163
653.049	4117
653.53	4119
654.012	4173
654.494	4110
654.976	4157
655.458	4135
655.94	4134
656.422	4201
656.904	4144
657.386	4108
657.868	4114
658.35	4099
658.833	4122
659.315	4148
659.797	4095
660.279	4091
660.762	4117
661.244	4075
661.726	4017
662.209	4017
662.691	4021
663.174	3957
663.656	3994
664.139	3994
664.621	3941
665.104	3918
665.587	3985
666.069	4012
666.552	4019
667.035	3974
667.517	3992
668	4027
668.483	4022
668.966	3992
669.449	3976
669.932	3977
670.415	4012
670.898	3983
671.381	3998
671.864	4031
672.347	3991
672.83	3997
673.313	3996
673.797	3961
674.28	4062
674.763	4092
675.247	4121
675.73	4088
676.213	4132
676.697	4138
677.18	4140
677.664	4169
678.147	4158
678.631	4170
679.114	4195
679.598	4185
680.082	4234
680.565	4242
681.049	4232
681.533	4222
682.017	4239
682.5	4226
682.984	4244
683.468	4257
683.952	4172
684.436	4267
684.92	4221
685.404	4250
685.888	4290
686.372	4265
686.856	4298
687.341	4348
687.825	4270
688.309	4286
688.793	4273
689.278	4219
689.762	4254
690.246	4240
690.731	4265
691.215	4285
691.7	4163
692.184	4214
692.669	4199
693.153	4235
693.638	4178
694.122	4170
694.607	4190
695.092	4138
695.577	4168
696.061	4095
696.546	4107
697.031	4102
697.516	4124
698.001	4126
698.486	4124
698.971	4189
699.456	4103
699.941	4094
700.426	4092
700.911	4139
701.396	4117
701.881	4170
702.366	4161
702.852	4133
703.337	4159
703.822	4140
704.308	4140
704.793	4168
705.278	4175
705.764	4196
706.249	4167
706.735	4137
707.22	4155
707.706	4086
708.191	4172
708.677	4194
709.163	4171
709.648	4191
710.134	4251
710.62	4199
711.106	4209
711.592	4280
712.077	4258
712.563	4137
713.049	4117
713.535	4208
714.021	4182
714.507	4181
714.993	4157
715.479	4201
715.966	4146
716.452	4151
716.938	4146
717.424	4026
717.91	4114
718.397	4094
718.883	4081
719.369	4096
719.856	4056
720.342	4105
720.829	4053
721.315	4075
721.802	4042
722.288	4067
722.775	3904
723.262	3799
723.748	3965
724.235	3952
724.722	4026
725.208	3972
725.695	3966
726.182	3945
726.669	3865
727.156	3873
727.643	3833
728.13	3823
728.617	3782
729.104	3790
729.591	3768
730.078	3798
730.565	3823
731.052	3769
731.539	3779
732.027	3749
732.514	3699
733.001	3733
733.488	3715
733.976	3711
734.463	3693
734.951	3687
735.438	3725
735.926	3695
736.413	3738
736.901	3716
737.388	3760
737.876	3753
738.364	3731
738.851	3727
739.339	3726
739.827	3761
740.314	3658
740.802	3675
741.29	3696
741.778	3649
742.266	3646
742.754	3666
743.242	3687
743.73	3609
744.218	3598
744.706	3558
745.194	3582
745.682	3553
746.17	3575
746.659	3602
747.147	3522
747.635	3533
748.123	3526
748.612	3484
749.1	3475
749.589	3512
750.077	3494
750.566	3474
751.054	3478
751.543	3495
752.031	3427
752.52	3419
753.008	3344
753.497	3348
753.986	3329
754.474	3317
754.963	3373
755.452	3313
755.941	3307
756.43	3299
756.919	3294
757.408	3277
757.896	3295
758.385	3305
758.875	3260
759.364	3213
759.853	3184
760.342	3131
760.831	3193
761.32	3152
761.809	3104
762.299	3117
762.788	3139
763.277	3125
763.767	3084
764.256	3083
764.745	3033
765.235	3064
765.724	2966
766.214	3027
766.703	3005
767.193	2976
767.683	2989
768.172	2933
768.662	2955
769.152	2939
769.641	2945
770.131	2885
770.621	2919
771.111	2878
771.601	2855
772.09	2822
772.58	2798
773.07	2804
773.56	2835
774.05	2808
774.54	2809
775.031	2800
775.521	2776
776.011	2753
776.501	2765
776.991	2700
777.482	2743
777.972	2681
778.462	2670
778.953	2689
779.443	2670
779.933	2668
780.424	2637
780.914	2656
781.405	2679
781.895	2650
782.386	2646
782.877	2630
783.367	2569
783.858	2547
784.349	2547
784.839	2524
785.33	2526
785.821	2515
786.312	2508
786.803	2519
787.293	2536
787.784	2487
788.275	2436
788.766	2418
789.257	2456
789.748	2405
790.24	2389
790.731	2403
791.222	2368
791.713	2359
792.204	2358
792.696	2296
793.187	2327
793.678	2302
794.169	2237
794.661	2263
795.152	2243
795.644	2222
796.135	2225
796.627	2246
797.118	2204
797.61	2193
798.101	2165
798.593	2185
799.085	2162
799.576	2170
800.068	2122
800.56	2119
801.052	2062
801.544	2067
802.035	2074
802.527	2045
803.019	2026
803.511	2008
804.003	1994
804.495	2004
804.987	1981
805.479	1928
805.971	1961
806.464	1955
806.956	1912
807.448	1908
807.94	1915
808.433	1899
808.925	1897
809.417	1868
809.91	1857
810.402	1797
810.894	1813
811.387	1825
811.879	1803
812.372	1823
812.865	1794
813.357	1787
813.85	1768
814.342	1773
814.835	1769
815.328	1767
815.821	1730
816.313	1728
816.806	1733
817.299	1706
817.792	1720
818.285	1697
818.778	1712
819.271	1715
819.764	1691
820.257	1701
820.75	1705
821.243	1704
821.736	1687
822.229	1703
822.722	1692
823.216	1732
