Data from lamp5bck_noballon_Subt4__39__394.txt Node

Date: Wed Apr 09 10:16:58 CEST 2025
User: fys-lab-0081
Spectrometer: S04999
Trigger mode: 0
Resolution mode: 1024 pixels
Integration Time (sec): 1.000000E-1
Scans to average: 1
Nonlinearity correction enabled: false
Boxcar width: 0
Baseline correction enabled: true
XAxis mode: Wavelengths
Number of Pixels in Spectrum: 1024
>>>>>Begin Spectral Data<<<<<
336.42	-2
336.877	-1
337.334	-3
337.792	1
338.249	2
338.706	4
339.164	-1
339.621	-2
340.079	5
340.536	7
340.994	7
341.452	-2
341.909	3
342.367	-2
342.825	1
343.283	0
343.741	1
344.198	1
344.656	0
345.114	-3
345.572	1
346.03	4
346.488	5
346.947	-3
347.405	4
347.863	-5
348.321	6
348.779	0
349.238	3
349.696	1
350.154	5
350.613	3
351.071	1
351.53	4
351.988	2
352.447	2
352.905	5
353.364	-1
353.823	-2
354.282	2
354.74	4
355.199	5
355.658	1
356.117	2
356.576	6
357.035	3
357.494	4
357.953	6
358.412	6
358.871	-1
359.33	3
359.789	4
360.249	1
360.708	5
361.167	4
361.626	2
362.086	5
362.545	5
363.005	8
363.464	0
363.924	4
364.383	7
364.843	3
365.303	7
365.762	6
366.222	5
366.682	6
367.142	9
367.601	13
368.061	3
368.521	8
368.981	4
369.441	5
369.901	10
370.361	10
370.821	7
371.282	7
371.742	12
372.202	10
372.662	8
373.123	9
373.583	5
374.043	7
374.504	7
374.964	5
375.425	6
375.885	10
376.346	13
376.806	9
377.267	9
377.728	16
378.188	13
378.649	8
379.11	11
379.571	10
380.032	8
380.493	11
380.954	12
381.414	8
381.876	13
382.337	15
382.798	16
383.259	20
383.72	18
384.181	15
384.642	16
385.104	24
385.565	30
386.026	20
386.488	23
386.949	24
387.411	19
387.872	19
388.334	26
388.795	23
389.257	28
389.719	25
390.181	19
390.642	28
391.104	24
391.566	21
392.028	30
392.49	26
392.952	30
393.414	33
393.876	30
394.338	30
394.8	30
395.262	29
395.724	33
396.186	32
396.648	32
397.111	34
397.573	40
398.035	36
398.498	35
398.96	33
399.423	38
399.885	40
400.348	43
400.81	49
401.273	38
401.736	44
402.198	44
402.661	48
403.124	46
403.587	45
404.049	48
404.512	51
404.975	46
405.438	44
405.901	46
406.364	52
406.827	53
407.29	53
407.754	56
408.217	55
408.68	53
409.143	55
409.607	58
410.07	53
410.533	55
410.997	57
411.46	54
411.924	55
412.387	60
412.851	59
413.314	67
413.778	59
414.242	61
414.705	71
415.169	70
415.633	71
416.097	67
416.561	68
417.024	74
417.488	75
417.952	78
418.416	72
418.88	73
419.344	73
419.809	71
420.273	71
420.737	72
421.201	71
421.665	80
422.13	75
422.594	83
423.059	86
423.523	82
423.987	87
424.452	86
424.916	93
425.381	92
425.846	96
426.31	94
426.775	93
427.24	100
427.704	93
428.169	100
428.634	103
429.099	94
429.564	100
430.029	104
430.494	104
430.959	104
431.424	102
431.889	109
432.354	109
432.819	104
433.284	110
433.75	112
434.215	117
434.68	122
435.146	122
435.611	124
436.077	128
436.542	137
437.008	134
437.473	134
437.939	139
438.404	145
438.87	146
439.336	143
439.801	141
440.267	145
440.733	156
441.199	155
441.665	149
442.131	153
442.596	152
443.062	156
443.529	170
443.995	168
444.461	166
444.927	180
445.393	183
445.859	190
446.325	193
446.792	209
447.258	212
447.724	207
448.191	220
448.657	220
449.124	229
449.59	227
450.057	245
450.523	238
450.99	246
451.457	245
451.923	246
452.39	245
452.857	255
453.324	254
453.791	259
454.257	264
454.724	264
455.191	264
455.658	261
456.125	271
456.592	268
457.059	274
457.527	279
457.994	288
458.461	291
458.928	301
459.396	294
459.863	304
460.33	304
460.798	308
461.265	314
461.732	311
462.2	317
462.668	320
463.135	325
463.603	315
464.07	320
464.538	317
465.006	335
465.474	322
465.941	325
466.409	328
466.877	315
467.345	332
467.813	327
468.281	331
468.749	339
469.217	336
469.685	341
470.153	346
470.621	345
471.09	353
471.558	366
472.026	369
472.494	378
472.963	386
473.431	401
473.9	410
474.368	416
474.837	422
475.305	425
475.774	441
476.242	454
476.711	448
477.18	455
477.648	464
478.117	469
478.586	463
479.055	468
479.524	473
479.993	469
480.462	470
480.93	469
481.399	469
481.869	477
482.338	477
482.807	483
483.276	482
483.745	488
484.214	497
484.684	504
485.153	510
485.622	510
486.092	525
486.561	521
487.031	536
487.5	545
487.97	559
488.439	572
488.909	591
489.378	614
489.848	611
490.318	625
490.787	645
491.257	663
491.727	661
492.197	673
492.667	670
493.137	676
493.607	685
494.077	693
494.547	691
495.017	697
495.487	702
495.957	719
496.427	701
496.897	699
497.368	714
497.838	706
498.308	720
498.779	733
499.249	741
499.719	748
500.19	753
500.66	755
501.131	762
501.602	775
502.072	772
502.543	791
503.014	821
503.484	818
503.955	844
504.426	879
504.897	886
505.368	896
505.838	917
506.309	944
506.78	970
507.251	995
507.722	1010
508.194	1033
508.665	1050
509.136	1047
509.607	1079
510.078	1095
510.549	1098
511.021	1130
511.492	1130
511.964	1149
512.435	1168
512.906	1162
513.378	1180
513.849	1195
514.321	1210
514.793	1217
515.264	1231
515.736	1247
516.208	1265
516.679	1274
517.151	1285
517.623	1300
518.095	1323
518.567	1338
519.038	1356
519.51	1359
519.982	1388
520.454	1404
520.927	1431
521.399	1444
521.871	1468
522.343	1474
522.815	1486
523.287	1482
523.76	1498
524.232	1526
524.704	1542
525.177	1513
525.649	1522
526.122	1538
526.594	1511
527.067	1551
527.539	1567
528.012	1557
528.484	1556
528.957	1555
529.43	1562
529.903	1552
530.375	1611
530.848	1584
531.321	1604
531.794	1592
532.267	1638
532.74	1614
533.213	1616
533.686	1653
534.159	1641
534.632	1682
535.105	1697
535.578	1730
536.051	1740
536.525	1746
536.998	1752
537.471	1789
537.945	1768
538.418	1807
538.891	1811
539.365	1831
539.838	1846
540.312	1847
540.786	1865
541.259	1856
541.733	1872
542.206	1872
542.68	1853
543.154	1856
543.628	1866
544.101	1924
544.575	1910
545.049	1851
545.523	1880
545.997	1885
546.471	1908
546.945	1882
547.419	1908
547.893	1844
548.367	1897
548.842	1880
549.316	1883
549.79	1907
550.264	1891
550.739	1921
551.213	1916
551.687	1913
552.162	1944
552.636	1930
553.111	1919
553.585	1980
554.06	1950
554.534	1986
555.009	1974
555.484	2015
555.958	2047
556.433	2054
556.908	2075
557.383	2060
557.858	2121
558.333	2126
558.807	2109
559.282	2122
559.757	2191
560.232	2206
560.708	2177
561.183	2153
561.658	2182
562.133	2188
562.608	2174
563.083	2228
563.559	2170
564.034	2190
564.509	2191
564.985	2199
565.46	2177
565.936	2226
566.411	2232
566.887	2210
567.362	2210
567.838	2222
568.313	2241
568.789	2212
569.265	2205
569.74	2241
570.216	2225
570.692	2262
571.168	2257
571.644	2249
572.12	2245
572.596	2274
573.071	2300
573.547	2362
574.024	2391
574.5	2413
574.976	2432
575.452	2463
575.928	2476
576.404	2491
576.881	2574
577.357	2535
577.833	2547
578.31	2627
578.786	2657
579.262	2710
579.739	2668
580.215	2736
580.692	2725
581.169	2716
581.645	2716
582.122	2800
582.598	2803
583.075	2809
583.552	2830
584.029	2825
584.506	2811
584.982	2784
585.459	2837
585.936	2814
586.413	2850
586.89	2892
587.367	2860
587.844	2931
588.321	2923
588.799	2920
589.276	2879
589.753	2927
590.23	2958
590.707	2938
591.185	2937
591.662	2946
592.139	2995
592.617	3049
593.094	3029
593.572	3042
594.049	3076
594.527	3118
595.004	3139
595.482	3213
595.96	3186
596.437	3203
596.915	3288
597.393	3228
597.871	3302
598.349	3264
598.826	3334
599.304	3339
599.782	3401
600.26	3374
600.738	3461
601.216	3461
601.694	3500
602.173	3525
602.651	3520
603.129	3453
603.607	3490
604.085	3512
604.564	3514
605.042	3515
605.52	3494
605.999	3605
606.477	3519
606.956	3535
607.434	3576
607.913	3617
608.391	3591
608.87	3576
609.348	3533
609.827	3555
610.306	3591
610.785	3608
611.263	3620
611.742	3586
612.221	3526
612.7	3578
613.179	3606
613.658	3556
614.137	3631
614.616	3655
615.095	3585
615.574	3651
616.053	3699
616.532	3669
617.011	3671
617.491	3696
617.97	3697
618.449	3770
618.928	3809
619.408	3768
619.887	3813
620.367	3823
620.846	3881
621.326	3848
621.805	3938
622.285	3926
622.764	3960
623.244	3971
623.724	4005
624.203	4022
624.683	3958
625.163	4035
625.643	4031
626.123	3991
626.602	4109
627.082	4020
627.562	4023
628.042	4108
628.522	4060
629.002	4026
629.482	4057
629.963	4035
630.443	4016
630.923	4036
631.403	4054
631.883	4055
632.364	4063
632.844	4026
633.324	4073
633.805	4098
634.285	4047
634.766	4026
635.246	4015
635.727	4019
636.207	4042
636.688	4040
637.168	4046
637.649	4014
638.13	3999
638.611	4039
639.091	4030
639.572	4004
640.053	3977
640.534	4026
641.015	4011
641.496	3958
641.977	4045
642.458	4001
642.939	4024
643.42	4038
643.901	4038
644.382	4093
644.863	4074
645.345	4088
645.826	4089
646.307	4102
646.788	4170
647.27	4095
647.751	4093
648.233	4121
648.714	4033
649.196	4148
649.677	4155
650.159	4146
650.64	4088
651.122	4161
651.603	4125
652.085	4170
652.567	4186
653.049	4128
653.53	4139
654.012	4194
654.494	4131
654.976	4177
655.458	4156
655.94	4152
656.422	4222
656.904	4154
657.386	4123
657.868	4128
658.35	4108
658.833	4142
659.315	4159
659.797	4106
660.279	4105
660.762	4143
661.244	4097
661.726	4032
662.209	4024
662.691	4031
663.174	3970
663.656	4005
664.139	4012
664.621	3954
665.104	3932
665.587	3998
666.069	4029
666.552	4036
667.035	3989
667.517	4004
668	4043
668.483	4045
668.966	4007
669.449	3984
669.932	3991
670.415	4027
670.898	3995
671.381	4020
671.864	4040
672.347	4001
672.83	4011
673.313	4000
673.797	3980
674.28	4065
674.763	4108
675.247	4141
675.73	4104
676.213	4134
676.697	4149
677.18	4158
677.664	4174
678.147	4176
678.631	4190
679.114	4218
679.598	4200
680.082	4244
680.565	4254
681.049	4239
681.533	4227
682.017	4260
682.5	4237
682.984	4260
683.468	4270
683.952	4191
684.436	4283
684.92	4239
685.404	4262
685.888	4306
686.372	4283
686.856	4313
687.341	4358
687.825	4295
688.309	4309
688.793	4291
689.278	4238
689.762	4273
690.246	4260
690.731	4279
691.215	4294
691.7	4181
692.184	4220
692.669	4214
693.153	4261
693.638	4194
694.122	4183
694.607	4199
695.092	4152
695.577	4194
696.061	4115
696.546	4126
697.031	4109
697.516	4133
698.001	4142
698.486	4132
698.971	4205
699.456	4117
699.941	4110
700.426	4108
700.911	4150
701.396	4137
701.881	4182
702.366	4172
702.852	4156
703.337	4171
703.822	4158
704.308	4154
704.793	4187
705.278	4194
705.764	4209
706.249	4189
706.735	4149
707.22	4175
707.706	4099
708.191	4189
708.677	4213
709.163	4182
709.648	4205
710.134	4264
710.62	4215
711.106	4224
711.592	4289
712.077	4270
712.563	4154
713.049	4134
713.535	4218
714.021	4199
714.507	4197
714.993	4167
715.479	4219
715.966	4163
716.452	4158
716.938	4164
717.424	4040
717.91	4135
718.397	4112
718.883	4087
719.369	4103
719.856	4069
720.342	4106
720.829	4056
721.315	4089
721.802	4057
722.288	4079
722.775	3916
723.262	3810
723.748	3972
724.235	3958
724.722	4048
725.208	3979
725.695	3984
726.182	3961
726.669	3896
727.156	3890
727.643	3846
728.13	3833
728.617	3799
729.104	3800
729.591	3779
730.078	3814
730.565	3839
731.052	3775
731.539	3803
732.027	3765
732.514	3714
733.001	3756
733.488	3738
733.976	3714
734.463	3713
734.951	3697
735.438	3745
735.926	3718
736.413	3750
736.901	3728
737.388	3773
737.876	3763
738.364	3734
738.851	3748
739.339	3736
739.827	3770
740.314	3655
740.802	3687
741.29	3700
741.778	3647
742.266	3658
742.754	3681
743.242	3704
743.73	3630
744.218	3606
744.706	3564
745.194	3583
745.682	3565
746.17	3580
746.659	3609
747.147	3525
747.635	3535
748.123	3532
748.612	3490
749.1	3478
749.589	3523
750.077	3507
750.566	3470
751.054	3498
751.543	3501
752.031	3437
752.52	3427
753.008	3354
753.497	3359
753.986	3354
754.474	3335
754.963	3371
755.452	3331
755.941	3311
756.43	3311
756.919	3303
757.408	3291
757.896	3308
758.385	3313
758.875	3277
759.364	3230
759.853	3200
760.342	3134
760.831	3197
761.32	3162
761.809	3112
762.299	3132
762.788	3144
763.277	3138
763.767	3093
764.256	3098
764.745	3039
765.235	3074
765.724	2994
766.214	3042
766.703	3015
767.193	2985
767.683	2999
768.172	2949
768.662	2972
769.152	2952
769.641	2956
770.131	2885
770.621	2937
771.111	2880
771.601	2864
772.09	2827
772.58	2799
773.07	2816
773.56	2847
774.05	2813
774.54	2820
775.031	2807
775.521	2786
776.011	2767
776.501	2773
776.991	2724
777.482	2750
777.972	2684
778.462	2676
778.953	2698
779.443	2684
779.933	2678
780.424	2646
780.914	2670
781.405	2685
781.895	2656
782.386	2655
782.877	2643
783.367	2584
783.858	2562
784.349	2555
784.839	2522
785.33	2530
785.821	2530
786.312	2518
786.803	2527
787.293	2533
787.784	2494
788.275	2458
788.766	2424
789.257	2468
789.748	2413
790.24	2391
790.731	2416
791.222	2376
791.713	2368
792.204	2370
792.696	2303
793.187	2330
793.678	2316
794.169	2243
794.661	2268
795.152	2241
795.644	2233
796.135	2226
796.627	2249
797.118	2213
797.61	2189
798.101	2173
798.593	2197
799.085	2168
799.576	2171
800.068	2128
800.56	2129
801.052	2073
801.544	2073
802.035	2089
802.527	2054
803.019	2035
803.511	2017
804.003	1997
804.495	2014
804.987	1987
805.479	1939
805.971	1969
806.464	1968
806.956	1916
807.448	1909
807.94	1916
808.433	1901
808.925	1900
809.417	1882
809.91	1866
810.402	1814
810.894	1816
811.387	1834
811.879	1807
812.372	1823
812.865	1793
813.357	1795
813.85	1783
814.342	1775
814.835	1782
815.328	1765
815.821	1739
816.313	1736
816.806	1738
817.299	1711
817.792	1717
818.285	1698
818.778	1716
819.271	1722
819.764	1699
820.257	1706
820.75	1712
821.243	1710
821.736	1695
822.229	1710
822.722	1697
823.216	1739
