Data from lamp5bck_noballon_Subt4__11__366.txt Node

Date: Wed Apr 09 10:16:55 CEST 2025
User: fys-lab-0081
Spectrometer: S04999
Trigger mode: 0
Resolution mode: 1024 pixels
Integration Time (sec): 1.000000E-1
Scans to average: 1
Nonlinearity correction enabled: false
Boxcar width: 0
Baseline correction enabled: true
XAxis mode: Wavelengths
Number of Pixels in Spectrum: 1024
>>>>>Begin Spectral Data<<<<<
336.42	2
336.877	-1
337.334	-1
337.792	-3
338.249	9
338.706	0
339.164	-1
339.621	-5
340.079	7
340.536	4
340.994	5
341.452	-6
341.909	2
342.367	-2
342.825	0
343.283	3
343.741	-1
344.198	-2
344.656	0
345.114	0
345.572	3
346.03	5
346.488	4
346.947	1
347.405	4
347.863	1
348.321	7
348.779	-1
349.238	2
349.696	2
350.154	-1
350.613	-2
351.071	3
351.53	5
351.988	3
352.447	-2
352.905	6
353.364	-1
353.823	3
354.282	1
354.74	0
355.199	5
355.658	4
356.117	1
356.576	3
357.035	4
357.494	4
357.953	7
358.412	8
358.871	-2
359.33	4
359.789	4
360.249	1
360.708	9
361.167	4
361.626	4
362.086	3
362.545	7
363.005	12
363.464	1
363.924	1
364.383	4
364.843	3
365.303	6
365.762	3
366.222	-1
366.682	5
367.142	7
367.601	2
368.061	6
368.521	10
368.981	6
369.441	9
369.901	11
370.361	9
370.821	7
371.282	9
371.742	10
372.202	6
372.662	15
373.123	7
373.583	3
374.043	6
374.504	8
374.964	10
375.425	7
375.885	9
376.346	12
376.806	12
377.267	9
377.728	16
378.188	11
378.649	11
379.11	12
379.571	10
380.032	8
380.493	9
380.954	13
381.414	12
381.876	11
382.337	16
382.798	18
383.259	23
383.72	15
384.181	20
384.642	19
385.104	21
385.565	30
386.026	23
386.488	21
386.949	21
387.411	17
387.872	19
388.334	24
388.795	20
389.257	25
389.719	26
390.181	21
390.642	28
391.104	21
391.566	21
392.028	32
392.49	25
392.952	32
393.414	32
393.876	28
394.338	29
394.8	24
395.262	31
395.724	37
396.186	34
396.648	35
397.111	34
397.573	34
398.035	31
398.498	38
398.96	36
399.423	37
399.885	40
400.348	34
400.81	43
401.273	35
401.736	43
402.198	45
402.661	45
403.124	45
403.587	46
404.049	49
404.512	52
404.975	50
405.438	42
405.901	47
406.364	56
406.827	52
407.29	52
407.754	54
408.217	55
408.68	51
409.143	53
409.607	60
410.07	57
410.533	60
410.997	62
411.46	55
411.924	58
412.387	58
412.851	59
413.314	65
413.778	60
414.242	65
414.705	70
415.169	68
415.633	67
416.097	68
416.561	69
417.024	73
417.488	73
417.952	74
418.416	78
418.88	71
419.344	72
419.809	75
420.273	75
420.737	76
421.201	71
421.665	79
422.13	80
422.594	81
423.059	84
423.523	77
423.987	83
424.452	89
424.916	93
425.381	87
425.846	97
426.31	91
426.775	96
427.24	101
427.704	99
428.169	101
428.634	100
429.099	96
429.564	95
430.029	105
430.494	106
430.959	105
431.424	97
431.889	102
432.354	107
432.819	106
433.284	111
433.75	109
434.215	114
434.68	119
435.146	121
435.611	127
436.077	130
436.542	132
437.008	138
437.473	140
437.939	142
438.404	146
438.87	146
439.336	143
439.801	143
440.267	144
440.733	153
441.199	157
441.665	151
442.131	159
442.596	160
443.062	159
443.529	169
443.995	166
444.461	170
444.927	183
445.393	177
445.859	188
446.325	194
446.792	211
447.258	211
447.724	208
448.191	216
448.657	219
449.124	234
449.59	224
450.057	245
450.523	237
450.99	241
451.457	245
451.923	248
452.39	244
452.857	250
453.324	251
453.791	259
454.257	262
454.724	263
455.191	262
455.658	263
456.125	276
456.592	269
457.059	279
457.527	280
457.994	289
458.461	289
458.928	300
459.396	299
459.863	309
460.33	306
460.798	302
461.265	310
461.732	313
462.2	324
462.668	318
463.135	325
463.603	314
464.07	319
464.538	318
465.006	331
465.474	320
465.941	322
466.409	324
466.877	317
467.345	331
467.813	327
468.281	332
468.749	331
469.217	331
469.685	339
470.153	347
470.621	351
471.09	352
471.558	370
472.026	365
472.494	373
472.963	385
473.431	393
473.9	410
474.368	417
474.837	422
475.305	424
475.774	438
476.242	457
476.711	450
477.18	463
477.648	460
478.117	470
478.586	460
479.055	464
479.524	470
479.993	472
480.462	468
480.93	471
481.399	474
481.869	475
482.338	477
482.807	483
483.276	481
483.745	488
484.214	494
484.684	506
485.153	506
485.622	505
486.092	523
486.561	521
487.031	531
487.5	546
487.97	558
488.439	569
488.909	588
489.378	607
489.848	610
490.318	626
490.787	646
491.257	656
491.727	662
492.197	672
492.667	667
493.137	676
493.607	682
494.077	697
494.547	688
495.017	690
495.487	696
495.957	711
496.427	698
496.897	700
497.368	708
497.838	707
498.308	719
498.779	728
499.249	739
499.719	752
500.19	750
500.66	759
501.131	762
501.602	781
502.072	776
502.543	788
503.014	820
503.484	815
503.955	838
504.426	877
504.897	885
505.368	896
505.838	919
506.309	937
506.78	972
507.251	994
507.722	1006
508.194	1035
508.665	1048
509.136	1046
509.607	1085
510.078	1093
510.549	1097
511.021	1122
511.492	1131
511.964	1154
512.435	1166
512.906	1153
513.378	1175
513.849	1196
514.321	1202
514.793	1218
515.264	1232
515.736	1244
516.208	1267
516.679	1276
517.151	1283
517.623	1296
518.095	1323
518.567	1338
519.038	1354
519.51	1354
519.982	1380
520.454	1403
520.927	1425
521.399	1439
521.871	1465
522.343	1467
522.815	1481
523.287	1478
523.76	1497
524.232	1521
524.704	1537
525.177	1512
525.649	1520
526.122	1540
526.594	1509
527.067	1549
527.539	1568
528.012	1557
528.484	1546
528.957	1557
529.43	1556
529.903	1558
530.375	1612
530.848	1585
531.321	1600
531.794	1601
532.267	1636
532.74	1619
533.213	1622
533.686	1651
534.159	1641
534.632	1686
535.105	1695
535.578	1729
536.051	1732
536.525	1746
536.998	1747
537.471	1787
537.945	1766
538.418	1801
538.891	1815
539.365	1834
539.838	1850
540.312	1844
540.786	1869
541.259	1850
541.733	1866
542.206	1879
542.68	1851
543.154	1851
543.628	1869
544.101	1920
544.575	1905
545.049	1852
545.523	1877
545.997	1885
546.471	1905
546.945	1886
547.419	1910
547.893	1846
548.367	1892
548.842	1881
549.316	1887
549.79	1906
550.264	1887
550.739	1916
551.213	1913
551.687	1916
552.162	1944
552.636	1923
553.111	1917
553.585	1977
554.06	1949
554.534	1980
555.009	1973
555.484	2013
555.958	2040
556.433	2052
556.908	2082
557.383	2055
557.858	2115
558.333	2121
558.807	2105
559.282	2123
559.757	2186
560.232	2198
560.708	2170
561.183	2155
561.658	2180
562.133	2176
562.608	2172
563.083	2227
563.559	2171
564.034	2187
564.509	2195
564.985	2195
565.46	2176
565.936	2221
566.411	2223
566.887	2207
567.362	2210
567.838	2227
568.313	2244
568.789	2208
569.265	2202
569.74	2234
570.216	2226
570.692	2265
571.168	2259
571.644	2241
572.12	2245
572.596	2277
573.071	2291
573.547	2356
574.024	2376
574.5	2414
574.976	2432
575.452	2468
575.928	2478
576.404	2495
576.881	2578
577.357	2532
577.833	2544
578.31	2613
578.786	2661
579.262	2705
579.739	2660
580.215	2735
580.692	2715
581.169	2714
581.645	2719
582.122	2800
582.598	2807
583.075	2799
583.552	2823
584.029	2819
584.506	2810
584.982	2772
585.459	2830
585.936	2807
586.413	2839
586.89	2888
587.367	2868
587.844	2934
588.321	2922
588.799	2917
589.276	2884
589.753	2922
590.23	2956
590.707	2937
591.185	2939
591.662	2944
592.139	2990
592.617	3038
593.094	3034
593.572	3030
594.049	3074
594.527	3111
595.004	3142
595.482	3216
595.96	3179
596.437	3198
596.915	3284
597.393	3216
597.871	3300
598.349	3260
598.826	3321
599.304	3337
599.782	3403
600.26	3371
600.738	3461
601.216	3459
601.694	3491
602.173	3510
602.651	3513
603.129	3448
603.607	3493
604.085	3510
604.564	3510
605.042	3513
605.52	3501
605.999	3597
606.477	3508
606.956	3527
607.434	3566.5
607.913	3606
608.391	3592
608.87	3574
609.348	3532
609.827	3552
610.306	3580
610.785	3613
611.263	3606
611.742	3575
612.221	3528
612.7	3572
613.179	3609
613.658	3565
614.137	3628
614.616	3649
615.095	3584
615.574	3645
616.053	3692
616.532	3659
617.011	3661
617.491	3696
617.97	3697
618.449	3762
618.928	3790
619.408	3755
619.887	3796
620.367	3822
620.846	3871
621.326	3841
621.805	3941
622.285	3917
622.764	3942
623.244	3952
623.724	4002
624.203	4016
624.683	3941
625.163	4024
625.643	4022
626.123	3987
626.602	4101
627.082	4019
627.562	4017
628.042	4108
628.522	4064
629.002	4022
629.482	4032
629.963	4037
630.443	4012
630.923	4035
631.403	4050
631.883	4058
632.364	4060
632.844	4032
633.324	4067
633.805	4086
634.285	4038
634.766	4011
635.246	4009
635.727	4022
636.207	4020
636.688	4032
637.168	4049
637.649	4013
638.13	3997
638.611	4031
639.091	4022
639.572	3994
640.053	3979
640.534	4016
641.015	4012
641.496	3967
641.977	4044
642.458	4001
642.939	4019
643.42	4031
643.901	4040
644.382	4099
644.863	4075
645.345	4075
645.826	4083
646.307	4097
646.788	4166
647.27	4084
647.751	4081
648.233	4108
648.714	4028
649.196	4154
649.677	4146
650.159	4144
650.64	4094
651.122	4168
651.603	4110
652.085	4167
652.567	4179
653.049	4142
653.53	4132
654.012	4192
654.494	4121
654.976	4165
655.458	4151
655.94	4139
656.422	4208
656.904	4164
657.386	4114
657.868	4129
658.35	4108
658.833	4140
659.315	4153
659.797	4104
660.279	4106
660.762	4123
661.244	4097
661.726	4027
662.209	4031
662.691	4035
663.174	3969
663.656	4003
664.139	4006
664.621	3962
665.104	3929
665.587	3986
666.069	4017
666.552	4035
667.035	3988
667.517	3994
668	4043
668.483	4024
668.966	3997
669.449	3982
669.932	3989
670.415	4020
670.898	3993
671.381	4014
671.864	4041
672.347	3994
672.83	3997
673.313	3988
673.797	3973
674.28	4067
674.763	4099
675.247	4130
675.73	4113
676.213	4126
676.697	4147
677.18	4150
677.664	4173
678.147	4164
678.631	4186
679.114	4211
679.598	4202
680.082	4245
680.565	4247
681.049	4236
681.533	4223
682.017	4243
682.5	4229
682.984	4264
683.468	4260
683.952	4186
684.436	4269
684.92	4229
685.404	4262
685.888	4298
686.372	4274
686.856	4304
687.341	4363
687.825	4282
688.309	4294
688.793	4284
689.278	4222
689.762	4272
690.246	4253
690.731	4264
691.215	4302
691.7	4176
692.184	4221
692.669	4202
693.153	4252
693.638	4181
694.122	4180
694.607	4204
695.092	4148
695.577	4178
696.061	4101
696.546	4122
697.031	4110
697.516	4139
698.001	4137
698.486	4127
698.971	4204
699.456	4109
699.941	4103
700.426	4100
700.911	4146
701.396	4131
701.881	4184
702.366	4168
702.852	4149
703.337	4170
703.822	4153
704.308	4148
704.793	4175
705.278	4189
705.764	4208
706.249	4179
706.735	4144
707.22	4166
707.706	4099
708.191	4184
708.677	4199
709.163	4179
709.648	4197
710.134	4256
710.62	4210
711.106	4214
711.592	4289
712.077	4262
712.563	4153
713.049	4136
713.535	4210
714.021	4189
714.507	4191
714.993	4172
715.479	4219
715.966	4154
716.452	4162
716.938	4155
717.424	4037
717.91	4126
718.397	4101
718.883	4082
719.369	4115
719.856	4068
720.342	4120
720.829	4056
721.315	4080
721.802	4059
722.288	4080
722.775	3917
723.262	3808
723.748	3964
724.235	3962
724.722	4039
725.208	3984
725.695	3980
726.182	3957
726.669	3887
727.156	3877
727.643	3846
728.13	3825
728.617	3798
729.104	3791
729.591	3778
730.078	3808
730.565	3830
731.052	3772
731.539	3790
732.027	3761
732.514	3705
733.001	3748
733.488	3723
733.976	3725
734.463	3710
734.951	3703
735.438	3742
735.926	3710
736.413	3751
736.901	3713
737.388	3774
737.876	3761
738.364	3735
738.851	3745
739.339	3733
739.827	3758
740.314	3662
740.802	3694
741.29	3703
741.778	3650
742.266	3652
742.754	3675
743.242	3694
743.73	3628
744.218	3609
744.706	3564
745.194	3588
745.682	3561
746.17	3583
746.659	3613
747.147	3524
747.635	3539
748.123	3532
748.612	3487
749.1	3477
749.589	3526
750.077	3498
750.566	3469
751.054	3488
751.543	3507
752.031	3442
752.52	3431
753.008	3363
753.497	3360
753.986	3348
754.474	3328
754.963	3381
755.452	3330
755.941	3319
756.43	3318
756.919	3302
757.408	3290
757.896	3301
758.385	3315
758.875	3276
759.364	3231
759.853	3196
760.342	3136
760.831	3194
761.32	3164
761.809	3121
762.299	3133
762.788	3150
763.277	3132
763.767	3085
764.256	3093
764.745	3034
765.235	3079
765.724	2986
766.214	3038
766.703	3012
767.193	2989
767.683	2994
768.172	2941
768.662	2969
769.152	2947
769.641	2953
770.131	2887
770.621	2930
771.111	2880
771.601	2868
772.09	2832
772.58	2795
773.07	2807
773.56	2843
774.05	2813
774.54	2817
775.031	2809
775.521	2785
776.011	2759
776.501	2771
776.991	2712
777.482	2747
777.972	2678
778.462	2680
778.953	2699
779.443	2675
779.933	2675
780.424	2648
780.914	2662
781.405	2685
781.895	2649
782.386	2653
782.877	2634
783.367	2581
783.858	2561
784.349	2553
784.839	2534
785.33	2531
785.821	2528
786.312	2522
786.803	2534
787.293	2545
787.784	2494
788.275	2450
788.766	2422
789.257	2470
789.748	2411
790.24	2387
790.731	2409
791.222	2377
791.713	2363
792.204	2364
792.696	2310
793.187	2327
793.678	2307
794.169	2241
794.661	2273
795.152	2246
795.644	2227
796.135	2228
796.627	2250
797.118	2211
797.61	2196
798.101	2168
798.593	2194
799.085	2164
799.576	2175
800.068	2128
800.56	2123
801.052	2072
801.544	2073
802.035	2084
802.527	2054
803.019	2031
803.511	2018
804.003	2003
804.495	2006
804.987	1983
805.479	1935
805.971	1967
806.464	1969
806.956	1914
807.448	1916
807.94	1919
808.433	1900
808.925	1893
809.417	1874
809.91	1859
810.402	1807
810.894	1813
811.387	1823
811.879	1798
812.372	1820
812.865	1796
813.357	1794
813.85	1774
814.342	1772
814.835	1778
815.328	1762
815.821	1738
816.313	1729
816.806	1738
817.299	1711
817.792	1720
818.285	1698
818.778	1709
819.271	1726
819.764	1694
820.257	1710
820.75	1713
821.243	1713
821.736	1695
822.229	1711
822.722	1702
823.216	1737
