Data from lamp5bck_noballon_Subt4__79__434.txt Node

Date: Wed Apr 09 10:17:03 CEST 2025
User: fys-lab-0081
Spectrometer: S04999
Trigger mode: 0
Resolution mode: 1024 pixels
Integration Time (sec): 1.000000E-1
Scans to average: 1
Nonlinearity correction enabled: false
Boxcar width: 0
Baseline correction enabled: true
XAxis mode: Wavelengths
Number of Pixels in Spectrum: 1024
>>>>>Begin Spectral Data<<<<<
336.42	1
336.877	3
337.334	1
337.792	1
338.249	8
338.706	4
339.164	-1
339.621	-2
340.079	-1
340.536	7
340.994	6
341.452	-5
341.909	3
342.367	1
342.825	2
343.283	1
343.741	-2
344.198	3
344.656	4
345.114	1
345.572	2
346.03	5
346.488	5
346.947	1
347.405	5
347.863	1
348.321	4
348.779	1
349.238	6
349.696	1
350.154	1
350.613	0
351.071	1
351.53	7
351.988	2
352.447	0
352.905	1
353.364	-1
353.823	3
354.282	3
354.74	1
355.199	4
355.658	3
356.117	3
356.576	4
357.035	3
357.494	6
357.953	11
358.412	6
358.871	-1
359.33	4
359.789	1
360.249	-1
360.708	7
361.167	2
361.626	9
362.086	6
362.545	6
363.005	10
363.464	0
363.924	1
364.383	7
364.843	1
365.303	9
365.762	10
366.222	3
366.682	4
367.142	11
367.601	7
368.061	6
368.521	7
368.981	6
369.441	9
369.901	15
370.361	8
370.821	7
371.282	9
371.742	11
372.202	7
372.662	8
373.123	7
373.583	4
374.043	13
374.504	5
374.964	4
375.425	9
375.885	10
376.346	10
376.806	8
377.267	10
377.728	13
378.188	11
378.649	13
379.11	14
379.571	6
380.032	13
380.493	8
380.954	14
381.414	11
381.876	12
382.337	15
382.798	16
383.259	19
383.72	13
384.181	21
384.642	18
385.104	20
385.565	27
386.026	18
386.488	16
386.949	19
387.411	23
387.872	18
388.334	26
388.795	22
389.257	26
389.719	27
390.181	26
390.642	29
391.104	25
391.566	23
392.028	31
392.49	27
392.952	29
393.414	33
393.876	31
394.338	30
394.8	30
395.262	31
395.724	31
396.186	37
396.648	38
397.111	37
397.573	31
398.035	35
398.498	35
398.96	34
399.423	34
399.885	40
400.348	38
400.81	46
401.273	37
401.736	44
402.198	41
402.661	43
403.124	45
403.587	47
404.049	45.5
404.512	44
404.975	46
405.438	50
405.901	48
406.364	52
406.827	48
407.29	56
407.754	55
408.217	56
408.68	53
409.143	52
409.607	55
410.07	56
410.533	56
410.997	59
411.46	55
411.924	60
412.387	59
412.851	61
413.314	66
413.778	64
414.242	65
414.705	65
415.169	69
415.633	68
416.097	73
416.561	70
417.024	72
417.488	73
417.952	72
418.416	83
418.88	73
419.344	72
419.809	70
420.273	73
420.737	71
421.201	69
421.665	76
422.13	80
422.594	85
423.059	86
423.523	84
423.987	84
424.452	86
424.916	93
425.381	95
425.846	94
426.31	99
426.775	95
427.24	102
427.704	96
428.169	101
428.634	101
429.099	99
429.564	98
430.029	98
430.494	102
430.959	105
431.424	103
431.889	102
432.354	106
432.819	104
433.284	108
433.75	118
434.215	117
434.68	122
435.146	119
435.611	127
436.077	131
436.542	137
437.008	135
437.473	137
437.939	141
438.404	145
438.87	146
439.336	143
439.801	140
440.267	148
440.733	154
441.199	154
441.665	149
442.131	158
442.596	152
443.062	155
443.529	165
443.995	164
444.461	175
444.927	182
445.393	179
445.859	187
446.325	193
446.792	212
447.258	208
447.724	213
448.191	219
448.657	219
449.124	230
449.59	222
450.057	242
450.523	238
450.99	245
451.457	246
451.923	250
452.39	245
452.857	257
453.324	247
453.791	257
454.257	259
454.724	262
455.191	264
455.658	261
456.125	274
456.592	269
457.059	271
457.527	280
457.994	286
458.461	290
458.928	302
459.396	293
459.863	305
460.33	308
460.798	306
461.265	310
461.732	311
462.2	319
462.668	320
463.135	327
463.603	312
464.07	321
464.538	313
465.006	331
465.474	321
465.941	323
466.409	325
466.877	319
467.345	334
467.813	325
468.281	327
468.749	333
469.217	337
469.685	339
470.153	344
470.621	344
471.09	353
471.558	368
472.026	365
472.494	380
472.963	383
473.431	396
473.9	408
474.368	413
474.837	419
475.305	428
475.774	440
476.242	455
476.711	450
477.18	459
477.648	462
478.117	469
478.586	461
479.055	463
479.524	467
479.993	470
480.462	467
480.93	470
481.399	471
481.869	472
482.338	473
482.807	482
483.276	480
483.745	486
484.214	496
484.684	499
485.153	502
485.622	507
486.092	523
486.561	517
487.031	528
487.5	546
487.97	561
488.439	572
488.909	591
489.378	609
489.848	609
490.318	626
490.787	641
491.257	659
491.727	655
492.197	671
492.667	669
493.137	673
493.607	685
494.077	694
494.547	680
495.017	691
495.487	694
495.957	708
496.427	697
496.897	698
497.368	714
497.838	704
498.308	719
498.779	727
499.249	742
499.719	741
500.19	756
500.66	757
501.131	761
501.602	771
502.072	769
502.543	785
503.014	821
503.484	813
503.955	842
504.426	884
504.897	884
505.368	894
505.838	913
506.309	934
506.78	970
507.251	995
507.722	1012
508.194	1031
508.665	1049
509.136	1043
509.607	1083
510.078	1090
510.549	1098
511.021	1124
511.492	1127
511.964	1149
512.435	1164
512.906	1152
513.378	1174
513.849	1190
514.321	1203
514.793	1218
515.264	1228
515.736	1244
516.208	1266
516.679	1269
517.151	1288
517.623	1295
518.095	1327
518.567	1337
519.038	1352
519.51	1357
519.982	1382
520.454	1396
520.927	1421
521.399	1447
521.871	1463
522.343	1471
522.815	1481
523.287	1480
523.76	1493
524.232	1525
524.704	1528
525.177	1512
525.649	1521
526.122	1534
526.594	1508
527.067	1545
527.539	1567
528.012	1553
528.484	1549
528.957	1553
529.43	1551
529.903	1552
530.375	1610
530.848	1583
531.321	1596
531.794	1598
532.267	1636
532.74	1619
533.213	1612
533.686	1645
534.159	1637
534.632	1686
535.105	1697
535.578	1729
536.051	1734
536.525	1738
536.998	1752
537.471	1783
537.945	1761
538.418	1806
538.891	1811
539.365	1827
539.838	1845
540.312	1839
540.786	1859
541.259	1851
541.733	1868
542.206	1875
542.68	1855
543.154	1854
543.628	1864
544.101	1912
544.575	1894
545.049	1848
545.523	1887
545.997	1882
546.471	1901
546.945	1881
547.419	1913
547.893	1851
548.367	1893
548.842	1879
549.316	1887
549.79	1909
550.264	1884
550.739	1914
551.213	1909
551.687	1912
552.162	1933
552.636	1924
553.111	1913
553.585	1976
554.06	1948
554.534	1984
555.009	1968
555.484	2012
555.958	2040
556.433	2052
556.908	2072
557.383	2055
557.858	2111
558.333	2119
558.807	2102
559.282	2119
559.757	2183
560.232	2198
560.708	2173
561.183	2156
561.658	2186
562.133	2182
562.608	2166
563.083	2221
563.559	2170
564.034	2179
564.509	2188
564.985	2186
565.46	2175
565.936	2228
566.411	2224
566.887	2188
567.362	2211
567.838	2217
568.313	2244
568.789	2200
569.265	2199
569.74	2233
570.216	2217
570.692	2260
571.168	2257
571.644	2246
572.12	2243
572.596	2274
573.071	2291
573.547	2354
574.024	2380
574.5	2410
574.976	2427
575.452	2464
575.928	2473
576.404	2482
576.881	2573
577.357	2530
577.833	2542
578.31	2613
578.786	2654
579.262	2703
579.739	2667
580.215	2732
580.692	2714
581.169	2709
581.645	2716
582.122	2793
582.598	2797
583.075	2795
583.552	2831
584.029	2817
584.506	2799
584.982	2772
585.459	2835
585.936	2808
586.413	2836
586.89	2882
587.367	2859
587.844	2927
588.321	2908
588.799	2914
589.276	2881
589.753	2924
590.23	2946
590.707	2936
591.185	2938
591.662	2941
592.139	2994
592.617	3029
593.094	3025
593.572	3035
594.049	3072
594.527	3111
595.004	3146
595.482	3206
595.96	3180
596.437	3196
596.915	3286
597.393	3219
597.871	3289
598.349	3258
598.826	3333
599.304	3325
599.782	3397
600.26	3365
600.738	3465
601.216	3457
601.694	3484
602.173	3514
602.651	3508
603.129	3452
603.607	3484
604.085	3500
604.564	3503
605.042	3515
605.52	3485
605.999	3588
606.477	3499
606.956	3523
607.434	3561.5
607.913	3600
608.391	3588
608.87	3569
609.348	3529
609.827	3548
610.306	3581
610.785	3603
611.263	3609
611.742	3574
612.221	3523
612.7	3565
613.179	3604
613.658	3555
614.137	3629
614.616	3643
615.095	3580
615.574	3639
616.053	3697
616.532	3653
617.011	3672
617.491	3679
617.97	3700
618.449	3757
618.928	3788
619.408	3752
619.887	3787
620.367	3813
620.846	3870
621.326	3850
621.805	3932
622.285	3907
622.764	3951
623.244	3949
623.724	3999
624.203	4008
624.683	3936
625.163	4024
625.643	4011
626.123	3977
626.602	4097
627.082	4008
627.562	4016
628.042	4108
628.522	4057
629.002	4011
629.482	4036
629.963	4037
630.443	4008
630.923	4020
631.403	4047
631.883	4042
632.364	4055
632.844	4022
633.324	4064
633.805	4078
634.285	4042
634.766	4008
635.246	4010
635.727	4009
636.207	4028
636.688	4037
637.168	4027
637.649	4004
638.13	3989
638.611	4025
639.091	4016
639.572	4001
640.053	3975
640.534	4012
641.015	3999
641.496	3959
641.977	4032
642.458	3997
642.939	4018
643.42	4026
643.901	4036
644.382	4087
644.863	4071
645.345	4081
645.826	4077
646.307	4084
646.788	4156
647.27	4086
647.751	4082
648.233	4111
648.714	4023
649.196	4141
649.677	4144
650.159	4138
650.64	4084
651.122	4156
651.603	4109
652.085	4162
652.567	4177
653.049	4134
653.53	4126
654.012	4193
654.494	4112
654.976	4159
655.458	4149
655.94	4136
656.422	4216
656.904	4146
657.386	4117
657.868	4119
658.35	4103
658.833	4130
659.315	4149
659.797	4091
660.279	4106
660.762	4135
661.244	4086
661.726	4024
662.209	4030
662.691	4033
663.174	3961
663.656	3999
664.139	4004
664.621	3957
665.104	3926
665.587	3983
666.069	4021
666.552	4035
667.035	3991
667.517	3986
668	4029
668.483	4026
668.966	3995
669.449	3980
669.932	3977
670.415	4013
670.898	3992
671.381	4019
671.864	4037
672.347	3990
672.83	3995
673.313	4001
673.797	3976
674.28	4063
674.763	4095
675.247	4136
675.73	4104
676.213	4118
676.697	4141
677.18	4151
677.664	4170
678.147	4164
678.631	4178
679.114	4206
679.598	4196
680.082	4239
680.565	4251
681.049	4230
681.533	4229
682.017	4243
682.5	4227
682.984	4252
683.468	4253
683.952	4177
684.436	4277
684.92	4234
685.404	4258
685.888	4299
686.372	4272
686.856	4310
687.341	4346
687.825	4281
688.309	4287
688.793	4277
689.278	4219
689.762	4271
690.246	4249
690.731	4264
691.215	4280
691.7	4170
692.184	4210
692.669	4196
693.153	4243
693.638	4197
694.122	4176
694.607	4196
695.092	4145
695.577	4185
696.061	4102
696.546	4119
697.031	4102
697.516	4133
698.001	4132
698.486	4131
698.971	4191
699.456	4117
699.941	4114
700.426	4101
700.911	4137
701.396	4131
701.881	4172
702.366	4164
702.852	4144
703.337	4160
703.822	4139
704.308	4150
704.793	4173
705.278	4193
705.764	4202
706.249	4177
706.735	4141
707.22	4163
707.706	4092
708.191	4191
708.677	4208
709.163	4169
709.648	4193
710.134	4248
710.62	4213
711.106	4214
711.592	4289
712.077	4260
712.563	4144
713.049	4129
713.535	4211
714.021	4188
714.507	4184
714.993	4152
715.479	4209
715.966	4159
716.452	4157
716.938	4161
717.424	4033
717.91	4122
718.397	4102
718.883	4083
719.369	4103
719.856	4065
720.342	4111
720.829	4056
721.315	4084
721.802	4051
722.288	4076
722.775	3916
723.262	3801
723.748	3968
724.235	3964
724.722	4037
725.208	3979
725.695	3976
726.182	3950
726.669	3883
727.156	3881
727.643	3831
728.13	3827
728.617	3789
729.104	3790
729.591	3775
730.078	3801
730.565	3821
731.052	3773
731.539	3793
732.027	3767
732.514	3702
733.001	3751
733.488	3724
733.976	3719
734.463	3702
734.951	3685
735.438	3734
735.926	3710
736.413	3747
736.901	3723
737.388	3769
737.876	3767
738.364	3730
738.851	3739
739.339	3721
739.827	3770
740.314	3658
740.802	3687
741.29	3695
741.778	3653
742.266	3651
742.754	3674
743.242	3699
743.73	3619
744.218	3604
744.706	3560
745.194	3591
745.682	3558
746.17	3576
746.659	3603
747.147	3518
747.635	3534
748.123	3529
748.612	3490
749.1	3479
749.589	3523
750.077	3489
750.566	3463
751.054	3479
751.543	3500
752.031	3439
752.52	3427
753.008	3361
753.497	3356
753.986	3337
754.474	3329
754.963	3371
755.452	3328
755.941	3312
756.43	3309
756.919	3298
757.408	3284
757.896	3295
758.385	3314
758.875	3267
759.364	3225
759.853	3199
760.342	3142
760.831	3200
761.32	3161
761.809	3114
762.299	3136
762.788	3137
763.277	3127
763.767	3090
764.256	3090
764.745	3041
765.235	3077
765.724	2984
766.214	3039
766.703	3008
767.193	2988
767.683	2994
768.172	2940
768.662	2963
769.152	2943
769.641	2955
770.131	2887
770.621	2929
771.111	2881
771.601	2859
772.09	2832
772.58	2798
773.07	2809
773.56	2839
774.05	2803
774.54	2814
775.031	2803
775.521	2778
776.011	2757
776.501	2779
776.991	2716
777.482	2743
777.972	2675
778.462	2682
778.953	2699
779.443	2678
779.933	2682
780.424	2644
780.914	2666
781.405	2678
781.895	2652
782.386	2652
782.877	2636
783.367	2574
783.858	2557
784.349	2545
784.839	2523
785.33	2530
785.821	2525
786.312	2505
786.803	2523
787.293	2538
787.784	2498
788.275	2448
788.766	2419
789.257	2459
789.748	2405
790.24	2392
790.731	2409
791.222	2373
791.713	2356
792.204	2367
792.696	2301
793.187	2326
793.678	2308
794.169	2246
794.661	2274
795.152	2248
795.644	2229
796.135	2227
796.627	2249
797.118	2207
797.61	2194
798.101	2169
798.593	2188
799.085	2156
799.576	2172
800.068	2124
800.56	2123
801.052	2070
801.544	2075
802.035	2079
802.527	2051
803.019	2026
803.511	2014
804.003	2001
804.495	2005
804.987	1982
805.479	1928
805.971	1963
806.464	1960
806.956	1915
807.448	1913
807.94	1912
808.433	1906
808.925	1900
809.417	1874
809.91	1858
810.402	1804
810.894	1815
811.387	1829
811.879	1796
812.372	1817
812.865	1795
813.357	1788
813.85	1775
814.342	1770
814.835	1773
815.328	1765
815.821	1736
816.313	1731
816.806	1735
817.299	1710
817.792	1716
818.285	1697
818.778	1716
819.271	1719
819.764	1694
820.257	1703
820.75	1713
821.243	1714
821.736	1691
822.229	1708
822.722	1703
823.216	1740
