Data from lamp5bck_noballon_Subt4__14__369.txt Node

Date: Wed Apr 09 10:16:55 CEST 2025
User: fys-lab-0081
Spectrometer: S04999
Trigger mode: 0
Resolution mode: 1024 pixels
Integration Time (sec): 1.000000E-1
Scans to average: 1
Nonlinearity correction enabled: false
Boxcar width: 0
Baseline correction enabled: true
XAxis mode: Wavelengths
Number of Pixels in Spectrum: 1024
>>>>>Begin Spectral Data<<<<<
336.42	-2
336.877	-1
337.334	3
337.792	-2
338.249	5
338.706	2
339.164	-1
339.621	0
340.079	5
340.536	5
340.994	7
341.452	0
341.909	1
342.367	-3
342.825	0
343.283	1
343.741	0
344.198	0
344.656	4
345.114	2
345.572	2
346.03	0
346.488	4
346.947	2
347.405	3
347.863	2
348.321	3
348.779	-2
349.238	4
349.696	1
350.154	3
350.613	0
351.071	3
351.53	6
351.988	3
352.447	1
352.905	4
353.364	-1
353.823	2
354.282	7
354.74	-1
355.199	5
355.658	7
356.117	4
356.576	10
357.035	6
357.494	4
357.953	6
358.412	3
358.871	-4
359.33	10
359.789	2
360.249	-1
360.708	7
361.167	3
361.626	7
362.086	4
362.545	5
363.005	12
363.464	2
363.924	2
364.383	8
364.843	7
365.303	3
365.762	6
366.222	6
366.682	5
367.142	12
367.601	10
368.061	7
368.521	16
368.981	5
369.441	6
369.901	13
370.361	8
370.821	1
371.282	10
371.742	9
372.202	12
372.662	12
373.123	9
373.583	6
374.043	6
374.504	5
374.964	9
375.425	8
375.885	6
376.346	11
376.806	10
377.267	10
377.728	13
378.188	12
378.649	14
379.11	12
379.571	10
380.032	6
380.493	11
380.954	17
381.414	12
381.876	9
382.337	13
382.798	18
383.259	23
383.72	11
384.181	11
384.642	17
385.104	22
385.565	26
386.026	18
386.488	20
386.949	22
387.411	23
387.872	19
388.334	21
388.795	23
389.257	30
389.719	26
390.181	18
390.642	25
391.104	26
391.566	24
392.028	29
392.49	26
392.952	31
393.414	31
393.876	29
394.338	30
394.8	31
395.262	34
395.724	34
396.186	33
396.648	34
397.111	35
397.573	35
398.035	35
398.498	38
398.96	36
399.423	37
399.885	40
400.348	42
400.81	47
401.273	34
401.736	43
402.198	41
402.661	46
403.124	46
403.587	46
404.049	47.5
404.512	49
404.975	50
405.438	50
405.901	47
406.364	53
406.827	53
407.29	53
407.754	51
408.217	53
408.68	52
409.143	51
409.607	57
410.07	53
410.533	58
410.997	57
411.46	58
411.924	60
412.387	60
412.851	61
413.314	65
413.778	63
414.242	65
414.705	69
415.169	71
415.633	69
416.097	72
416.561	67
417.024	75
417.488	78
417.952	75
418.416	76
418.88	68
419.344	74
419.809	75
420.273	73
420.737	73
421.201	67
421.665	78
422.13	84
422.594	79
423.059	81
423.523	85
423.987	83
424.452	86
424.916	91
425.381	92
425.846	93
426.31	97
426.775	97
427.24	102
427.704	90
428.169	104
428.634	99
429.099	97
429.564	99
430.029	105
430.494	103
430.959	109
431.424	98
431.889	105
432.354	111
432.819	107
433.284	108
433.75	114
434.215	117
434.68	121
435.146	122
435.611	126
436.077	131
436.542	132
437.008	132
437.473	140
437.939	141
438.404	140
438.87	145
439.336	141
439.801	143
440.267	146
440.733	157
441.199	157
441.665	150
442.131	160
442.596	155
443.062	151
443.529	171
443.995	170
444.461	170
444.927	185
445.393	187
445.859	191
446.325	192
446.792	209
447.258	207
447.724	210
448.191	218
448.657	218
449.124	231
449.59	228
450.057	243
450.523	239
450.99	242
451.457	243
451.923	250
452.39	247
452.857	257
453.324	251
453.791	256
454.257	258
454.724	262
455.191	261
455.658	260
456.125	274
456.592	267
457.059	273
457.527	282
457.994	287
458.461	293
458.928	304
459.396	295
459.863	303
460.33	306
460.798	307
461.265	308
461.732	310
462.2	319
462.668	317
463.135	325
463.603	313
464.07	316
464.538	317
465.006	328
465.474	321
465.941	326
466.409	326
466.877	317
467.345	330
467.813	327
468.281	331
468.749	335
469.217	331
469.685	339
470.153	344
470.621	348
471.09	354
471.558	362
472.026	368
472.494	378
472.963	382
473.431	396
473.9	408
474.368	415
474.837	425
475.305	427
475.774	443
476.242	457
476.711	449
477.18	462
477.648	463
478.117	469
478.586	463
479.055	459
479.524	472
479.993	466
480.462	465
480.93	473
481.399	469
481.869	473
482.338	479
482.807	481
483.276	480
483.745	485
484.214	498
484.684	506
485.153	504
485.622	505
486.092	529
486.561	516
487.031	526
487.5	545
487.97	559
488.439	574
488.909	592
489.378	611
489.848	606
490.318	626
490.787	642
491.257	662
491.727	654
492.197	675
492.667	670
493.137	677
493.607	678
494.077	694
494.547	690
495.017	690
495.487	698
495.957	709
496.427	695
496.897	701
497.368	712
497.838	708
498.308	723
498.779	730
499.249	739
499.719	747
500.19	754
500.66	752
501.131	762
501.602	774
502.072	772
502.543	781
503.014	818
503.484	819
503.955	844
504.426	874
504.897	883
505.368	898
505.838	918
506.309	938
506.78	969
507.251	992
507.722	1009
508.194	1037
508.665	1050
509.136	1045
509.607	1082
510.078	1091
510.549	1096
511.021	1119
511.492	1133
511.964	1146
512.435	1164
512.906	1154
513.378	1172
513.849	1192
514.321	1207
514.793	1219
515.264	1232
515.736	1234
516.208	1266
516.679	1274
517.151	1287
517.623	1297
518.095	1322
518.567	1340
519.038	1357
519.51	1353
519.982	1381
520.454	1397
520.927	1429
521.399	1446
521.871	1460
522.343	1470
522.815	1477
523.287	1480
523.76	1498
524.232	1523
524.704	1534
525.177	1510
525.649	1523
526.122	1537
526.594	1507
527.067	1547
527.539	1566
528.012	1557
528.484	1554
528.957	1549
529.43	1555
529.903	1549
530.375	1612
530.848	1581
531.321	1597
531.794	1595
532.267	1630
532.74	1613
533.213	1616
533.686	1644
534.159	1641
534.632	1682
535.105	1695
535.578	1729
536.051	1736
536.525	1747
536.998	1751
537.471	1784
537.945	1760
538.418	1800
538.891	1810
539.365	1832
539.838	1842
540.312	1847
540.786	1862
541.259	1851
541.733	1868
542.206	1879
542.68	1853
543.154	1855
543.628	1868
544.101	1921
544.575	1902
545.049	1851
545.523	1878
545.997	1886
546.471	1903
546.945	1878
547.419	1909
547.893	1847
548.367	1896
548.842	1877
549.316	1884
549.79	1899
550.264	1883
550.739	1912
551.213	1907
551.687	1912
552.162	1939
552.636	1919
553.111	1919
553.585	1971
554.06	1951
554.534	1982
555.009	1975
555.484	2000
555.958	2042
556.433	2049
556.908	2075
557.383	2056
557.858	2109
558.333	2119
558.807	2106
559.282	2119
559.757	2184
560.232	2200
560.708	2168
561.183	2150
561.658	2186
562.133	2186
562.608	2169
563.083	2218
563.559	2164
564.034	2184
564.509	2190
564.985	2192
565.46	2172
565.936	2221
566.411	2226
566.887	2197
567.362	2212
567.838	2218
568.313	2238
568.789	2209
569.265	2200
569.74	2232
570.216	2222
570.692	2254
571.168	2255
571.644	2241
572.12	2250
572.596	2273
573.071	2287
573.547	2353
574.024	2375
574.5	2406
574.976	2427
575.452	2459
575.928	2475
576.404	2485
576.881	2567
577.357	2526
577.833	2538
578.31	2612
578.786	2653
579.262	2707
579.739	2667
580.215	2728
580.692	2719
581.169	2715
581.645	2723
582.122	2800
582.598	2799
583.075	2800
583.552	2827
584.029	2819
584.506	2805
584.982	2769
585.459	2825
585.936	2799
586.413	2839
586.89	2886
587.367	2865
587.844	2938
588.321	2917
588.799	2917
589.276	2870
589.753	2920
590.23	2945
590.707	2929
591.185	2935
591.662	2939
592.139	2993
592.617	3039
593.094	3029
593.572	3031
594.049	3071
594.527	3113
595.004	3138
595.482	3217
595.96	3183
596.437	3192
596.915	3282
597.393	3216
597.871	3298
598.349	3261
598.826	3331
599.304	3332
599.782	3396
600.26	3367
600.738	3457
601.216	3457
601.694	3495
602.173	3510
602.651	3509
603.129	3444
603.607	3492
604.085	3509
604.564	3502
605.042	3507
605.52	3495
605.999	3585
606.477	3509
606.956	3523
607.434	3568.5
607.913	3614
608.391	3588
608.87	3573
609.348	3524
609.827	3549
610.306	3573
610.785	3600
611.263	3609
611.742	3567
612.221	3515
612.7	3568
613.179	3601
613.658	3563
614.137	3625
614.616	3648
615.095	3581
615.574	3641
616.053	3691
616.532	3664
617.011	3663
617.491	3682
617.97	3689
618.449	3753
618.928	3796
619.408	3757
619.887	3792
620.367	3815
620.846	3870
621.326	3846
621.805	3929
622.285	3915
622.764	3940
623.244	3956
623.724	3994
624.203	4015
624.683	3941
625.163	4017
625.643	4014
626.123	3981
626.602	4098
627.082	4012
627.562	4014
628.042	4097
628.522	4054
629.002	4019
629.482	4033
629.963	4031
630.443	4008
630.923	4020
631.403	4060
631.883	4038
632.364	4058
632.844	4026
633.324	4060
633.805	4092
634.285	4022
634.766	4010
635.246	4015
635.727	4006
636.207	4034
636.688	4041
637.168	4035
637.649	4015
638.13	3994
638.611	4020
639.091	4022
639.572	3993
640.053	3974
640.534	4023
641.015	4000
641.496	3954
641.977	4026
642.458	4003
642.939	4011
643.42	4024
643.901	4027
644.382	4077
644.863	4071
645.345	4071
645.826	4078
646.307	4082
646.788	4160
647.27	4087
647.751	4079
648.233	4115
648.714	4028
649.196	4154
649.677	4140
650.159	4131
650.64	4079
651.122	4159
651.603	4115
652.085	4160
652.567	4167
653.049	4130
653.53	4128
654.012	4191
654.494	4108
654.976	4158
655.458	4141
655.94	4137
656.422	4219
656.904	4156
657.386	4104
657.868	4115
658.35	4103
658.833	4136
659.315	4140
659.797	4094
660.279	4102
660.762	4137
661.244	4086
661.726	4021
662.209	4023
662.691	4031
663.174	3972
663.656	3990
664.139	4004
664.621	3955
665.104	3931
665.587	3990
666.069	4014
666.552	4021
667.035	3981
667.517	3998
668	4027
668.483	4029
668.966	3996
669.449	3978
669.932	3979
670.415	4018
670.898	3987
671.381	4006
671.864	4030
672.347	3993
672.83	4005
673.313	3997
673.797	3967
674.28	4057
674.763	4102
675.247	4127
675.73	4103
676.213	4120
676.697	4135
677.18	4150
677.664	4166
678.147	4166
678.631	4181
679.114	4202
679.598	4196
680.082	4241
680.565	4247
681.049	4238
681.533	4225
682.017	4241
682.5	4226
682.984	4257
683.468	4257
683.952	4175
684.436	4271
684.92	4230
685.404	4261
685.888	4289
686.372	4278
686.856	4308
687.341	4347
687.825	4282
688.309	4290
688.793	4275
689.278	4222
689.762	4266
690.246	4249
690.731	4269
691.215	4288
691.7	4161
692.184	4215
692.669	4193
693.153	4235
693.638	4175
694.122	4170
694.607	4188
695.092	4137
695.577	4182
696.061	4099
696.546	4112
697.031	4094
697.516	4123
698.001	4133
698.486	4127
698.971	4194
699.456	4109
699.941	4104
700.426	4101
700.911	4139
701.396	4130
701.881	4168
702.366	4170
702.852	4149
703.337	4167
703.822	4140
704.308	4145
704.793	4175
705.278	4179
705.764	4202
706.249	4171
706.735	4139
707.22	4166
707.706	4101
708.191	4185
708.677	4202
709.163	4175
709.648	4199
710.134	4253
710.62	4208
711.106	4216
711.592	4286
712.077	4251
712.563	4146
713.049	4123
713.535	4206
714.021	4186
714.507	4193
714.993	4155
715.479	4206
715.966	4158
716.452	4149
716.938	4160
717.424	4031
717.91	4114
718.397	4098
718.883	4077
719.369	4095
719.856	4055
720.342	4107
720.829	4056
721.315	4078
721.802	4047
722.288	4074
722.775	3904
723.262	3799
723.748	3961
724.235	3957
724.722	4033
725.208	3978
725.695	3973
726.182	3951
726.669	3883
727.156	3882
727.643	3832
728.13	3826
728.617	3790
729.104	3794
729.591	3767
730.078	3803
730.565	3829
731.052	3771
731.539	3784
732.027	3753
732.514	3707
733.001	3753
733.488	3713
733.976	3712
734.463	3696
734.951	3690
735.438	3732
735.926	3708
736.413	3752
736.901	3723
737.388	3766
737.876	3754
738.364	3735
738.851	3742
739.339	3711
739.827	3770
740.314	3656
740.802	3681
741.29	3694
741.778	3651
742.266	3654
742.754	3671
743.242	3704
743.73	3614
744.218	3599
744.706	3560
745.194	3592
745.682	3553
746.17	3574
746.659	3606
747.147	3526
747.635	3527
748.123	3527
748.612	3490
749.1	3483
749.589	3528
750.077	3499
750.566	3475
751.054	3481
751.543	3497
752.031	3437
752.52	3420
753.008	3346
753.497	3363
753.986	3344
754.474	3320
754.963	3373
755.452	3328
755.941	3315
756.43	3308
756.919	3303
757.408	3283
757.896	3303
758.385	3310
758.875	3264
759.364	3231
759.853	3188
760.342	3130
760.831	3190
761.32	3157
761.809	3108
762.299	3125
762.788	3146
763.277	3128
763.767	3087
764.256	3095
764.745	3033
765.235	3071
765.724	2981
766.214	3028
766.703	3012
767.193	2976
767.683	2989
768.172	2938
768.662	2964
769.152	2934
769.641	2955
770.131	2880
770.621	2920
771.111	2873
771.601	2863
772.09	2829
772.58	2794
773.07	2805
773.56	2842
774.05	2812
774.54	2814
775.031	2796
775.521	2788
776.011	2760
776.501	2771
776.991	2706
777.482	2739
777.972	2675
778.462	2670
778.953	2689
779.443	2677
779.933	2668
780.424	2648
780.914	2670
781.405	2679
781.895	2655
782.386	2645
782.877	2635
783.367	2580
783.858	2560
784.349	2549
784.839	2525
785.33	2532
785.821	2524
786.312	2514
786.803	2520
787.293	2531
787.784	2492
788.275	2445
788.766	2418
789.257	2460
789.748	2402
790.24	2393
790.731	2407
791.222	2368
791.713	2354
792.204	2363
792.696	2305
793.187	2322
793.678	2305
794.169	2245
794.661	2271
795.152	2249
795.644	2231
796.135	2222
796.627	2252
797.118	2206
797.61	2200
798.101	2165
798.593	2188
799.085	2160
799.576	2167
800.068	2132
800.56	2118
801.052	2070
801.544	2074
802.035	2084
802.527	2055
803.019	2031
803.511	2009
804.003	1995
804.495	2009
804.987	1985
805.479	1934
805.971	1956
806.464	1959
806.956	1911
807.448	1913
807.94	1910
808.433	1899
808.925	1893
809.417	1875
809.91	1861
810.402	1803
810.894	1820
811.387	1831
811.879	1801
812.372	1818
812.865	1787
813.357	1785
813.85	1783
814.342	1773
814.835	1768
815.328	1763
815.821	1740
816.313	1728
816.806	1736
817.299	1711
817.792	1716
818.285	1694
818.778	1715
819.271	1715
819.764	1688
820.257	1699
820.75	1706
821.243	1711
821.736	1689
822.229	1705
822.722	1707
823.216	1741
