Data from lamp3helium_sterk_Subt4__0__310.txt Node

Date: Fri Apr 04 11:07:39 CEST 2025
User: fys-lab-0081
Spectrometer: S04999
Trigger mode: 0
Resolution mode: 1024 pixels
Integration Time (sec): 1.000000E-1
Scans to average: 1
Nonlinearity correction enabled: false
Boxcar width: 0
Baseline correction enabled: true
XAxis mode: Wavelengths
Number of Pixels in Spectrum: 1024
>>>>>Begin Spectral Data<<<<<
336.42	3
336.877	3
337.334	5
337.792	9
338.249	6
338.706	9
339.164	7
339.621	6
340.079	8
340.536	8
340.994	5
341.452	11
341.909	10
342.367	8
342.825	13
343.283	11
343.741	17
344.198	5
344.656	8
345.114	11
345.572	8
346.03	15
346.488	11
346.947	10
347.405	16
347.863	15
348.321	11
348.779	15
349.238	15
349.696	19
350.154	19
350.613	21
351.071	20
351.53	22
351.988	21
352.447	21
352.905	19
353.364	25
353.823	28
354.282	22
354.74	23
355.199	28
355.658	26
356.117	30
356.576	27
357.035	30
357.494	28
357.953	30
358.412	29
358.871	34
359.33	32
359.789	28
360.249	36
360.708	42
361.167	34
361.626	43
362.086	40
362.545	40
363.005	36
363.464	46
363.924	48
364.383	45
364.843	47
365.303	45
365.762	53
366.222	54
366.682	53
367.142	53
367.601	59
368.061	64
368.521	63
368.981	64
369.441	59
369.901	56
370.361	63
370.821	68
371.282	57
371.742	63
372.202	65
372.662	70
373.123	71
373.583	68
374.043	73
374.504	72
374.964	74
375.425	76
375.885	79
376.346	84
376.806	80
377.267	90
377.728	81
378.188	86
378.649	89
379.11	91
379.571	91
380.032	89
380.493	97
380.954	101
381.414	106
381.876	106
382.337	112
382.798	110
383.259	121
383.72	122
384.181	129
384.642	129
385.104	133
385.565	136
386.026	142
386.488	148
386.949	146
387.411	154
387.872	154
388.334	152
388.795	159
389.257	164
389.719	165
390.181	169
390.642	177
391.104	176
391.566	181
392.028	186
392.49	195
392.952	192
393.414	196
393.876	207
394.338	213
394.8	210
395.262	216
395.724	219
396.186	223
396.648	228
397.111	224
397.573	229
398.035	228
398.498	238
398.96	244
399.423	243
399.885	247
400.348	254
400.81	260
401.273	254
401.736	257
402.198	274
402.661	282
403.124	283
403.587	293
404.049	299.5
404.512	306
404.975	313
405.438	310
405.901	306
406.364	312
406.827	321
407.29	314
407.754	317
408.217	312
408.68	315
409.143	322
409.607	322
410.07	318
410.533	327
410.997	334
411.46	337
411.924	333
412.387	336
412.851	352
413.314	366
413.778	360
414.242	367
414.705	385
415.169	373
415.633	381
416.097	383
416.561	386
417.024	396
417.488	379
417.952	392
418.416	380
418.88	392
419.344	385
419.809	387
420.273	399
420.737	388
421.201	399
421.665	403
422.13	399
422.594	411
423.059	419
423.523	421
423.987	427
424.452	447
424.916	451
425.381	469
425.846	473
426.31	467
426.775	480
427.24	492
427.704	480
428.169	489
428.634	490
429.099	477
429.564	477
430.029	485
430.494	486
430.959	484
431.424	475
431.889	494
432.354	499
432.819	489
433.284	515
433.75	514
434.215	533
434.68	531
435.146	545
435.611	569
436.077	581
436.542	596
437.008	605
437.473	610
437.939	620
438.404	636
438.87	638
439.336	624
439.801	630
440.267	643
440.733	644
441.199	648
441.665	643
442.131	665
442.596	645
443.062	672
443.529	685
443.995	694
444.461	705
444.927	735
445.393	736
445.859	771
446.325	773
446.792	828
447.258	815
447.724	836
448.191	875
448.657	882
449.124	914
449.59	902
450.057	942
450.523	956
450.99	974
451.457	972
451.923	985
452.39	969
452.857	994
453.324	987
453.791	999
454.257	997
454.724	1019
455.191	1007
455.658	999
456.125	1044
456.592	1014
457.059	1031
457.527	1047
457.994	1074
458.461	1063
458.928	1085
459.396	1090
459.863	1126
460.33	1118
460.798	1124
461.265	1130
461.732	1120
462.2	1159
462.668	1147
463.135	1160
463.603	1132
464.07	1162
464.538	1121
465.006	1157
465.474	1119
465.941	1135
466.409	1149
466.877	1124
467.345	1152
467.813	1132
468.281	1135
468.749	1153
469.217	1148
469.685	1158
470.153	1173
470.621	1171
471.09	1170
471.558	1224
472.026	1210
472.494	1246
472.963	1261
473.431	1289
473.9	1311
474.368	1348
474.837	1366
475.305	1383
475.774	1416
476.242	1452
476.711	1459
477.18	1491
477.648	1467
478.117	1496
478.586	1478
479.055	1482
479.524	1489
479.993	1479
480.462	1475
480.93	1489
481.399	1483
481.869	1498
482.338	1470
482.807	1490
483.276	1480
483.745	1481
484.214	1519
484.684	1531
485.153	1522
485.622	1526
486.092	1570
486.561	1538
487.031	1589
487.5	1621
487.97	1610
488.439	1640
488.909	1685
489.378	1744
489.848	1741
490.318	1776
490.787	1848
491.257	1879
491.727	1908
492.197	1935
492.667	1930
493.137	1957
493.607	1970
494.077	1978
494.547	1963
495.017	1954
495.487	1989
495.957	2025
496.427	1976
496.897	1975
497.368	2006
497.838	1993
498.308	2006
498.779	2010
499.249	2019
499.719	2026
500.19	2034
500.66	2047
501.131	2062
501.602	2101
502.072	2103
502.543	2103
503.014	2177
503.484	2171
503.955	2224
504.426	2289
504.897	2293
505.368	2344
505.838	2376
506.309	2433
506.78	2511
507.251	2538
507.722	2591
508.194	2653
508.665	2676
509.136	2668
509.607	2756
510.078	2803
510.549	2828
511.021	2903
511.492	2890
511.964	2921
512.435	2955
512.906	2934
513.378	2961
513.849	3003
514.321	3002
514.793	3031
515.264	3063
515.736	3085
516.208	3132
516.679	3154
517.151	3196
517.623	3208
518.095	3245
518.567	3268
519.038	3325
519.51	3311
519.982	3360
520.454	3405
520.927	3410
521.399	3454
521.871	3476
522.343	3486
522.815	3527
523.287	3533
523.76	3559
524.232	3614
524.704	3636
525.177	3580
525.649	3591
526.122	3634
526.594	3543
527.067	3634
527.539	3677
528.012	3638
528.484	3616
528.957	3620
529.43	3608
529.903	3617
530.375	3727
530.848	3631
531.321	3680
531.794	3664
532.267	3736
532.74	3682
533.213	3662
533.686	3706
534.159	3694
534.632	3770
535.105	3765
535.578	3818
536.051	3826
536.525	3843
536.998	3830
537.471	3897
537.945	3851
538.418	3898
538.891	3910
539.365	3978
539.838	3995
540.312	3992
540.786	4029
541.259	4019
541.733	4070
542.206	4064
542.68	3993
543.154	3978
543.628	3974
544.101	4081
544.575	4052
545.049	3962
545.523	4022
545.997	3993
546.471	4024
546.945	3973
547.419	4035
547.893	3864
548.367	3938
548.842	3899
549.316	3900
549.79	3922
550.264	3889
550.739	3934
551.213	3947
551.687	3949
552.162	3976
552.636	3917
553.111	3913
553.585	3999
554.06	3924
554.534	4009
555.009	3974
555.484	4044
555.958	4094
556.433	4094
556.908	4133
557.383	4088
557.858	4194
558.333	4195
558.807	4140
559.282	4179
559.757	4285
560.232	4319
560.708	4240
561.183	4228
561.658	4269
562.133	4272
562.608	4235
563.083	4346
563.559	4220
564.034	4241
564.509	4234
564.985	4252
565.46	4191
565.936	4255
566.411	4272
566.887	4202
567.362	4231
567.838	4214
568.313	4271
568.789	4236
569.265	4225
569.74	4241
570.216	4200
570.692	4272
571.168	4259
571.644	4255
572.12	4225
572.596	4270
573.071	4243
573.547	4341
574.024	4370
574.5	4387
574.976	4393
575.452	4462
575.928	4481
576.404	4500
576.881	4622
577.357	4567
577.833	4600
578.31	4710
578.786	4759
579.262	4851
579.739	4779
580.215	4910
580.692	4909
581.169	4877
581.645	4897
582.122	5002
582.598	4975
583.075	4966
583.552	5030
584.029	5034
584.506	5007
584.982	4973
585.459	5086
585.936	5019
586.413	5067
586.89	5111
587.367	5037
587.844	5115
588.321	5072
588.799	5090
589.276	5038
589.753	5090
590.23	5113
590.707	5096
591.185	5096
591.662	5079
592.139	5124
592.617	5195
593.094	5169
593.572	5215
594.049	5266
594.527	5302
595.004	5300
595.482	5413
595.96	5356
596.437	5360
596.915	5482
597.393	5398
597.871	5522
598.349	5446
598.826	5548
599.304	5571
599.782	5684
600.26	5599
600.738	5672
601.216	5637
601.694	5707
602.173	5749
602.651	5786
603.129	5714
603.607	5749
604.085	5806
604.564	5788
605.042	5808
605.52	5764
605.999	5907
606.477	5784
606.956	5770
607.434	5773
607.913	5776
608.391	5776
608.87	5794
609.348	5729
609.827	5745
610.306	5765
610.785	5754
611.263	5796
611.742	5747
612.221	5636
612.7	5687
613.179	5720
613.658	5657
614.137	5779
614.616	5835
615.095	5689
615.574	5760
616.053	5797
616.532	5756
617.011	5738
617.491	5749
617.97	5718
618.449	5788
618.928	5843
619.408	5808
619.887	5875
620.367	5864
620.846	5906
621.326	5903
621.805	6020
622.285	6007
622.764	6033
623.244	6035
623.724	6076
624.203	6129
624.683	6007
625.163	6106
625.643	6093
626.123	6048
626.602	6183
627.082	6018
627.562	6012
628.042	6152
628.522	6100
629.002	6112
629.482	6151
629.963	6102
630.443	6016
630.923	6039
631.403	6086
631.883	6072
632.364	6085
632.844	6025
633.324	6030
633.805	6026
634.285	5959
634.766	5938
635.246	5933
635.727	5918
636.207	5914
636.688	5952
637.168	5964
637.649	5902
638.13	5860
638.611	5880
639.091	5884
639.572	5887
640.053	5870
640.534	5912
641.015	5883
641.496	5766
641.977	5853
642.458	5776
642.939	5761
643.42	5755
643.901	5766
644.382	5812
644.863	5803
645.345	5803
645.826	5779
646.307	5760
646.788	5860
647.27	5772
647.751	5822
648.233	5890
648.714	5782
649.196	5920
649.677	5888
650.159	5884
650.64	5816
651.122	5891
651.603	5786
652.085	5829
652.567	5824
653.049	5756
653.53	5760
654.012	5837
654.494	5703
654.976	5715
655.458	5692
655.94	5698
656.422	5791
656.904	5726
657.386	5659
657.868	5658
658.35	5650
658.833	5720
659.315	5709
659.797	5639
660.279	5623
660.762	5661
661.244	5614
661.726	5574
662.209	5573
662.691	5585
663.174	5474
663.656	5501
664.139	5502
664.621	5465
665.104	5427
665.587	5429
666.069	5409
666.552	5385
667.035	5316
667.517	5360
668	5395
668.483	5386
668.966	5315
669.449	5272
669.932	5324
670.415	5415
670.898	5365
671.381	5365
671.864	5351
672.347	5304
672.83	5319
673.313	5339
673.797	5309
674.28	5379
674.763	5366
675.247	5355
675.73	5342
676.213	5401
676.697	5459
677.18	5448
677.664	5452
678.147	5443
678.631	5441
679.114	5476
679.598	5470
680.082	5516
680.565	5507
681.049	5500
681.533	5502
682.017	5564
682.5	5553
682.984	5563
683.468	5512
683.952	5408
684.436	5500
684.92	5436
685.404	5456
685.888	5484
686.372	5434
686.856	5431
687.341	5484
687.825	5418
688.309	5455
688.793	5452
689.278	5401
689.762	5460
690.246	5435
690.731	5437
691.215	5436
691.7	5277
692.184	5330
692.669	5319
693.153	5331
693.638	5239
694.122	5260
694.607	5285
695.092	5211
695.577	5255
696.061	5159
696.546	5170
697.031	5130
697.516	5170
698.001	5183
698.486	5128
698.971	5186
699.456	5078
699.941	5093
700.426	5086
700.911	5130
701.396	5083
701.881	5092
702.366	5043
702.852	5026
703.337	5039
703.822	5024
704.308	5004
704.793	5040
705.278	5029
705.764	5025
706.249	4984
706.735	4981
707.22	5029
707.706	4957
708.191	5049
708.677	5046
709.163	4991
709.648	5020
710.134	5064
710.62	4996
711.106	4967
711.592	5021
712.077	5006
712.563	4903
713.049	4904
713.535	4996
714.021	4945
714.507	4914
714.993	4860
715.479	4935
715.966	4866
716.452	4864
716.938	4870
717.424	4733
717.91	4836
718.397	4773
718.883	4753
719.369	4760
719.856	4738
720.342	4786
720.829	4705
721.315	4701
721.802	4693
722.288	4732
722.775	4573
723.262	4442
723.748	4626
724.235	4581
724.722	4635
725.208	4555
725.695	4560
726.182	4548
726.669	4485
727.156	4512
727.643	4451
728.13	4454
728.617	4436
729.104	4429
729.591	4374
730.078	4405
730.565	4429
731.052	4369
731.539	4388
732.027	4337
732.514	4276
733.001	4318
733.488	4302
733.976	4304
734.463	4309
734.951	4281
735.438	4310
735.926	4246
736.413	4243
736.901	4164
737.388	4213
737.876	4188
738.364	4135
738.851	4138
739.339	4135
739.827	4176
740.314	4062
740.802	4090
741.29	4131
741.778	4079
742.266	4082
742.754	4082
743.242	4117
743.73	4045
744.218	4047
744.706	3980
745.194	4026
745.682	3999
746.17	4041
746.659	4055
747.147	3960
747.635	3972
748.123	3962
748.612	3932
749.1	3877
749.589	3899
750.077	3853
750.566	3810
751.054	3836
751.543	3850
752.031	3768
752.52	3760
753.008	3675
753.497	3659
753.986	3659
754.474	3649
754.963	3676
755.452	3620
755.941	3571
756.43	3556
756.919	3538
757.408	3501
757.896	3516
758.385	3527
758.875	3487
759.364	3470
759.853	3458
760.342	3405
760.831	3486
761.32	3464
761.809	3429
762.299	3448
762.788	3442
763.277	3415
763.767	3345
764.256	3330
764.745	3279
765.235	3322
765.724	3242
766.214	3271
766.703	3245
767.193	3200
767.683	3205
768.172	3149
768.662	3185
769.152	3188
769.641	3185
770.131	3096
770.621	3120
771.111	3071
771.601	3077
772.09	3056
772.58	3028
773.07	3040
773.56	3071
774.05	2999
774.54	2976
775.031	2951
775.521	2915
776.011	2910
776.501	2937
776.991	2892
777.482	2936
777.972	2839
778.462	2841
778.953	2870
779.443	2851
779.933	2856
780.424	2799
780.914	2811
781.405	2806
781.895	2770
782.386	2755
782.877	2742
783.367	2695
783.858	2690
784.349	2690
784.839	2671
785.33	2695
785.821	2673
786.312	2657
786.803	2644
787.293	2630
787.784	2598
788.275	2556
788.766	2536
789.257	2578
789.748	2507
790.24	2485
790.731	2506
791.222	2471
791.713	2470
792.204	2482
792.696	2425
793.187	2462
793.678	2446
794.169	2385
794.661	2411
795.152	2384
795.644	2365
796.135	2352
796.627	2357
797.118	2307
797.61	2300
798.101	2286
798.593	2310
799.085	2261
799.576	2251
800.068	2219
800.56	2227
801.052	2181
801.544	2169
802.035	2178
802.527	2158
803.019	2147
803.511	2144
804.003	2119
804.495	2127
804.987	2088
805.479	2040
805.971	2056
806.464	2072
806.956	2026
807.448	2026
807.94	2018
808.433	2006
808.925	2004
809.417	1996
809.91	1988
810.402	1951
810.894	1964
811.387	1959
811.879	1930
812.372	1928
812.865	1891
813.357	1887
813.85	1877
814.342	1858
814.835	1857
815.328	1856
815.821	1830
816.313	1829
816.806	1822
817.299	1817
817.792	1831
818.285	1821
818.778	1857
819.271	1843
819.764	1805
820.257	1799
820.75	1791
821.243	1793
821.736	1772
822.229	1792
822.722	1785
823.216	1822
