Data from lamp3helium_sterk_Subt4__11__321.txt Node

Date: Fri Apr 04 11:07:41 CEST 2025
User: fys-lab-0081
Spectrometer: S04999
Trigger mode: 0
Resolution mode: 1024 pixels
Integration Time (sec): 1.000000E-1
Scans to average: 1
Nonlinearity correction enabled: false
Boxcar width: 0
Baseline correction enabled: true
XAxis mode: Wavelengths
Number of Pixels in Spectrum: 1024
>>>>>Begin Spectral Data<<<<<
336.42	0
336.877	-1
337.334	6
337.792	10
338.249	7
338.706	7
339.164	8
339.621	5
340.079	9
340.536	10
340.994	3
341.452	6
341.909	9
342.367	6
342.825	12
343.283	11
343.741	14
344.198	7
344.656	11
345.114	14
345.572	4
346.03	7
346.488	14
346.947	15
347.405	16
347.863	15
348.321	15
348.779	18
349.238	20
349.696	22
350.154	15
350.613	16
351.071	22
351.53	18
351.988	21
352.447	21
352.905	22
353.364	25
353.823	34
354.282	21
354.74	28
355.199	30
355.658	28
356.117	30
356.576	27
357.035	27
357.494	27
357.953	32
358.412	30
358.871	32
359.33	39
359.789	35
360.249	39
360.708	40
361.167	37
361.626	41
362.086	40
362.545	43
363.005	41
363.464	50
363.924	49
364.383	51
364.843	53
365.303	50
365.762	50
366.222	57
366.682	58
367.142	58
367.601	60
368.061	66
368.521	65
368.981	64
369.441	65
369.901	56
370.361	62
370.821	70
371.282	64
371.742	60
372.202	63
372.662	76
373.123	68
373.583	72
374.043	78
374.504	78
374.964	76
375.425	78
375.885	86
376.346	90
376.806	82
377.267	88
377.728	85
378.188	88
378.649	96
379.11	93
379.571	91
380.032	102
380.493	100
380.954	111
381.414	100
381.876	110
382.337	116
382.798	117
383.259	123
383.72	120
384.181	132
384.642	133
385.104	137
385.565	139
386.026	142
386.488	150
386.949	150
387.411	159
387.872	158
388.334	158
388.795	164
389.257	171
389.719	167
390.181	178
390.642	183
391.104	184
391.566	186
392.028	196
392.49	197
392.952	199
393.414	204
393.876	210
394.338	218
394.8	213
395.262	220
395.724	228
396.186	227
396.648	235
397.111	234
397.573	234
398.035	234
398.498	250
398.96	250
399.423	250
399.885	254
400.348	260
400.81	273
401.273	272
401.736	270
402.198	282
402.661	294
403.124	298
403.587	297
404.049	309
404.512	321
404.975	322
405.438	322
405.901	323
406.364	319
406.827	332
407.29	329
407.754	324
408.217	317
408.68	325
409.143	329
409.607	334
410.07	330
410.533	338
410.997	344
411.46	346
411.924	344
412.387	346
412.851	360
413.314	381
413.778	371
414.242	383
414.705	399
415.169	385
415.633	398
416.097	395
416.561	401
417.024	408
417.488	396
417.952	404
418.416	399
418.88	408
419.344	399
419.809	395
420.273	410
420.737	400
421.201	409
421.665	424
422.13	415
422.594	432
423.059	433
423.523	435
423.987	447
424.452	459
424.916	469
425.381	482
425.846	493
426.31	488
426.775	500
427.24	508
427.704	502
428.169	507
428.634	510
429.099	498
429.564	499
430.029	503
430.494	502
430.959	506
431.424	499
431.889	516
432.354	514
432.819	508
433.284	528
433.75	533
434.215	552
434.68	553
435.146	566
435.611	590
436.077	605
436.542	614
437.008	633
437.473	641
437.939	641
438.404	660
438.87	664
439.336	644
439.801	649
440.267	666
440.733	674
441.199	678
441.665	672
442.131	692
442.596	667
443.062	701
443.529	718
443.995	718
444.461	740
444.927	761
445.393	763
445.859	798
446.325	801
446.792	853
447.258	843
447.724	871
448.191	909
448.657	914
449.124	947
449.59	940
450.057	976
450.523	993
450.99	1003
451.457	1008
451.923	1028
452.39	1003
452.857	1030
453.324	1023
453.791	1035
454.257	1037
454.724	1054
455.191	1046
455.658	1039
456.125	1076
456.592	1047
457.059	1072
457.527	1082
457.994	1109
458.461	1109
458.928	1129
459.396	1130
459.863	1166
460.33	1166
460.798	1166
461.265	1178
461.732	1172
462.2	1205
462.668	1193
463.135	1209
463.603	1182
464.07	1215
464.538	1177
465.006	1210
465.474	1172
465.941	1189
466.409	1200
466.877	1169
467.345	1196
467.813	1175
468.281	1186
468.749	1204
469.217	1196
469.685	1205
470.153	1224
470.621	1217
471.09	1222
471.558	1279
472.026	1260
472.494	1293
472.963	1308
473.431	1340
473.9	1365
474.368	1398
474.837	1425
475.305	1447
475.774	1476
476.242	1515
476.711	1524
477.18	1552
477.648	1532
478.117	1552
478.586	1533
479.055	1544
479.524	1557
479.993	1541
480.462	1541
480.93	1549
481.399	1545
481.869	1565
482.338	1529
482.807	1551
483.276	1547
483.745	1539
484.214	1579
484.684	1590
485.153	1590
485.622	1594
486.092	1639
486.561	1604
487.031	1663
487.5	1691
487.97	1685
488.439	1712
488.909	1756
489.378	1822
489.848	1818
490.318	1857
490.787	1927
491.257	1959
491.727	1986
492.197	2014
492.667	2009
493.137	2044
493.607	2055
494.077	2069
494.547	2053
495.017	2036
495.487	2071
495.957	2116
496.427	2068
496.897	2062
497.368	2088
497.838	2064
498.308	2092
498.779	2099
499.249	2101
499.719	2114
500.19	2125
500.66	2143
501.131	2153
501.602	2199
502.072	2195
502.543	2191
503.014	2273
503.484	2259
503.955	2320
504.426	2398
504.897	2394
505.368	2440
505.838	2478
506.309	2537
506.78	2624
507.251	2661
507.722	2704
508.194	2767
508.665	2796
509.136	2790
509.607	2874
510.078	2924
510.549	2955
511.021	3033
511.492	3021
511.964	3058
512.435	3088
512.906	3067
513.378	3087
513.849	3133
514.321	3130
514.793	3161
515.264	3188
515.736	3229
516.208	3281
516.679	3285
517.151	3337
517.623	3356
518.095	3400
518.567	3418
519.038	3472
519.51	3465
519.982	3516
520.454	3562
520.927	3574
521.399	3596
521.871	3643
522.343	3645
522.815	3697
523.287	3696
523.76	3725
524.232	3776
524.704	3803
525.177	3745
525.649	3764
526.122	3795
526.594	3715
527.067	3811
527.539	3848
528.012	3800
528.484	3787
528.957	3788
529.43	3782
529.903	3769
530.375	3898
530.848	3803
531.321	3855
531.794	3848
532.267	3911
532.74	3853
533.213	3825
533.686	3889
534.159	3864
534.632	3949
535.105	3946
535.578	3996
536.051	4003
536.525	4026
536.998	4009
537.471	4092
537.945	4034
538.418	4088
538.891	4091
539.365	4173
539.838	4193
540.312	4180
540.786	4223
541.259	4213
541.733	4264
542.206	4256
542.68	4180
543.154	4156
543.628	4155
544.101	4273
544.575	4239
545.049	4139
545.523	4210
545.997	4178
546.471	4210
546.945	4168
547.419	4226
547.893	4064
548.367	4119
548.842	4084
549.316	4088
549.79	4114
550.264	4078
550.739	4126
551.213	4134
551.687	4129
552.162	4153
552.636	4107
553.111	4102
553.585	4178
554.06	4114
554.534	4213
555.009	4164
555.484	4236
555.958	4284
556.433	4293
556.908	4336
557.383	4284
557.858	4389
558.333	4404
558.807	4342
559.282	4368
559.757	4491
560.232	4523
560.708	4439
561.183	4435
561.658	4488
562.133	4490
562.608	4438
563.083	4563
563.559	4431
564.034	4447
564.509	4451
564.985	4460
565.46	4402
565.936	4470
566.411	4477
566.887	4411
567.362	4432
567.838	4413
568.313	4485
568.789	4441
569.265	4441
569.74	4451
570.216	4414
570.692	4488
571.168	4482
571.644	4476
572.12	4442
572.596	4486
573.071	4463
573.547	4560
574.024	4587
574.5	4601
574.976	4616
575.452	4685
575.928	4715
576.404	4725
576.881	4867
577.357	4790
577.833	4837
578.31	4950
578.786	4997
579.262	5090
579.739	5026
580.215	5148
580.692	5145
581.169	5116
581.645	5133
582.122	5268
582.598	5224
583.075	5219
583.552	5282
584.029	5292
584.506	5262
584.982	5224
585.459	5337
585.936	5255
586.413	5318
586.89	5369
587.367	5297
587.844	5379
588.321	5325
588.799	5345
589.276	5306
589.753	5358
590.23	5366
590.707	5348
591.185	5363
591.662	5342
592.139	5386
592.617	5466
593.094	5451
593.572	5483
594.049	5536
594.527	5581
595.004	5573
595.482	5697
595.96	5649
596.437	5644
596.915	5768
597.393	5682
597.871	5807
598.349	5725
598.826	5848
599.304	5884
599.782	5989
600.26	5889
600.738	5982
601.216	5924
601.694	5995
602.173	6069
602.651	6097
603.129	6019
603.607	6060
604.085	6098
604.564	6092
605.042	6116
605.52	6058
605.999	6203
606.477	6080
606.956	6066
607.434	6073.5
607.913	6081
608.391	6076
608.87	6097
609.348	6028
609.827	6044
610.306	6061
610.785	6059
611.263	6102
611.742	6049
612.221	5941
612.7	5991
613.179	6014
613.658	5943
614.137	6084
614.616	6134
615.095	5994
615.574	6058
616.053	6110
616.532	6057
617.011	6058
617.491	6054
617.97	6037
618.449	6111
618.928	6162
619.408	6129
619.887	6178
620.367	6188
620.846	6220
621.326	6219
621.805	6339
622.285	6325
622.764	6359
623.244	6368
623.724	6402
624.203	6451
624.683	6332
625.163	6437
625.643	6433
626.123	6383
626.602	6504
627.082	6347
627.562	6321
628.042	6468
628.522	6429
629.002	6423
629.482	6462
629.963	6421
630.443	6324
630.923	6351
631.403	6405
631.883	6379
632.364	6405
632.844	6348
633.324	6349
633.805	6346
634.285	6274
634.766	6253
635.246	6237
635.727	6232
636.207	6244
636.688	6271
637.168	6284
637.649	6223
638.13	6181
638.611	6195
639.091	6201
639.572	6198
640.053	6172
640.534	6221
641.015	6190
641.496	6082
641.977	6176
642.458	6090
642.939	6077
643.42	6066
643.901	6088
644.382	6120
644.863	6113
645.345	6121
645.826	6091
646.307	6085
646.788	6189
647.27	6086
647.751	6157
648.233	6233
648.714	6105
649.196	6257
649.677	6206
650.159	6219
650.64	6128
651.122	6224
651.603	6107
652.085	6163
652.567	6145
653.049	6075
653.53	6059
654.012	6141
654.494	5997
654.976	6026
655.458	5995
655.94	6005
656.422	6115
656.904	6041
657.386	5960
657.868	5959
658.35	5960
658.833	6037
659.315	6028
659.797	5942
660.279	5947
660.762	5979
661.244	5940
661.726	5895
662.209	5903
662.691	5893
663.174	5756
663.656	5786
664.139	5808
664.621	5772
665.104	5714
665.587	5732
666.069	5714
666.552	5696
667.035	5630
667.517	5646
668	5695
668.483	5681
668.966	5617
669.449	5567
669.932	5616
670.415	5717
670.898	5674
671.381	5662
671.864	5659
672.347	5607
672.83	5618
673.313	5638
673.797	5604
674.28	5671
674.763	5661
675.247	5659
675.73	5647
676.213	5702
676.697	5755
677.18	5756
677.664	5769
678.147	5756
678.631	5758
679.114	5794
679.598	5782
680.082	5829
680.565	5825
681.049	5817
681.533	5827
682.017	5894
682.5	5875
682.984	5872
683.468	5823
683.952	5725
684.436	5823
684.92	5763
685.404	5777
685.888	5817
686.372	5748
686.856	5739
687.341	5822
687.825	5753
688.309	5774
688.793	5777
689.278	5699
689.762	5772
690.246	5745
690.731	5758
691.215	5745
691.7	5582
692.184	5637
692.669	5624
693.153	5634
693.638	5547
694.122	5565
694.607	5593
695.092	5507
695.577	5552
696.061	5470
696.546	5458
697.031	5439
697.516	5491
698.001	5478
698.486	5415
698.971	5480
699.456	5385
699.941	5385
700.426	5375
700.911	5427
701.396	5378
701.881	5399
702.366	5350
702.852	5330
703.337	5338
703.822	5333
704.308	5308
704.793	5333
705.278	5318
705.764	5313
706.249	5270
706.735	5287
707.22	5333
707.706	5246
708.191	5345
708.677	5352
709.163	5307
709.648	5334
710.134	5376
710.62	5288
711.106	5263
711.592	5326
712.077	5311
712.563	5185
713.049	5193
713.535	5284
714.021	5238
714.507	5200
714.993	5156
715.479	5237
715.966	5176
716.452	5156
716.938	5167
717.424	5016
717.91	5139
718.397	5082
718.883	5047
719.369	5043
719.856	5019
720.342	5073
720.829	4982
721.315	4988
721.802	4964
722.288	5010
722.775	4840
723.262	4714
723.748	4911
724.235	4857
724.722	4922
725.208	4832
725.695	4849
726.182	4837
726.669	4768
727.156	4791
727.643	4729
728.13	4736
728.617	4703
729.104	4709
729.591	4655
730.078	4679
730.565	4706
731.052	4630
731.539	4651
732.027	4605
732.514	4539
733.001	4570
733.488	4560
733.976	4570
734.463	4570
734.951	4557
735.438	4584
735.926	4499
736.413	4489
736.901	4416
737.388	4458
737.876	4424
738.364	4370
738.851	4375
739.339	4371
739.827	4412
740.314	4298
740.802	4351
741.29	4393
741.778	4331
742.266	4319
742.754	4317
743.242	4367
743.73	4295
744.218	4284
744.706	4213
745.194	4247
745.682	4237
746.17	4274
746.659	4318
747.147	4196
747.635	4214
748.123	4207
748.612	4153
749.1	4108
749.589	4128
750.077	4093
750.566	4050
751.054	4068
751.543	4071
752.031	3982
752.52	3989
753.008	3893
753.497	3876
753.986	3880
754.474	3861
754.963	3894
755.452	3831
755.941	3807
756.43	3784
756.919	3753
757.408	3714
757.896	3728
758.385	3740
758.875	3707
759.364	3678
759.853	3674
760.342	3614
760.831	3701
761.32	3689
761.809	3650
762.299	3664
762.788	3654
763.277	3632
763.767	3559
764.256	3542
764.745	3487
765.235	3542
765.724	3430
766.214	3472
766.703	3448
767.193	3385
767.683	3392
768.172	3327
768.662	3378
769.152	3381
769.641	3381
770.131	3289
770.621	3313
771.111	3268
771.601	3260
772.09	3239
772.58	3210
773.07	3226
773.56	3263
774.05	3196
774.54	3151
775.031	3128
775.521	3096
776.011	3095
776.501	3119
776.991	3081
777.482	3114
777.972	3017
778.462	3016
778.953	3046
779.443	3023
779.933	3032
780.424	2969
780.914	2987
781.405	2984
781.895	2928
782.386	2930
782.877	2900
783.367	2854
783.858	2841
784.349	2856
784.839	2830
785.33	2853
785.821	2832
786.312	2804
786.803	2794
787.293	2783
787.784	2738
788.275	2700
788.766	2689
789.257	2740
789.748	2665
790.24	2631
790.731	2660
791.222	2627
791.713	2622
792.204	2640
792.696	2579
793.187	2614
793.678	2597
794.169	2533
794.661	2563
795.152	2528
795.644	2510
796.135	2499
796.627	2501
797.118	2447
797.61	2448
798.101	2427
798.593	2450
799.085	2402
799.576	2391
800.068	2354
800.56	2364
801.052	2307
801.544	2297
802.035	2318
802.527	2289
803.019	2272
803.511	2264
804.003	2249
804.495	2253
804.987	2209
805.479	2160
805.971	2175
806.464	2196
806.956	2153
807.448	2143
807.94	2139
808.433	2126
808.925	2119
809.417	2121
809.91	2106
810.402	2068
810.894	2094
811.387	2094
811.879	2050
812.372	2041
812.865	2007
813.357	2008
813.85	1996
814.342	1970
814.835	1978
815.328	1975
815.821	1947
816.313	1930
816.806	1937
817.299	1923
817.792	1947
818.285	1924
818.778	1959
819.271	1946
819.764	1921
820.257	1904
820.75	1890
821.243	1883
821.736	1867
822.229	1896
822.722	1883
823.216	1929
