Data from lamp3helium_sterk_Subt4__17__327.txt Node

Date: Fri Apr 04 11:07:41 CEST 2025
User: fys-lab-0081
Spectrometer: S04999
Trigger mode: 0
Resolution mode: 1024 pixels
Integration Time (sec): 1.000000E-1
Scans to average: 1
Nonlinearity correction enabled: false
Boxcar width: 0
Baseline correction enabled: true
XAxis mode: Wavelengths
Number of Pixels in Spectrum: 1024
>>>>>Begin Spectral Data<<<<<
336.42	3
336.877	3
337.334	5
337.792	10
338.249	5
338.706	4
339.164	7
339.621	6
340.079	8
340.536	5
340.994	7
341.452	11
341.909	8
342.367	10
342.825	7
343.283	10
343.741	12
344.198	9
344.656	10
345.114	13
345.572	8
346.03	12
346.488	13
346.947	14
347.405	14
347.863	16
348.321	14
348.779	12
349.238	18
349.696	18
350.154	17
350.613	20
351.071	18
351.53	17
351.988	23
352.447	23
352.905	19
353.364	24
353.823	28
354.282	22
354.74	28
355.199	28
355.658	27
356.117	31
356.576	27
357.035	32
357.494	27
357.953	32
358.412	29
358.871	37
359.33	34
359.789	33
360.249	34
360.708	42
361.167	33
361.626	41
362.086	38
362.545	42
363.005	42
363.464	50
363.924	47
364.383	51
364.843	53
365.303	48
365.762	53
366.222	53
366.682	55
367.142	54
367.601	61
368.061	59
368.521	62
368.981	62
369.441	64
369.901	59
370.361	63
370.821	68
371.282	64
371.742	59
372.202	66
372.662	73
373.123	68
373.583	69
374.043	78
374.504	74
374.964	82
375.425	79
375.885	82
376.346	85
376.806	81
377.267	86
377.728	89
378.188	91
378.649	93
379.11	88
379.571	94
380.032	97
380.493	98
380.954	103
381.414	104
381.876	108
382.337	108
382.798	113
383.259	119
383.72	120
384.181	129
384.642	130
385.104	133
385.565	139
386.026	138
386.488	151
386.949	145
387.411	156
387.872	155
388.334	156
388.795	159
389.257	168
389.719	170
390.181	170
390.642	179
391.104	182
391.566	183
392.028	191
392.49	194
392.952	196
393.414	196
393.876	208
394.338	215
394.8	211
395.262	216
395.724	226
396.186	229
396.648	229
397.111	230
397.573	234
398.035	234
398.498	242
398.96	242
399.423	246
399.885	250
400.348	251
400.81	261
401.273	265
401.736	262
402.198	281
402.661	283
403.124	292
403.587	298
404.049	303.5
404.512	309
404.975	319
405.438	312
405.901	311
406.364	320
406.827	324
407.29	317
407.754	319
408.217	312
408.68	318
409.143	326
409.607	324
410.07	321
410.533	332
410.997	339
411.46	343
411.924	340
412.387	341
412.851	358
413.314	370
413.778	365
414.242	376
414.705	393
415.169	382
415.633	387
416.097	391
416.561	394
417.024	402
417.488	389
417.952	395
418.416	389
418.88	400
419.344	395
419.809	391
420.273	408
420.737	396
421.201	404
421.665	410
422.13	405
422.594	418
423.059	422
423.523	428
423.987	437
424.452	453
424.916	463
425.381	475
425.846	478
426.31	482
426.775	485
427.24	499
427.704	489
428.169	499
428.634	496
429.099	489
429.564	488
430.029	495
430.494	495
430.959	494
431.424	486
431.889	501
432.354	506
432.819	502
433.284	519
433.75	517
434.215	538
434.68	547
435.146	555
435.611	576
436.077	591
436.542	597
437.008	622
437.473	621
437.939	627
438.404	642
438.87	653
439.336	638
439.801	634
440.267	653
440.733	654
441.199	662
441.665	666
442.131	677
442.596	655
443.062	679
443.529	694
443.995	711
444.461	725
444.927	744
445.393	749
445.859	782
446.325	786
446.792	836
447.258	836
447.724	855
448.191	891
448.657	896
449.124	927
449.59	918
450.057	962
450.523	975
450.99	989
451.457	983
451.923	1001
452.39	989
452.857	1014
453.324	1006
453.791	1012
454.257	1016
454.724	1030
455.191	1022
455.658	1020
456.125	1051
456.592	1032
457.059	1052
457.527	1056
457.994	1093
458.461	1087
458.928	1103
459.396	1107
459.863	1141
460.33	1141
460.798	1142
461.265	1159
461.732	1145
462.2	1177
462.668	1173
463.135	1186
463.603	1154
464.07	1185
464.538	1151
465.006	1188
465.474	1145
465.941	1157
466.409	1171
466.877	1141
467.345	1173
467.813	1152
468.281	1158
468.749	1173
469.217	1170
469.685	1179
470.153	1190
470.621	1194
471.09	1195
471.558	1245
472.026	1236
472.494	1271
472.963	1277
473.431	1313
473.9	1336
474.368	1372
474.837	1387
475.305	1415
475.774	1442
476.242	1474
476.711	1481
477.18	1516
477.648	1503
478.117	1523
478.586	1505
479.055	1509
479.524	1515
479.993	1510
480.462	1501
480.93	1511
481.399	1513
481.869	1529
482.338	1500
482.807	1520
483.276	1511
483.745	1506
484.214	1555
484.684	1561
485.153	1554
485.622	1560
486.092	1607
486.561	1569
487.031	1618
487.5	1652
487.97	1644
488.439	1673
488.909	1708
489.378	1780
489.848	1776
490.318	1814
490.787	1889
491.257	1918
491.727	1940
492.197	1980
492.667	1966
493.137	2006
493.607	2007
494.077	2022
494.547	1997
495.017	1995
495.487	2021
495.957	2062
496.427	2018
496.897	2016
497.368	2042
497.838	2018
498.308	2050
498.779	2044
499.249	2057
499.719	2068
500.19	2074
500.66	2089
501.131	2109
501.602	2149
502.072	2146
502.543	2151
503.014	2224
503.484	2222
503.955	2274
504.426	2342
504.897	2330
505.368	2386
505.838	2420
506.309	2486
506.78	2566
507.251	2593
507.722	2646
508.194	2706
508.665	2721
509.136	2710
509.607	2808
510.078	2855
510.549	2889
511.021	2953
511.492	2939
511.964	2982
512.435	3016
512.906	2993
513.378	3020
513.849	3056
514.321	3056
514.793	3095
515.264	3116
515.736	3148
516.208	3203
516.679	3218
517.151	3258
517.623	3277
518.095	3312
518.567	3324
519.038	3388
519.51	3375
519.982	3432
520.454	3478
520.927	3480
521.399	3517
521.871	3552
522.343	3556
522.815	3603
523.287	3603
523.76	3629
524.232	3680
524.704	3716
525.177	3649
525.649	3667
526.122	3698
526.594	3619
527.067	3710
527.539	3750
528.012	3715
528.484	3690
528.957	3689
529.43	3688
529.903	3677
530.375	3799
530.848	3704
531.321	3753
531.794	3740
532.267	3813
532.74	3753
533.213	3732
533.686	3780
534.159	3764
534.632	3846
535.105	3849
535.578	3886
536.051	3903
536.525	3923
536.998	3902
537.471	3976
537.945	3924
538.418	3980
538.891	4001
539.365	4053
539.838	4086
540.312	4075
540.786	4100
541.259	4095
541.733	4143
542.206	4138
542.68	4064
543.154	4047
543.628	4054
544.101	4150
544.575	4131
545.049	4028
545.523	4094
545.997	4067
546.471	4097
546.945	4057
547.419	4111
547.893	3944
548.367	4008
548.842	3975
549.316	3982
549.79	3992
550.264	3960
550.739	4004
551.213	4021
551.687	4029
552.162	4050
552.636	3990
553.111	3982
553.585	4066
554.06	4000
554.534	4097
555.009	4062
555.484	4123
555.958	4168
556.433	4178
556.908	4219
557.383	4163
557.858	4275
558.333	4293
558.807	4214
559.282	4239
559.757	4360
560.232	4394
560.708	4318
561.183	4302
561.658	4354
562.133	4358
562.608	4318
563.083	4437
563.559	4296
564.034	4317
564.509	4324
564.985	4339
565.46	4272
565.936	4338
566.411	4349
566.887	4283
567.362	4300
567.838	4290
568.313	4357
568.789	4301
569.265	4301
569.74	4318
570.216	4277
570.692	4352
571.168	4338
571.644	4326
572.12	4315
572.596	4346
573.071	4328
573.547	4419
574.024	4449
574.5	4460
574.976	4473
575.452	4539
575.928	4568
576.404	4582
576.881	4727
577.357	4654
577.833	4681
578.31	4799
578.786	4850
579.262	4953
579.739	4865
580.215	4998
580.692	4996
581.169	4964
581.645	4981
582.122	5102
582.598	5058
583.075	5055
583.552	5117
584.029	5131
584.506	5093
584.982	5067
585.459	5175
585.936	5097
586.413	5152
586.89	5206
587.367	5127
587.844	5201
588.321	5155
588.799	5179
589.276	5123
589.753	5188
590.23	5192
590.707	5184
591.185	5196
591.662	5182
592.139	5222
592.617	5288
593.094	5264
593.572	5312
594.049	5358
594.527	5406
595.004	5387
595.482	5514
595.96	5459
596.437	5457
596.915	5579
597.393	5487
597.871	5615
598.349	5528
598.826	5646
599.304	5684
599.782	5796
600.26	5694
600.738	5780
601.216	5740
601.694	5807
602.173	5866
602.651	5904
603.129	5830
603.607	5860
604.085	5907
604.564	5900
605.042	5897
605.52	5858
605.999	5990
606.477	5876
606.956	5869
607.434	5876
607.913	5883
608.391	5880
608.87	5890
609.348	5833
609.827	5857
610.306	5877
610.785	5872
611.263	5896
611.742	5871
612.221	5755
612.7	5798
613.179	5822
613.658	5751
614.137	5880
614.616	5929
615.095	5793
615.574	5856
616.053	5899
616.532	5845
617.011	5841
617.491	5836
617.97	5813
618.449	5901
618.928	5962
619.408	5921
619.887	5970
620.367	5973
620.846	6009
621.326	5996
621.805	6116
622.285	6117
622.764	6142
623.244	6134
623.724	6163
624.203	6225
624.683	6106
625.163	6220
625.643	6209
626.123	6152
626.602	6288
627.082	6118
627.562	6122
628.042	6257
628.522	6207
629.002	6207
629.482	6242
629.963	6197
630.443	6128
630.923	6150
631.403	6203
631.883	6180
632.364	6191
632.844	6136
633.324	6129
633.805	6133
634.285	6064
634.766	6042
635.246	6035
635.727	6022
636.207	6042
636.688	6054
637.168	6074
637.649	6012
638.13	5959
638.611	5980
639.091	5987
639.572	5987
640.053	5948
640.534	5995
641.015	5971
641.496	5860
641.977	5958
642.458	5865
642.939	5856
643.42	5857
643.901	5879
644.382	5919
644.863	5896
645.345	5893
645.826	5881
646.307	5855
646.788	5957
647.27	5871
647.751	5935
648.233	5994
648.714	5866
649.196	6014
649.677	5984
650.159	5979
650.64	5916
651.122	5991
651.603	5873
652.085	5932
652.567	5922
653.049	5863
653.53	5856
654.012	5930
654.494	5804
654.976	5819
655.458	5788
655.94	5786
656.422	5896
656.904	5828
657.386	5758
657.868	5759
658.35	5733
658.833	5811
659.315	5805
659.797	5721
660.279	5725
660.762	5763
661.244	5723
661.726	5681
662.209	5682
662.691	5675
663.174	5563
663.656	5592
664.139	5606
664.621	5560
665.104	5501
665.587	5529
666.069	5499
666.552	5487
667.035	5411
667.517	5451
668	5497
668.483	5468
668.966	5398
669.449	5376
669.932	5421
670.415	5500
670.898	5456
671.381	5468
671.864	5466
672.347	5421
672.83	5420
673.313	5452
673.797	5405
674.28	5471
674.763	5452
675.247	5434
675.73	5443
676.213	5498
676.697	5537
677.18	5532
677.664	5537
678.147	5533
678.631	5536
679.114	5563
679.598	5574
680.082	5617
680.565	5614
681.049	5609
681.533	5617
682.017	5686
682.5	5655
682.984	5661
683.468	5609
683.952	5496
684.436	5590
684.92	5526
685.404	5546
685.888	5581
686.372	5520
686.856	5512
687.341	5583
687.825	5524
688.309	5560
688.793	5556
689.278	5489
689.762	5564
690.246	5549
690.731	5549
691.215	5549
691.7	5384
692.184	5425
692.669	5403
693.153	5433
693.638	5338
694.122	5360
694.607	5373
695.092	5290
695.577	5334
696.061	5245
696.546	5261
697.031	5239
697.516	5274
698.001	5266
698.486	5214
698.971	5272
699.456	5167
699.941	5187
700.426	5180
700.911	5223
701.396	5186
701.881	5187
702.366	5142
702.852	5113
703.337	5126
703.822	5115
704.308	5091
704.793	5128
705.278	5119
705.764	5122
706.249	5075
706.735	5077
707.22	5127
707.706	5041
708.191	5143
708.677	5123
709.163	5077
709.648	5118
710.134	5159
710.62	5083
711.106	5058
711.592	5122
712.077	5094
712.563	4973
713.049	4994
713.535	5082
714.021	5053
714.507	5006
714.993	4958
715.479	5031
715.966	4964
716.452	4944
716.938	4949
717.424	4815
717.91	4921
718.397	4871
718.883	4832
719.369	4837
719.856	4817
720.342	4859
720.829	4787
721.315	4804
721.802	4780
722.288	4815
722.775	4653
723.262	4513
723.748	4698
724.235	4661
724.722	4715
725.208	4635
725.695	4650
726.182	4640
726.669	4558
727.156	4573
727.643	4517
728.13	4526
728.617	4503
729.104	4505
729.591	4459
730.078	4492
730.565	4507
731.052	4446
731.539	4464
732.027	4410
732.514	4343
733.001	4387
733.488	4368
733.976	4373
734.463	4375
734.951	4365
735.438	4390
735.926	4323
736.413	4314
736.901	4248
737.388	4281
737.876	4259
738.364	4216
738.851	4211
739.339	4200
739.827	4242
740.314	4124
740.802	4174
741.29	4209
741.778	4154
742.266	4151
742.754	4166
743.242	4204
743.73	4128
744.218	4120
744.706	4056
745.194	4096
745.682	4066
746.17	4094
746.659	4138
747.147	4029
747.635	4045
748.123	4035
748.612	3987
749.1	3964
749.589	3974
750.077	3920
750.566	3870
751.054	3897
751.543	3912
752.031	3827
752.52	3818
753.008	3735
753.497	3725
753.986	3714
754.474	3699
754.963	3735
755.452	3686
755.941	3644
756.43	3628
756.919	3603
757.408	3566
757.896	3571
758.385	3582
758.875	3551
759.364	3533
759.853	3527
760.342	3469
760.831	3553
761.32	3531
761.809	3488
762.299	3506
762.788	3493
763.277	3480
763.767	3404
764.256	3400
764.745	3341
765.235	3379
765.724	3286
766.214	3325
766.703	3303
767.193	3242
767.683	3253
768.172	3197
768.662	3248
769.152	3244
769.641	3247
770.131	3148
770.621	3185
771.111	3127
771.601	3125
772.09	3106
772.58	3071
773.07	3101
773.56	3133
774.05	3070
774.54	3033
775.031	3000
775.521	2965
776.011	2960
776.501	2981
776.991	2944
777.482	2993
777.972	2899
778.462	2893
778.953	2925
779.443	2918
779.933	2917
780.424	2864
780.914	2870
781.405	2859
781.895	2809
782.386	2800
782.877	2781
783.367	2736
783.858	2736
784.349	2741
784.839	2733
785.33	2756
785.821	2726
786.312	2699
786.803	2689
787.293	2683
787.784	2645
788.275	2609
788.766	2587
789.257	2634
789.748	2562
790.24	2530
790.731	2554
791.222	2509
791.713	2501
792.204	2516
792.696	2463
793.187	2501
793.678	2484
794.169	2422
794.661	2463
795.152	2430
795.644	2414
796.135	2396
796.627	2401
797.118	2351
797.61	2346
798.101	2323
798.593	2342
799.085	2310
799.576	2305
800.068	2267
800.56	2269
801.052	2214
801.544	2214
802.035	2221
802.527	2191
803.019	2184
803.511	2173
804.003	2161
804.495	2167
804.987	2125
805.479	2075
805.971	2095
806.464	2104
806.956	2058
807.448	2059
807.94	2050
808.433	2042
808.925	2030
809.417	2025
809.91	2020
810.402	1984
810.894	1997
811.387	1997
811.879	1953
812.372	1950
812.865	1933
813.357	1925
813.85	1915
814.342	1895
814.835	1896
815.328	1896
815.821	1863
816.313	1849
816.806	1856
817.299	1844
817.792	1873
818.285	1861
818.778	1893
819.271	1884
819.764	1845
820.257	1832
820.75	1822
821.243	1810
821.736	1798
822.229	1817
822.722	1820
823.216	1860
