Data from lamp3helium_sterk_Subt4__30__340.txt Node

Date: Fri Apr 04 11:07:43 CEST 2025
User: fys-lab-0081
Spectrometer: S04999
Trigger mode: 0
Resolution mode: 1024 pixels
Integration Time (sec): 1.000000E-1
Scans to average: 1
Nonlinearity correction enabled: false
Boxcar width: 0
Baseline correction enabled: true
XAxis mode: Wavelengths
Number of Pixels in Spectrum: 1024
>>>>>Begin Spectral Data<<<<<
336.42	4
336.877	4
337.334	7
337.792	6
338.249	9
338.706	6
339.164	12
339.621	11
340.079	7
340.536	9
340.994	6
341.452	12
341.909	13
342.367	11
342.825	13
343.283	8
343.741	17
344.198	9
344.656	7
345.114	13
345.572	8
346.03	15
346.488	11
346.947	9
347.405	18
347.863	17
348.321	11
348.779	18
349.238	17
349.696	24
350.154	16
350.613	16
351.071	21
351.53	18
351.988	25
352.447	25
352.905	19
353.364	26
353.823	29
354.282	24
354.74	22
355.199	29
355.658	29
356.117	31
356.576	25
357.035	27
357.494	28
357.953	36
358.412	30
358.871	35
359.33	35
359.789	37
360.249	42
360.708	42
361.167	31
361.626	48
362.086	46
362.545	42
363.005	42
363.464	50
363.924	50
364.383	51
364.843	51
365.303	48
365.762	58
366.222	61
366.682	54
367.142	58
367.601	56
368.061	66
368.521	66
368.981	61
369.441	65
369.901	59
370.361	62
370.821	70
371.282	67
371.742	64
372.202	69
372.662	72
373.123	75
373.583	75
374.043	82
374.504	78
374.964	82
375.425	87
375.885	87
376.346	89
376.806	81
377.267	91
377.728	88
378.188	94
378.649	94
379.11	97
379.571	97
380.032	100
380.493	103
380.954	109
381.414	103
381.876	113
382.337	115
382.798	116
383.259	126
383.72	126
384.181	133
384.642	134
385.104	137
385.565	137
386.026	150
386.488	155
386.949	152
387.411	160
387.872	159
388.334	166
388.795	169
389.257	174
389.719	177
390.181	186
390.642	183
391.104	185
391.566	190
392.028	201
392.49	200
392.952	206
393.414	207
393.876	215
394.338	222
394.8	219
395.262	226
395.724	236
396.186	238
396.648	242
397.111	239
397.573	241
398.035	235
398.498	254
398.96	253
399.423	255
399.885	257
400.348	263
400.81	273
401.273	272
401.736	275
402.198	288
402.661	298
403.124	302
403.587	302
404.049	313
404.512	324
404.975	337
405.438	323
405.901	330
406.364	333
406.827	341
407.29	332
407.754	334
408.217	328
408.68	331
409.143	338
409.607	338
410.07	338
410.533	345
410.997	350
411.46	358
411.924	351
412.387	357
412.851	371
413.314	387
413.778	383
414.242	392
414.705	407
415.169	398
415.633	407
416.097	405
416.561	413
417.024	421
417.488	406
417.952	415
418.416	407
418.88	417
419.344	412
419.809	414
420.273	419
420.737	409
421.201	424
421.665	429
422.13	424
422.594	432
423.059	450
423.523	451
423.987	456
424.452	476
424.916	480
425.381	492
425.846	504
426.31	500
426.775	506
427.24	521
427.704	510
428.169	520
428.634	514
429.099	508
429.564	509
430.029	518
430.494	514
430.959	522
431.424	503
431.889	526
432.354	525
432.819	521
433.284	542
433.75	542
434.215	569
434.68	568
435.146	579
435.611	604
436.077	619
436.542	625
437.008	648
437.473	656
437.939	653
438.404	676
438.87	678
439.336	657
439.801	664
440.267	677
440.733	685
441.199	692
441.665	685
442.131	706
442.596	682
443.062	709
443.529	735
443.995	742
444.461	757
444.927	776
445.393	783
445.859	816
446.325	821
446.792	874
447.258	866
447.724	892
448.191	930
448.657	934
449.124	961
449.59	961
450.057	1003
450.523	1014
450.99	1032
451.457	1029
451.923	1044
452.39	1033
452.857	1050
453.324	1042
453.791	1061
454.257	1067
454.724	1076
455.191	1070
455.658	1059
456.125	1102
456.592	1075
457.059	1090
457.527	1106
457.994	1133
458.461	1139
458.928	1155
459.396	1154
459.863	1192
460.33	1196
460.798	1192
461.265	1205
461.732	1197
462.2	1232
462.668	1222
463.135	1239
463.603	1203
464.07	1237
464.538	1201
465.006	1234
465.474	1198
465.941	1209
466.409	1222
466.877	1188
467.345	1224
467.813	1205
468.281	1211
468.749	1220
469.217	1225
469.685	1231
470.153	1240
470.621	1239
471.09	1244
471.558	1293
472.026	1284
472.494	1325
472.963	1334
473.431	1377
473.9	1399
474.368	1424
474.837	1448
475.305	1474
475.774	1504
476.242	1542
476.711	1551
477.18	1580
477.648	1562
478.117	1588
478.586	1570
479.055	1580
479.524	1586
479.993	1572
480.462	1571
480.93	1581
481.399	1577
481.869	1588
482.338	1561
482.807	1580
483.276	1575
483.745	1566
484.214	1611
484.684	1624
485.153	1620
485.622	1629
486.092	1671
486.561	1643
487.031	1694
487.5	1721
487.97	1713
488.439	1744
488.909	1788
489.378	1857
489.848	1857
490.318	1899
490.787	1966
491.257	1993
491.727	2023
492.197	2065
492.667	2046
493.137	2078
493.607	2086
494.077	2108
494.547	2088
495.017	2071
495.487	2116
495.957	2150
496.427	2103
496.897	2105
497.368	2131
497.838	2110
498.308	2127
498.779	2138
499.249	2144
499.719	2152
500.19	2165
500.66	2187
501.131	2198
501.602	2235
502.072	2241
502.543	2241
503.014	2315
503.484	2308
503.955	2367
504.426	2436
504.897	2433
505.368	2487
505.838	2526
506.309	2584
506.78	2666
507.251	2705
507.722	2752
508.194	2816
508.665	2842
509.136	2835
509.607	2943
510.078	2976
510.549	3011
511.021	3080
511.492	3076
511.964	3108
512.435	3138
512.906	3126
513.378	3150
513.849	3185
514.321	3197
514.793	3224
515.264	3254
515.736	3282
516.208	3333
516.679	3348
517.151	3407
517.623	3420
518.095	3448
518.567	3468
519.038	3533
519.51	3523
519.982	3571
520.454	3625
520.927	3638
521.399	3660
521.871	3691
522.343	3709
522.815	3760
523.287	3765
523.76	3795
524.232	3842
524.704	3867
525.177	3809
525.649	3836
526.122	3845
526.594	3772
527.067	3881
527.539	3906
528.012	3868
528.484	3852
528.957	3848
529.43	3840
529.903	3836
530.375	3957
530.848	3860
531.321	3913
531.794	3916
532.267	3994
532.74	3920
533.213	3898
533.686	3951
534.159	3921
534.632	4012
535.105	4010
535.578	4066
536.051	4079
536.525	4096
536.998	4074
537.471	4157
537.945	4095
538.418	4147
538.891	4161
539.365	4235
539.838	4261
540.312	4248
540.786	4301
541.259	4287
541.733	4330
542.206	4319
542.68	4237
543.154	4225
543.628	4232
544.101	4337
544.575	4301
545.049	4193
545.523	4279
545.997	4253
546.471	4280
546.945	4231
547.419	4297
547.893	4125
548.367	4181
548.842	4152
549.316	4164
549.79	4170
550.264	4140
550.739	4194
551.213	4198
551.687	4196
552.162	4222
552.636	4170
553.111	4151
553.585	4243
554.06	4177
554.534	4274
555.009	4234
555.484	4304
555.958	4343
556.433	4364
556.908	4405
557.383	4351
557.858	4459
558.333	4467
558.807	4408
559.282	4447
559.757	4564
560.232	4600
560.708	4504
561.183	4499
561.658	4548
562.133	4543
562.608	4506
563.083	4622
563.559	4494
564.034	4510
564.509	4518
564.985	4532
565.46	4468
565.936	4539
566.411	4540
566.887	4478
567.362	4505
567.838	4474
568.313	4544
568.789	4495
569.265	4496
569.74	4511
570.216	4466
570.692	4554
571.168	4545
571.644	4528
572.12	4498
572.596	4533
573.071	4520
573.547	4620
574.024	4650
574.5	4662
574.976	4662
575.452	4738
575.928	4760
576.404	4780
576.881	4917
577.357	4855
577.833	4891
578.31	5018
578.786	5067
579.262	5171
579.739	5088
580.215	5217
580.692	5210
581.169	5189
581.645	5205
582.122	5322
582.598	5277
583.075	5281
583.552	5363
584.029	5369
584.506	5328
584.982	5293
585.459	5407
585.936	5325
586.413	5395
586.89	5430
587.367	5349
587.844	5427
588.321	5385
588.799	5399
589.276	5342
589.753	5415
590.23	5427
590.707	5426
591.185	5423
591.662	5396
592.139	5441
592.617	5520
593.094	5505
593.572	5546
594.049	5592
594.527	5649
595.004	5637
595.482	5767
595.96	5710
596.437	5703
596.915	5823
597.393	5742
597.871	5880
598.349	5778
598.826	5905
599.304	5934
599.782	6047
600.26	5947
600.738	6042
601.216	5997
601.694	6064
602.173	6121
602.651	6153
603.129	6071
603.607	6118
604.085	6174
604.564	6157
605.042	6178
605.52	6134
605.999	6267
606.477	6142
606.956	6128
607.434	6138.5
607.913	6149
608.391	6133
608.87	6161
609.348	6092
609.827	6110
610.306	6117
610.785	6127
611.263	6161
611.742	6099
612.221	5985
612.7	6037
613.179	6076
613.658	6002
614.137	6149
614.616	6200
615.095	6044
615.574	6109
616.053	6169
616.532	6121
617.011	6113
617.491	6098
617.97	6083
618.449	6164
618.928	6211
619.408	6178
619.887	6233
620.367	6235
620.846	6281
621.326	6271
621.805	6401
622.285	6381
622.764	6413
623.244	6403
623.724	6461
624.203	6494
624.683	6368
625.163	6485
625.643	6487
626.123	6435
626.602	6579
627.082	6403
627.562	6391
628.042	6538
628.522	6472
629.002	6504
629.482	6530
629.963	6478
630.443	6403
630.923	6433
631.403	6482
631.883	6452
632.364	6472
632.844	6422
633.324	6421
633.805	6406
634.285	6328
634.766	6302
635.246	6292
635.727	6290
636.207	6305
636.688	6318
637.168	6346
637.649	6266
638.13	6232
638.611	6249
639.091	6263
639.572	6253
640.053	6219
640.534	6273
641.015	6218
641.496	6122
641.977	6215
642.458	6135
642.939	6121
643.42	6121
643.901	6135
644.382	6188
644.863	6172
645.345	6181
645.826	6145
646.307	6126
646.788	6226
647.27	6139
647.751	6186
648.233	6264
648.714	6138
649.196	6303
649.677	6243
650.159	6251
650.64	6176
651.122	6272
651.603	6146
652.085	6186
652.567	6196
653.049	6126
653.53	6106
654.012	6188
654.494	6047
654.976	6071
655.458	6045
655.94	6049
656.422	6156
656.904	6092
657.386	6010
657.868	6015
658.35	6000
658.833	6086
659.315	6080
659.797	5996
660.279	5994
660.762	6025
661.244	5978
661.726	5935
662.209	5942
662.691	5927
663.174	5804
663.656	5820
664.139	5825
664.621	5797
665.104	5735
665.587	5760
666.069	5727
666.552	5717
667.035	5663
667.517	5692
668	5741
668.483	5723
668.966	5651
669.449	5625
669.932	5663
670.415	5749
670.898	5704
671.381	5719
671.864	5710
672.347	5648
672.83	5659
673.313	5676
673.797	5639
674.28	5720
674.763	5699
675.247	5685
675.73	5689
676.213	5750
676.697	5795
677.18	5779
677.664	5805
678.147	5784
678.631	5796
679.114	5818
679.598	5808
680.082	5852
680.565	5855
681.049	5843
681.533	5847
682.017	5917
682.5	5890
682.984	5914
683.468	5863
683.952	5755
684.436	5851
684.92	5799
685.404	5807
685.888	5844
686.372	5776
686.856	5774
687.341	5844
687.825	5770
688.309	5791
688.793	5791
689.278	5728
689.762	5805
690.246	5764
690.731	5775
691.215	5772
691.7	5609
692.184	5653
692.669	5629
693.153	5651
693.638	5577
694.122	5590
694.607	5617
695.092	5523
695.577	5580
696.061	5479
696.546	5493
697.031	5456
697.516	5506
698.001	5493
698.486	5427
698.971	5493
699.456	5387
699.941	5412
700.426	5406
700.911	5461
701.396	5425
701.881	5415
702.366	5367
702.852	5330
703.337	5346
703.822	5313
704.308	5307
704.793	5335
705.278	5320
705.764	5322
706.249	5293
706.735	5300
707.22	5341
707.706	5257
708.191	5344
708.677	5368
709.163	5315
709.648	5355
710.134	5380
710.62	5313
711.106	5282
711.592	5343
712.077	5327
712.563	5194
713.049	5203
713.535	5318
714.021	5259
714.507	5218
714.993	5160
715.479	5237
715.966	5168
716.452	5168
716.938	5168
717.424	5017
717.91	5128
718.397	5066
718.883	5041
719.369	5058
719.856	5033
720.342	5081
720.829	4998
721.315	5002
721.802	4983
722.288	5031
722.775	4844
723.262	4708
723.748	4900
724.235	4863
724.722	4943
725.208	4830
725.695	4844
726.182	4838
726.669	4782
727.156	4799
727.643	4749
728.13	4753
728.617	4712
729.104	4714
729.591	4668
730.078	4703
730.565	4721
731.052	4650
731.539	4660
732.027	4596
732.514	4538
733.001	4580
733.488	4558
733.976	4571
734.463	4570
734.951	4540
735.438	4579
735.926	4507
736.413	4495
736.901	4421
737.388	4460
737.876	4425
738.364	4372
738.851	4372
739.339	4367
739.827	4419
740.314	4306
740.802	4354
741.29	4389
741.778	4320
742.266	4316
742.754	4325
743.242	4373
743.73	4297
744.218	4298
744.706	4219
745.194	4254
745.682	4227
746.17	4267
746.659	4311
747.147	4200
747.635	4221
748.123	4206
748.612	4148
749.1	4116
749.589	4139
750.077	4092
750.566	4039
751.054	4055
751.543	4068
752.031	3982
752.52	3976
753.008	3890
753.497	3877
753.986	3877
754.474	3861
754.963	3886
755.452	3830
755.941	3800
756.43	3768
756.919	3739
757.408	3713
757.896	3735
758.385	3748
758.875	3702
759.364	3681
759.853	3665
760.342	3619
760.831	3711
761.32	3692
761.809	3649
762.299	3650
762.788	3643
763.277	3619
763.767	3551
764.256	3527
764.745	3478
765.235	3531
765.724	3433
766.214	3472
766.703	3439
767.193	3375
767.683	3394
768.172	3329
768.662	3376
769.152	3372
769.641	3374
770.131	3282
770.621	3307
771.111	3263
771.601	3258
772.09	3236
772.58	3207
773.07	3232
773.56	3262
774.05	3181
774.54	3158
775.031	3119
775.521	3087
776.011	3098
776.501	3120
776.991	3076
777.482	3109
777.972	3017
778.462	3006
778.953	3037
779.443	3015
779.933	3012
780.424	2966
780.914	2979
781.405	2970
781.895	2918
782.386	2921
782.877	2903
783.367	2845
783.858	2842
784.349	2850
784.839	2838
785.33	2853
785.821	2833
786.312	2799
786.803	2790
787.293	2783
787.784	2735
788.275	2708
788.766	2695
789.257	2738
789.748	2666
790.24	2634
790.731	2653
791.222	2613
791.713	2613
792.204	2625
792.696	2567
793.187	2608
793.678	2595
794.169	2532
794.661	2554
795.152	2529
795.644	2500
796.135	2488
796.627	2493
797.118	2438
797.61	2441
798.101	2411
798.593	2432
799.085	2387
799.576	2384
800.068	2350
800.56	2357
801.052	2303
801.544	2297
802.035	2311
802.527	2283
803.019	2270
803.511	2262
804.003	2242
804.495	2249
804.987	2212
805.479	2156
805.971	2176
806.464	2186
806.956	2139
807.448	2145
807.94	2138
808.433	2122
808.925	2115
809.417	2108
809.91	2104
810.402	2054
810.894	2072
811.387	2073
811.879	2037
812.372	2033
812.865	2008
813.357	1998
813.85	1990
814.342	1970
814.835	1970
815.328	1968
815.821	1937
816.313	1932
816.806	1927
817.299	1911
817.792	1935
818.285	1918
818.778	1950
819.271	1945
819.764	1910
820.257	1895
820.75	1885
821.243	1876
821.736	1858
822.229	1888
822.722	1883
823.216	1933
