Data from lamp3helium_sterk_Subt4__12__322.txt Node

Date: Fri Apr 04 11:07:41 CEST 2025
User: fys-lab-0081
Spectrometer: S04999
Trigger mode: 0
Resolution mode: 1024 pixels
Integration Time (sec): 1.000000E-1
Scans to average: 1
Nonlinearity correction enabled: false
Boxcar width: 0
Baseline correction enabled: true
XAxis mode: Wavelengths
Number of Pixels in Spectrum: 1024
>>>>>Begin Spectral Data<<<<<
336.42	3
336.877	3
337.334	10
337.792	6
338.249	10
338.706	11
339.164	9
339.621	4
340.079	5
340.536	8
340.994	11
341.452	9
341.909	5
342.367	15
342.825	14
343.283	6
343.741	14
344.198	6
344.656	11
345.114	11
345.572	7
346.03	12
346.488	11
346.947	12
347.405	14
347.863	17
348.321	12
348.779	17
349.238	19
349.696	21
350.154	17
350.613	16
351.071	24
351.53	18
351.988	19
352.447	20
352.905	20
353.364	25
353.823	26
354.282	26
354.74	26
355.199	29
355.658	29
356.117	31
356.576	28
357.035	30
357.494	30
357.953	28
358.412	30
358.871	38
359.33	36
359.789	37
360.249	39
360.708	41
361.167	37
361.626	41
362.086	38
362.545	43
363.005	43
363.464	47
363.924	48
364.383	46
364.843	49
365.303	54
365.762	51
366.222	60
366.682	56
367.142	54
367.601	60
368.061	60
368.521	62
368.981	61
369.441	64
369.901	57
370.361	65
370.821	71
371.282	63
371.742	61
372.202	69
372.662	75
373.123	75
373.583	71
374.043	81
374.504	78
374.964	76
375.425	79
375.885	85
376.346	93
376.806	82
377.267	83
377.728	84
378.188	95
378.649	95
379.11	91
379.571	95
380.032	98
380.493	98
380.954	106
381.414	105
381.876	111
382.337	113
382.798	115
383.259	121
383.72	127
384.181	131
384.642	132
385.104	138
385.565	138
386.026	141
386.488	156
386.949	151
387.411	159
387.872	161
388.334	164
388.795	164
389.257	173
389.719	173
390.181	175
390.642	183
391.104	185
391.566	185
392.028	193
392.49	201
392.952	198
393.414	205
393.876	207
394.338	220
394.8	217
395.262	224
395.724	229
396.186	230
396.648	236
397.111	233
397.573	239
398.035	237
398.498	249
398.96	251
399.423	252
399.885	255
400.348	258
400.81	266
401.273	269
401.736	269
402.198	283
402.661	287
403.124	296
403.587	305
404.049	309.5
404.512	314
404.975	326
405.438	317
405.901	322
406.364	322
406.827	331
407.29	324
407.754	327
408.217	321
408.68	326
409.143	331
409.607	329
410.07	332
410.533	339
410.997	344
411.46	350
411.924	351
412.387	353
412.851	369
413.314	382
413.778	375
414.242	384
414.705	399
415.169	395
415.633	398
416.097	398
416.561	404
417.024	414
417.488	399
417.952	405
418.416	398
418.88	410
419.344	405
419.809	407
420.273	413
420.737	405
421.201	412
421.665	421
422.13	418
422.594	429
423.059	438
423.523	445
423.987	451
424.452	466
424.916	470
425.381	483
425.846	493
426.31	488
426.775	501
427.24	508
427.704	506
428.169	510
428.634	507
429.099	496
429.564	499
430.029	505
430.494	503
430.959	510
431.424	499
431.889	519
432.354	519
432.819	511
433.284	536
433.75	533
434.215	558
434.68	559
435.146	569
435.611	593
436.077	607
436.542	618
437.008	637
437.473	639
437.939	645
438.404	659
438.87	666
439.336	656
439.801	655
440.267	667
440.733	677
441.199	680
441.665	678
442.131	697
442.596	673
443.062	698
443.529	720
443.995	728
444.461	740
444.927	762
445.393	766
445.859	806
446.325	805
446.792	867
447.258	855
447.724	880
448.191	911
448.657	920
449.124	946
449.59	948
450.057	990
450.523	995
450.99	1018
451.457	1017
451.923	1034
452.39	1020
452.857	1038
453.324	1033
453.791	1034
454.257	1042
454.724	1059
455.191	1054
455.658	1042
456.125	1092
456.592	1058
457.059	1079
457.527	1088
457.994	1118
458.461	1120
458.928	1133
459.396	1135
459.863	1174
460.33	1173
460.798	1172
461.265	1189
461.732	1175
462.2	1209
462.668	1200
463.135	1215
463.603	1187
464.07	1211
464.538	1177
465.006	1218
465.474	1181
465.941	1192
466.409	1206
466.877	1177
467.345	1209
467.813	1185
468.281	1195
468.749	1210
469.217	1204
469.685	1216
470.153	1224
470.621	1225
471.09	1227
471.558	1278
472.026	1273
472.494	1303
472.963	1316
473.431	1357
473.9	1374
474.368	1403
474.837	1431
475.305	1457
475.774	1488
476.242	1526
476.711	1530
477.18	1565
477.648	1542
478.117	1563
478.586	1551
479.055	1556
479.524	1566
479.993	1557
480.462	1553
480.93	1559
481.399	1555
481.869	1569
482.338	1542
482.807	1569
483.276	1553
483.745	1553
484.214	1591
484.684	1604
485.153	1594
485.622	1605
486.092	1650
486.561	1619
487.031	1667
487.5	1702
487.97	1695
488.439	1717
488.909	1767
489.378	1830
489.848	1827
490.318	1878
490.787	1943
491.257	1973
491.727	1998
492.197	2040
492.667	2032
493.137	2053
493.607	2071
494.077	2089
494.547	2069
495.017	2047
495.487	2083
495.957	2124
496.427	2074
496.897	2077
497.368	2104
497.838	2086
498.308	2107
498.779	2114
499.249	2120
499.719	2127
500.19	2133
500.66	2159
501.131	2170
501.602	2220
502.072	2207
502.543	2221
503.014	2292
503.484	2283
503.955	2344
504.426	2405
504.897	2401
505.368	2460
505.838	2497
506.309	2559
506.78	2641
507.251	2677
507.722	2721
508.194	2785
508.665	2814
509.136	2807
509.607	2906
510.078	2949
510.549	2981
511.021	3046
511.492	3036
511.964	3076
512.435	3104
512.906	3102
513.378	3115
513.849	3152
514.321	3169
514.793	3200
515.264	3223
515.736	3249
516.208	3307
516.679	3316
517.151	3368
517.623	3377
518.095	3419
518.567	3437
519.038	3503
519.51	3492
519.982	3545
520.454	3580
520.927	3595
521.399	3631
521.871	3675
522.343	3678
522.815	3719
523.287	3729
523.76	3752
524.232	3802
524.704	3842
525.177	3779
525.649	3792
526.122	3829
526.594	3741
527.067	3834
527.539	3869
528.012	3829
528.484	3820
528.957	3825
529.43	3812
529.903	3806
530.375	3929
530.848	3831
531.321	3883
531.794	3866
532.267	3949
532.74	3879
533.213	3866
533.686	3914
534.159	3883
534.632	3983
535.105	3978
535.578	4029
536.051	4044
536.525	4063
536.998	4040
537.471	4117
537.945	4057
538.418	4123
538.891	4136
539.365	4192
539.838	4228
540.312	4212
540.786	4253
541.259	4255
541.733	4303
542.206	4269
542.68	4201
543.154	4184
543.628	4180
544.101	4308
544.575	4272
545.049	4175
545.523	4239
545.997	4204
546.471	4242
546.945	4196
547.419	4257
547.893	4090
548.367	4143
548.842	4109
549.316	4124
549.79	4144
550.264	4101
550.739	4159
551.213	4159
551.687	4172
552.162	4193
552.636	4135
553.111	4122
553.585	4211
554.06	4140
554.534	4251
555.009	4202
555.484	4266
555.958	4311
556.433	4333
556.908	4371
557.383	4305
557.858	4426
558.333	4432
558.807	4367
559.282	4396
559.757	4524
560.232	4556
560.708	4479
561.183	4467
561.658	4511
562.133	4511
562.608	4475
563.083	4596
563.559	4459
564.034	4468
564.509	4485
564.985	4496
565.46	4434
565.936	4505
566.411	4521
566.887	4444
567.362	4474
567.838	4446
568.313	4509
568.789	4470
569.265	4462
569.74	4478
570.216	4450
570.692	4527
571.168	4517
571.644	4502
572.12	4479
572.596	4528
573.071	4496
573.547	4589
574.024	4632
574.5	4627
574.976	4645
575.452	4719
575.928	4747
576.404	4761
576.881	4911
577.357	4824
577.833	4869
578.31	4990
578.786	5042
579.262	5148
579.739	5057
580.215	5191
580.692	5188
581.169	5167
581.645	5182
582.122	5298
582.598	5268
583.075	5260
583.552	5330
584.029	5345
584.506	5313
584.982	5269
585.459	5378
585.936	5306
586.413	5371
586.89	5416
587.367	5333
587.844	5417
588.321	5364
588.799	5376
589.276	5344
589.753	5404
590.23	5420
590.707	5402
591.185	5398
591.662	5378
592.139	5422
592.617	5504
593.094	5483
593.572	5528
594.049	5570
594.527	5619
595.004	5621
595.482	5738
595.96	5683
596.437	5684
596.915	5811
597.393	5721
597.871	5862
598.349	5776
598.826	5898
599.304	5918
599.782	6022
600.26	5933
600.738	6027
601.216	5982
601.694	6041
602.173	6110
602.651	6151
603.129	6059
603.607	6120
604.085	6157
604.564	6145
605.042	6164
605.52	6110
605.999	6254
606.477	6127
606.956	6112
607.434	6123
607.913	6134
608.391	6138
608.87	6143
609.348	6074
609.827	6085
610.306	6096
610.785	6104
611.263	6139
611.742	6091
612.221	5971
612.7	6032
613.179	6056
613.658	5987
614.137	6143
614.616	6188
615.095	6055
615.574	6120
616.053	6162
616.532	6106
617.011	6105
617.491	6100
617.97	6065
618.449	6148
618.928	6208
619.408	6174
619.887	6232
620.367	6223
620.846	6262
621.326	6258
621.805	6395
622.285	6367
622.764	6401
623.244	6408
623.724	6447
624.203	6506
624.683	6368
625.163	6491
625.643	6462
626.123	6425
626.602	6570
627.082	6389
627.562	6383
628.042	6520
628.522	6489
629.002	6482
629.482	6516
629.963	6481
630.443	6380
630.923	6415
631.403	6466
631.883	6438
632.364	6455
632.844	6397
633.324	6407
633.805	6402
634.285	6326
634.766	6300
635.246	6297
635.727	6282
636.207	6290
636.688	6297
637.168	6341
637.649	6279
638.13	6224
638.611	6254
639.091	6264
639.572	6270
640.053	6228
640.534	6283
641.015	6251
641.496	6126
641.977	6210
642.458	6137
642.939	6128
643.42	6126
643.901	6152
644.382	6191
644.863	6172
645.345	6166
645.826	6141
646.307	6119
646.788	6223
647.27	6137
647.751	6190
648.233	6272
648.714	6152
649.196	6306
649.677	6260
650.159	6267
650.64	6178
651.122	6254
651.603	6145
652.085	6197
652.567	6202
653.049	6141
653.53	6122
654.012	6204
654.494	6065
654.976	6078
655.458	6039
655.94	6049
656.422	6183
656.904	6110
657.386	6027
657.868	6014
658.35	6009
658.833	6072
659.315	6082
659.797	5982
660.279	5995
660.762	6039
661.244	5994
661.726	5931
662.209	5943
662.691	5944
663.174	5814
663.656	5838
664.139	5849
664.621	5811
665.104	5753
665.587	5778
666.069	5757
666.552	5749
667.035	5670
667.517	5711
668	5740
668.483	5735
668.966	5657
669.449	5621
669.932	5670
670.415	5776
670.898	5733
671.381	5730
671.864	5713
672.347	5652
672.83	5657
673.313	5681
673.797	5650
674.28	5715
674.763	5696
675.247	5705
675.73	5701
676.213	5763
676.697	5813
677.18	5800
677.664	5814
678.147	5798
678.631	5797
679.114	5829
679.598	5835
680.082	5874
680.565	5869
681.049	5860
681.533	5853
682.017	5928
682.5	5923
682.984	5913
683.468	5879
683.952	5770
684.436	5872
684.92	5798
685.404	5836
685.888	5850
686.372	5793
686.856	5792
687.341	5865
687.825	5794
688.309	5827
688.793	5822
689.278	5769
689.762	5825
690.246	5789
690.731	5798
691.215	5793
691.7	5635
692.184	5681
692.669	5655
693.153	5678
693.638	5584
694.122	5595
694.607	5631
695.092	5544
695.577	5602
696.061	5501
696.546	5505
697.031	5486
697.516	5526
698.001	5526
698.486	5462
698.971	5524
699.456	5421
699.941	5424
700.426	5425
700.911	5460
701.396	5421
701.881	5434
702.366	5380
702.852	5359
703.337	5370
703.822	5367
704.308	5354
704.793	5361
705.278	5342
705.764	5350
706.249	5319
706.735	5322
707.22	5375
707.706	5292
708.191	5396
708.677	5389
709.163	5333
709.648	5364
710.134	5407
710.62	5346
711.106	5320
711.592	5369
712.077	5354
712.563	5234
713.049	5246
713.535	5341
714.021	5285
714.507	5253
714.993	5191
715.479	5279
715.966	5204
716.452	5205
716.938	5204
717.424	5067
717.91	5168
718.397	5109
718.883	5059
719.369	5070
719.856	5048
720.342	5103
720.829	5023
721.315	5025
721.802	4995
722.288	5045
722.775	4872
723.262	4747
723.748	4954
724.235	4906
724.722	4963
725.208	4860
725.695	4872
726.182	4858
726.669	4787
727.156	4807
727.643	4765
728.13	4772
728.617	4733
729.104	4739
729.591	4688
730.078	4717
730.565	4737
731.052	4670
731.539	4684
732.027	4622
732.514	4550
733.001	4599
733.488	4596
733.976	4600
734.463	4595
734.951	4591
735.438	4621
735.926	4544
736.413	4530
736.901	4449
737.388	4489
737.876	4441
738.364	4400
738.851	4418
739.339	4405
739.827	4451
740.314	4336
740.802	4382
741.29	4419
741.778	4357
742.266	4354
742.754	4364
743.242	4397
743.73	4314
744.218	4318
744.706	4260
745.194	4301
745.682	4272
746.17	4304
746.659	4335
747.147	4224
747.635	4235
748.123	4231
748.612	4188
749.1	4148
749.589	4167
750.077	4116
750.566	4064
751.054	4090
751.543	4114
752.031	4034
752.52	4022
753.008	3932
753.497	3919
753.986	3912
754.474	3898
754.963	3923
755.452	3865
755.941	3821
756.43	3792
756.919	3769
757.408	3733
757.896	3740
758.385	3750
758.875	3727
759.364	3701
759.853	3694
760.342	3643
760.831	3735
761.32	3722
761.809	3677
762.299	3685
762.788	3684
763.277	3662
763.767	3582
764.256	3561
764.745	3513
765.235	3555
765.724	3470
766.214	3504
766.703	3473
767.193	3414
767.683	3419
768.172	3370
768.662	3408
769.152	3410
769.641	3422
770.131	3317
770.621	3342
771.111	3282
771.601	3278
772.09	3263
772.58	3241
773.07	3250
773.56	3277
774.05	3203
774.54	3174
775.031	3142
775.521	3107
776.011	3112
776.501	3143
776.991	3106
777.482	3143
777.972	3042
778.462	3037
778.953	3082
779.443	3059
779.933	3052
780.424	2999
780.914	3011
781.405	3013
781.895	2958
782.386	2948
782.877	2928
783.367	2865
783.858	2858
784.349	2876
784.839	2852
785.33	2877
785.821	2860
786.312	2832
786.803	2828
787.293	2813
787.784	2768
788.275	2734
788.766	2717
789.257	2758
789.748	2690
790.24	2656
790.731	2672
791.222	2626
791.713	2634
792.204	2649
792.696	2586
793.187	2630
793.678	2613
794.169	2546
794.661	2585
795.152	2554
795.644	2523
796.135	2516
796.627	2516
797.118	2464
797.61	2452
798.101	2434
798.593	2461
799.085	2405
799.576	2402
800.068	2369
800.56	2381
801.052	2325
801.544	2323
802.035	2325
802.527	2300
803.019	2291
803.511	2280
804.003	2272
804.495	2266
804.987	2232
805.479	2166
805.971	2194
806.464	2219
806.956	2167
807.448	2157
807.94	2149
808.433	2139
808.925	2132
809.417	2132
809.91	2122
810.402	2074
810.894	2103
811.387	2107
811.879	2062
812.372	2059
812.865	2022
813.357	2013
813.85	2008
814.342	1987
814.835	1988
815.328	1983
815.821	1951
816.313	1942
816.806	1943
817.299	1932
817.792	1962
818.285	1945
818.778	1974
819.271	1964
819.764	1925
820.257	1920
820.75	1904
821.243	1895
821.736	1880
822.229	1904
822.722	1901
823.216	1940
