Data from lamp4helium_sterk_Subt2__77__177.txt Node

Date: Wed Apr 09 11:07:04 CEST 2025
User: fys-lab-0081
Spectrometer: S04999
Trigger mode: 0
Resolution mode: 1024 pixels
Integration Time (sec): 1.000000E-1
Scans to average: 1
Nonlinearity correction enabled: false
Boxcar width: 0
Baseline correction enabled: true
XAxis mode: Wavelengths
Number of Pixels in Spectrum: 1024
>>>>>Begin Spectral Data<<<<<
336.42	1
336.877	3
337.334	2
337.792	8
338.249	8
338.706	2
339.164	6
339.621	8
340.079	9
340.536	5
340.994	4
341.452	9
341.909	11
342.367	3
342.825	2
343.283	6
343.741	4
344.198	3
344.656	0
345.114	5
345.572	8
346.03	5
346.488	10
346.947	2
347.405	8
347.863	5
348.321	4
348.779	10
349.238	4
349.696	10
350.154	8
350.613	4
351.071	9
351.53	14
351.988	13
352.447	10
352.905	5
353.364	5
353.823	11
354.282	6
354.74	6
355.199	12
355.658	12
356.117	9
356.576	13
357.035	8
357.494	10
357.953	11
358.412	15
358.871	14
359.33	14
359.789	7
360.249	10
360.708	11
361.167	16
361.626	12
362.086	13
362.545	15
363.005	15
363.464	16
363.924	17
364.383	12
364.843	21
365.303	21
365.762	21
366.222	20
366.682	23
367.142	23
367.601	17
368.061	18
368.521	21
368.981	21
369.441	30
369.901	26
370.361	21
370.821	20
371.282	26
371.742	24
372.202	29
372.662	30
373.123	25
373.583	26
374.043	36
374.504	27
374.964	30
375.425	32
375.885	31
376.346	36
376.806	40
377.267	34
377.728	39
378.188	38
378.649	34
379.11	37
379.571	35
380.032	40
380.493	37
380.954	45
381.414	40
381.876	44
382.337	40
382.798	49
383.259	54
383.72	52
384.181	50
384.642	50
385.104	55
385.565	60
386.026	63
386.488	61
386.949	60
387.411	67
387.872	68
388.334	73
388.795	73
389.257	70
389.719	74
390.181	74
390.642	72
391.104	81
391.566	80
392.028	86
392.49	91
392.952	88
393.414	87
393.876	94
394.338	94
394.8	91
395.262	92
395.724	99
396.186	101
396.648	100
397.111	102
397.573	107
398.035	109
398.498	105
398.96	109
399.423	106
399.885	108
400.348	122
400.81	119
401.273	120
401.736	123
402.198	133
402.661	130
403.124	132
403.587	137
404.049	139
404.512	141
404.975	147
405.438	147
405.901	154
406.364	153
406.827	151
407.29	152
407.754	149
408.217	156
408.68	156
409.143	159
409.607	164
410.07	163
410.533	165
410.997	169
411.46	168
411.924	172
412.387	176
412.851	179
413.314	186
413.778	184
414.242	189
414.705	199
415.169	196
415.633	199
416.097	192
416.561	198
417.024	203
417.488	201
417.952	200
418.416	197
418.88	199
419.344	202
419.809	206
420.273	210
420.737	202
421.201	209
421.665	222
422.13	218
422.594	230
423.059	231
423.523	237
423.987	236
424.452	242
424.916	249
425.381	253
425.846	259
426.31	267
426.775	267
427.24	271
427.704	270
428.169	276
428.634	278
429.099	276
429.564	276
430.029	278
430.494	282
430.959	278
431.424	279
431.889	287
432.354	292
432.819	285
433.284	301
433.75	302
434.215	319
434.68	315
435.146	321
435.611	331
436.077	346
436.542	345
437.008	364
437.473	362
437.939	366
438.404	376
438.87	381
439.336	377
439.801	377
440.267	385
440.733	394
441.199	390
441.665	392
442.131	410
442.596	395
443.062	411
443.529	431
443.995	438
444.461	442
444.927	469
445.393	466
445.859	484
446.325	492
446.792	522
447.258	523
447.724	538
448.191	556
448.657	558
449.124	572
449.59	570
450.057	602
450.523	609
450.99	620
451.457	613
451.923	632
452.39	622
452.857	645
453.324	638
453.791	646
454.257	652
454.724	659
455.191	657
455.658	658
456.125	681
456.592	672
457.059	684
457.527	694
457.994	711
458.461	718
458.928	732
459.396	730
459.863	755
460.33	752
460.798	751
461.265	763
461.732	755
462.2	780
462.668	773
463.135	785
463.603	769
464.07	792
464.538	767
465.006	788
465.474	771
465.941	775
466.409	788
466.877	767
467.345	793
467.813	780
468.281	793
468.749	809
469.217	798
469.685	815
470.153	834
470.621	829
471.09	834
471.558	879
472.026	873
472.494	899
472.963	905
473.431	930
473.9	950
474.368	969
474.837	990
475.305	996
475.774	1015
476.242	1045
476.711	1047
477.18	1075
477.648	1067
478.117	1071
478.586	1072
479.055	1081
479.524	1086
479.993	1090
480.462	1081
480.93	1091
481.399	1089
481.869	1094
482.338	1082
482.807	1102
483.276	1092
483.745	1099
484.214	1135
484.684	1150
485.153	1155
485.622	1165
486.092	1200
486.561	1179
487.031	1224
487.5	1244
487.97	1257
488.439	1288
488.909	1320
489.378	1364
489.848	1367
490.318	1395
490.787	1454
491.257	1468
491.727	1476
492.197	1500
492.667	1505
493.137	1525
493.607	1531
494.077	1545
494.547	1530
495.017	1524
495.487	1544
495.957	1582
496.427	1552
496.897	1548
497.368	1576
497.838	1567
498.308	1594
498.779	1607
499.249	1615
499.719	1632
500.19	1658
500.66	1664
501.131	1665
501.602	1708
502.072	1694
502.543	1723
503.014	1780
503.484	1767
503.955	1826
504.426	1894
504.897	1900
505.368	1938
505.838	1989
506.309	2031
506.78	2100
507.251	2139
507.722	2183
508.194	2225
508.665	2255
509.136	2257
509.607	2331
510.078	2334
510.549	2366
511.021	2428
511.492	2424
511.964	2463
512.435	2491
512.906	2463
513.378	2491
513.849	2536
514.321	2556
514.793	2582
515.264	2618
515.736	2642
516.208	2693
516.679	2706
517.151	2724
517.623	2748
518.095	2805
518.567	2822
519.038	2868
519.51	2864
519.982	2897
520.454	2933
520.927	2988
521.399	3023
521.871	3064
522.343	3074
522.815	3084
523.287	3090
523.76	3112
524.232	3156
524.704	3179
525.177	3135
525.649	3146
526.122	3179
526.594	3115
527.067	3192
527.539	3231
528.012	3213
528.484	3202
528.957	3222
529.43	3221
529.903	3212
530.375	3319
530.848	3253
531.321	3293
531.794	3309
532.267	3374
532.74	3318
533.213	3323
533.686	3370
534.159	3366
534.632	3439
535.105	3434
535.578	3507
536.051	3506
536.525	3527
536.998	3534
537.471	3611
537.945	3565
538.418	3622
538.891	3633
539.365	3691
539.838	3698
540.312	3682
540.786	3713
541.259	3721
541.733	3775
542.206	3791
542.68	3728
543.154	3732
543.628	3752
544.101	3819
544.575	3754
545.049	3670
545.523	3737
545.997	3716
546.471	3755
546.945	3732
547.419	3792
547.893	3654
548.367	3738
548.842	3698
549.316	3714
549.79	3734
550.264	3718
550.739	3764
551.213	3771
551.687	3790
552.162	3803
552.636	3763
553.111	3771
553.585	3873
554.06	3821
554.534	3893
555.009	3878
555.484	3938
555.958	3983
556.433	3972
556.908	4041
557.383	4004
557.858	4091
558.333	4104
558.807	4080
559.282	4127
559.757	4233
560.232	4219
560.708	4144
561.183	4137
561.658	4212
562.133	4193
562.608	4157
563.083	4276
563.559	4183
564.034	4187
564.509	4190
564.985	4199
565.46	4168
565.936	4239
566.411	4222
566.887	4166
567.362	4201
567.838	4219
568.313	4247
568.789	4181
569.265	4192
569.74	4219
570.216	4186
570.692	4235
571.168	4235
571.644	4249
572.12	4244
572.596	4280
573.071	4285
573.547	4423
574.024	4482
574.5	4515
574.976	4517
575.452	4588
575.928	4639
576.404	4662
576.881	4793
577.357	4719
577.833	4757
578.31	4878
578.786	4918
579.262	4975
579.739	4908
580.215	5088
580.692	5100
581.169	5033
581.645	5037
582.122	5188
582.598	5173
583.075	5153
583.552	5179
584.029	5160
584.506	5153
584.982	5116
585.459	5210
585.936	5134
586.413	5205
586.89	5294
587.367	5259
587.844	5349
588.321	5297
588.799	5315
589.276	5264
589.753	5343
590.23	5373
590.707	5373
591.185	5392
591.662	5401
592.139	5471
592.617	5534
593.094	5503
593.572	5541
594.049	5578
594.527	5613
595.004	5634
595.482	5811
595.96	5757
596.437	5729
596.915	5860
597.393	5785
597.871	5932
598.349	5862
598.826	5973
599.304	5987
599.782	6103
600.26	6060
600.738	6195
601.216	6168
601.694	6204
602.173	6229
602.651	6253
603.129	6217
603.607	6258
604.085	6269
604.564	6299
605.042	6330
605.52	6284
605.999	6414
606.477	6241
606.956	6264
607.434	6338
607.913	6412
608.391	6392
608.87	6330
609.348	6248
609.827	6287
610.306	6326
610.785	6335
611.263	6331
611.742	6287
612.221	6199
612.7	6282
613.179	6336
613.658	6236
614.137	6337
614.616	6411
615.095	6316
615.574	6388
616.053	6419
616.532	6373
617.011	6386
617.491	6425
617.97	6413
618.449	6475
618.928	6529
619.408	6469
619.887	6520
620.367	6573
620.846	6632
621.326	6574
621.805	6717
622.285	6717
622.764	6795
623.244	6803
623.724	6823
624.203	6880
624.683	6756
625.163	6882
625.643	6860
626.123	6798
626.602	6968
627.082	6834
627.562	6793
628.042	6933
628.522	6881
629.002	6832
629.482	6866
629.963	6860
630.443	6789
630.923	6790
631.403	6849
631.883	6833
632.364	6862
632.844	6834
633.324	6842
633.805	6822
634.285	6727
634.766	6699
635.246	6718
635.727	6733
636.207	6757
636.688	6722
637.168	6692
637.649	6668
638.13	6676
638.611	6739
639.091	6710
639.572	6655
640.053	6617
640.534	6658
641.015	6641
641.496	6561
641.977	6665
642.458	6607
642.939	6626
643.42	6621
643.901	6636
644.382	6715
644.863	6708
645.345	6683
645.826	6690
646.307	6678
646.788	6793
647.27	6698
647.751	6709
648.233	6766
648.714	6590
649.196	6767
649.677	6720
650.159	6732
650.64	6670
651.122	6777
651.603	6675
652.085	6748
652.567	6797
653.049	6741
653.53	6744
654.012	6843
654.494	6733
654.976	6806
655.458	6778
655.94	6757
656.422	6853
656.904	6712
657.386	6621
657.868	6620
658.35	6582
658.833	6620
659.315	6654
659.797	6540
660.279	6530
660.762	6559
661.244	6478
661.726	6442
662.209	6461
662.691	6465
663.174	6353
663.656	6373
664.139	6392
664.621	6342
665.104	6298
665.587	6371
666.069	6407
666.552	6400
667.035	6307
667.517	6341
668	6421
668.483	6407
668.966	6352
669.449	6310
669.932	6317
670.415	6373
670.898	6336
671.381	6359
671.864	6371
672.347	6258
672.83	6274
673.313	6266
673.797	6260
674.28	6371
674.763	6386
675.247	6384
675.73	6320
676.213	6359
676.697	6429
677.18	6441
677.664	6450
678.147	6438
678.631	6482
679.114	6561
679.598	6565
680.082	6614
680.565	6591
681.049	6569
681.533	6550
682.017	6588
682.5	6562
682.984	6578
683.468	6574
683.952	6475
684.436	6616
684.92	6548
685.404	6586
685.888	6604
686.372	6533
686.856	6548
687.341	6596
687.825	6498
688.309	6526
688.793	6546
689.278	6487
689.762	6540
690.246	6492
690.731	6475
691.215	6510
691.7	6340
692.184	6442
692.669	6409
693.153	6422
693.638	6296
694.122	6333
694.607	6395
695.092	6315
695.577	6378
696.061	6260
696.546	6297
697.031	6249
697.516	6307
698.001	6321
698.486	6286
698.971	6364
699.456	6186
699.941	6187
700.426	6169
700.911	6238
701.396	6217
701.881	6248
702.366	6198
702.852	6187
703.337	6180
703.822	6141
704.308	6152
704.793	6189
705.278	6198
705.764	6204
706.249	6162
706.735	6152
707.22	6201
707.706	6124
708.191	6193
708.677	6194
709.163	6143
709.648	6160
710.134	6271
710.62	6237
711.106	6233
711.592	6292
712.077	6232
712.563	6052
713.049	6044
713.535	6193
714.021	6176
714.507	6157
714.993	6069
715.479	6099
715.966	6026
716.452	6057
716.938	6078
717.424	5871
717.91	5989
718.397	5930
718.883	5890
719.369	5916
719.856	5846
720.342	5917
720.829	5827
721.315	5841
721.802	5797
722.288	5832
722.775	5599
723.262	5456
723.748	5683
724.235	5675
724.722	5754
725.208	5616
725.695	5621
726.182	5604
726.669	5560
727.156	5632
727.643	5582
728.13	5551
728.617	5466
729.104	5476
729.591	5442
730.078	5481
730.565	5476
731.052	5389
731.539	5414
732.027	5371
732.514	5290
733.001	5330
733.488	5304
733.976	5297
734.463	5275
734.951	5254
735.438	5305
735.926	5235
736.413	5277
736.901	5234
737.388	5282
737.876	5252
738.364	5214
738.851	5249
739.339	5272
739.827	5317
740.314	5127
740.802	5148
741.29	5162
741.778	5104
742.266	5108
742.754	5116
743.242	5181
743.73	5095
744.218	5081
744.706	5024
745.194	5102
745.682	5086
746.17	5093
746.659	5092
747.147	4969
747.635	4964
748.123	4954
748.612	4878
749.1	4819
749.589	4845
750.077	4834
750.566	4819
751.054	4849
751.543	4865
752.031	4754
752.52	4719
753.008	4626
753.497	4639
753.986	4651
754.474	4642
754.963	4689
755.452	4583
755.941	4542
756.43	4536
756.919	4517
757.408	4464
757.896	4497
758.385	4529
758.875	4491
759.364	4433
759.853	4385
760.342	4311
760.831	4397
761.32	4370
761.809	4295
762.299	4317
762.788	4329
763.277	4341
763.767	4287
764.256	4300
764.745	4246
765.235	4307
765.724	4184
766.214	4243
766.703	4194
767.193	4122
767.683	4112
768.172	4030
768.662	4059
769.152	4041
769.641	4044
770.131	3925
770.621	3966
771.111	3919
771.601	3902
772.09	3856
772.58	3808
773.07	3823
773.56	3830
774.05	3750
774.54	3724
775.031	3696
775.521	3689
776.011	3699
776.501	3729
776.991	3639
777.482	3672
777.972	3581
778.462	3579
778.953	3600
779.443	3588
779.933	3576
780.424	3549
780.914	3585
781.405	3612
781.895	3575
782.386	3578
782.877	3554
783.367	3494
783.858	3464
784.349	3458
784.839	3426
785.33	3448
785.821	3436
786.312	3414
786.803	3434
787.293	3440
787.784	3387
788.275	3341
788.766	3315
789.257	3370
789.748	3275
790.24	3242
790.731	3248
791.222	3191
791.713	3168
792.204	3181
792.696	3099
793.187	3121
793.678	3087
794.169	2992
794.661	3024
795.152	2962
795.644	2947
796.135	2938
796.627	2960
797.118	2896
797.61	2883
798.101	2841
798.593	2866
799.085	2819
799.576	2840
800.068	2813
800.56	2833
801.052	2772
801.544	2767
802.035	2767
802.527	2723
803.019	2693
803.511	2673
804.003	2647
804.495	2668
804.987	2650
805.479	2594
805.971	2613
806.464	2615
806.956	2552
807.448	2536
807.94	2540
808.433	2528
808.925	2510
809.417	2486
809.91	2484
810.402	2413
810.894	2427
811.387	2465
811.879	2424
812.372	2431
812.865	2392
813.357	2375
813.85	2367
814.342	2348
814.835	2341
815.328	2333
815.821	2298
816.313	2295
816.806	2300
817.299	2264
817.792	2274
818.285	2239
818.778	2273
819.271	2256
819.764	2234
820.257	2237
820.75	2238
821.243	2235
821.736	2214
822.229	2230
822.722	2210
823.216	2257
