Data from lamp4helium_sterk_Subt2__79__179.txt Node

Date: Wed Apr 09 11:07:04 CEST 2025
User: fys-lab-0081
Spectrometer: S04999
Trigger mode: 0
Resolution mode: 1024 pixels
Integration Time (sec): 1.000000E-1
Scans to average: 1
Nonlinearity correction enabled: false
Boxcar width: 0
Baseline correction enabled: true
XAxis mode: Wavelengths
Number of Pixels in Spectrum: 1024
>>>>>Begin Spectral Data<<<<<
336.42	5
336.877	3
337.334	3
337.792	5
338.249	4
338.706	4
339.164	3
339.621	3
340.079	8
340.536	10
340.994	5
341.452	7
341.909	8
342.367	4
342.825	2
343.283	6
343.741	6
344.198	4
344.656	5
345.114	0
345.572	8
346.03	2
346.488	6
346.947	2
347.405	11
347.863	3
348.321	2
348.779	10
349.238	3
349.696	5
350.154	6
350.613	8
351.071	6
351.53	15
351.988	13
352.447	8
352.905	3
353.364	8
353.823	9
354.282	11
354.74	5
355.199	11
355.658	13
356.117	9
356.576	10
357.035	11
357.494	11
357.953	8
358.412	12
358.871	13
359.33	11
359.789	9
360.249	14
360.708	13
361.167	16
361.626	15
362.086	13
362.545	13
363.005	14
363.464	16
363.924	17
364.383	16
364.843	22
365.303	19
365.762	25
366.222	16
366.682	16
367.142	21
367.601	19
368.061	19
368.521	23
368.981	22
369.441	28
369.901	25
370.361	21
370.821	23
371.282	26
371.742	25
372.202	29
372.662	31
373.123	23
373.583	26
374.043	34
374.504	23
374.964	29
375.425	30
375.885	29
376.346	36
376.806	38
377.267	35
377.728	33
378.188	38
378.649	35
379.11	39
379.571	33
380.032	41
380.493	39
380.954	42
381.414	42
381.876	45
382.337	39
382.798	47
383.259	49
383.72	48
384.181	48
384.642	49
385.104	51
385.565	61
386.026	63
386.488	62
386.949	62
387.411	66
387.872	70
388.334	69
388.795	74
389.257	73
389.719	72
390.181	79
390.642	75
391.104	73
391.566	82
392.028	82
392.49	89
392.952	91
393.414	89
393.876	92
394.338	88
394.8	93
395.262	92
395.724	98
396.186	102
396.648	103
397.111	107
397.573	106
398.035	105
398.498	107
398.96	113
399.423	110
399.885	112
400.348	116
400.81	120
401.273	119
401.736	119
402.198	132
402.661	135
403.124	131
403.587	140
404.049	140
404.512	140
404.975	145
405.438	150
405.901	152
406.364	150
406.827	151
407.29	153
407.754	152
408.217	151
408.68	152
409.143	163
409.607	168
410.07	163
410.533	163
410.997	170
411.46	172
411.924	175
412.387	174
412.851	179
413.314	185
413.778	182
414.242	186
414.705	197
415.169	197
415.633	195
416.097	192
416.561	196
417.024	201
417.488	198
417.952	199
418.416	198
418.88	193
419.344	198
419.809	211
420.273	213
420.737	204
421.201	212
421.665	221
422.13	223
422.594	228
423.059	230
423.523	236
423.987	236
424.452	250
424.916	249
425.381	259
425.846	259
426.31	270
426.775	270
427.24	271
427.704	271
428.169	272
428.634	277
429.099	275
429.564	276
430.029	275
430.494	272
430.959	275
431.424	274
431.889	288
432.354	294
432.819	284
433.284	302
433.75	307
434.215	315
434.68	314
435.146	323
435.611	328
436.077	343
436.542	343
437.008	358
437.473	365
437.939	366
438.404	378
438.87	381
439.336	376
439.801	379
440.267	388
440.733	393
441.199	391
441.665	394
442.131	412
442.596	401
443.062	413
443.529	433
443.995	435
444.461	438
444.927	461
445.393	467
445.859	487
446.325	493
446.792	527
447.258	521
447.724	536
448.191	562
448.657	562
449.124	573
449.59	568
450.057	606
450.523	608
450.99	622
451.457	613
451.923	634
452.39	625
452.857	647
453.324	634
453.791	643
454.257	645
454.724	661
455.191	662
455.658	661
456.125	682
456.592	668
457.059	687
457.527	696
457.994	715
458.461	715
458.928	734
459.396	734
459.863	753
460.33	746
460.798	748
461.265	767
461.732	759
462.2	777
462.668	772
463.135	788
463.603	761
464.07	793
464.538	764
465.006	789
465.474	770
465.941	776
466.409	790
466.877	766
467.345	789
467.813	777
468.281	794
468.749	809
469.217	802
469.685	817
470.153	835
470.621	825
471.09	827
471.558	876
472.026	870
472.494	897
472.963	907
473.431	933
473.9	952
474.368	974
474.837	984
475.305	998
475.774	1015
476.242	1043
476.711	1046
477.18	1073
477.648	1061
478.117	1072
478.586	1076
479.055	1081
479.524	1090
479.993	1090
480.462	1079
480.93	1085
481.399	1086
481.869	1094
482.338	1084
482.807	1113
483.276	1097
483.745	1099
484.214	1134
484.684	1153
485.153	1158
485.622	1165
486.092	1206
486.561	1178
487.031	1222
487.5	1245
487.97	1249
488.439	1284
488.909	1315
489.378	1361
489.848	1369
490.318	1396
490.787	1457
491.257	1475
491.727	1478
492.197	1495
492.667	1498
493.137	1527
493.607	1530
494.077	1548
494.547	1529
495.017	1523
495.487	1548
495.957	1587
496.427	1553
496.897	1548
497.368	1575
497.838	1563
498.308	1586
498.779	1604
499.249	1617
499.719	1633
500.19	1653
500.66	1668
501.131	1670
501.602	1702
502.072	1695
502.543	1728
503.014	1783
503.484	1779
503.955	1826
504.426	1893
504.897	1902
505.368	1938
505.838	1996
506.309	2035
506.78	2103
507.251	2138
507.722	2182
508.194	2227
508.665	2265
509.136	2257
509.607	2331
510.078	2342
510.549	2366
511.021	2429
511.492	2421
511.964	2455
512.435	2493
512.906	2468
513.378	2485
513.849	2540
514.321	2552
514.793	2572
515.264	2620
515.736	2645
516.208	2691
516.679	2711
517.151	2727
517.623	2755
518.095	2800
518.567	2816
519.038	2877
519.51	2867
519.982	2891
520.454	2932
520.927	2988
521.399	3036
521.871	3061
522.343	3068
522.815	3091
523.287	3088
523.76	3106
524.232	3159
524.704	3178
525.177	3132
525.649	3151
526.122	3185
526.594	3115
527.067	3189
527.539	3223
528.012	3220
528.484	3203
528.957	3219
529.43	3213
529.903	3204
530.375	3322
530.848	3261
531.321	3290
531.794	3307
532.267	3379
532.74	3312
533.213	3316
533.686	3374
534.159	3356
534.632	3433
535.105	3432
535.578	3505
536.051	3510
536.525	3531
536.998	3526
537.471	3622
537.945	3563
538.418	3618
538.891	3632
539.365	3684
539.838	3709
540.312	3689
540.786	3712
541.259	3726
541.733	3786
542.206	3793
542.68	3728
543.154	3736
543.628	3757
544.101	3815
544.575	3765
545.049	3668
545.523	3743
545.997	3718
546.471	3753
546.945	3732
547.419	3789
547.893	3667
548.367	3734
548.842	3696
549.316	3719
549.79	3738
550.264	3714
550.739	3769
551.213	3779
551.687	3777
552.162	3796
552.636	3766
553.111	3775
553.585	3875
554.06	3828
554.534	3892
555.009	3882
555.484	3933
555.958	3980
556.433	3980
556.908	4042
557.383	4010
557.858	4096
558.333	4096
558.807	4082
559.282	4134
559.757	4243
560.232	4216
560.708	4143
561.183	4138
561.658	4212
562.133	4196
562.608	4153
563.083	4270
563.559	4175
564.034	4179
564.509	4187
564.985	4200
565.46	4152
565.936	4231
566.411	4222
566.887	4166
567.362	4202
567.838	4214
568.313	4253
568.789	4195
569.265	4190
569.74	4223
570.216	4169
570.692	4239
571.168	4224
571.644	4244
572.12	4249
572.596	4271
573.071	4283
573.547	4430
574.024	4483
574.5	4514
574.976	4526
575.452	4595
575.928	4651
576.404	4666
576.881	4801
577.357	4713
577.833	4754
578.31	4879
578.786	4922
579.262	4982
579.739	4920
580.215	5083
580.692	5100
581.169	5034
581.645	5047
582.122	5184
582.598	5176
583.075	5163
583.552	5172
584.029	5158
584.506	5149
584.982	5116
585.459	5222
585.936	5127
586.413	5204
586.89	5304
587.367	5254
587.844	5349
588.321	5296
588.799	5315
589.276	5261
589.753	5340
590.23	5366
590.707	5371
591.185	5390
591.662	5403
592.139	5467
592.617	5530
593.094	5501
593.572	5538
594.049	5580
594.527	5617
595.004	5643
595.482	5808
595.96	5755
596.437	5723
596.915	5851
597.393	5780
597.871	5931
598.349	5872
598.826	5974
599.304	5987
599.782	6112
600.26	6067
600.738	6204
601.216	6173
601.694	6203
602.173	6223
602.651	6264
603.129	6217
603.607	6251
604.085	6272
604.564	6304
605.042	6344
605.52	6283
605.999	6413
606.477	6230
606.956	6269
607.434	6345
607.913	6421
608.391	6395
608.87	6333
609.348	6240
609.827	6282
610.306	6327
610.785	6333
611.263	6322
611.742	6282
612.221	6193
612.7	6297
613.179	6330
613.658	6248
614.137	6342
614.616	6412
615.095	6305
615.574	6394
616.053	6421
616.532	6384
617.011	6379
617.491	6426
617.97	6399
618.449	6475
618.928	6526
619.408	6466
619.887	6525
620.367	6568
620.846	6623
621.326	6573
621.805	6714
622.285	6733
622.764	6800
623.244	6795
623.724	6837
624.203	6876
624.683	6749
625.163	6888
625.643	6864
626.123	6794
626.602	6968
627.082	6824
627.562	6814
628.042	6927
628.522	6877
629.002	6834
629.482	6871
629.963	6871
630.443	6791
630.923	6799
631.403	6843
631.883	6830
632.364	6873
632.844	6836
633.324	6840
633.805	6831
634.285	6731
634.766	6701
635.246	6718
635.727	6744
636.207	6763
636.688	6720
637.168	6694
637.649	6668
638.13	6681
638.611	6744
639.091	6711
639.572	6665
640.053	6613
640.534	6659
641.015	6639
641.496	6556
641.977	6679
642.458	6597
642.939	6629
643.42	6642
643.901	6642
644.382	6729
644.863	6712
645.345	6689
645.826	6687
646.307	6678
646.788	6790
647.27	6698
647.751	6708
648.233	6762
648.714	6605
649.196	6763
649.677	6720
650.159	6731
650.64	6662
651.122	6794
651.603	6677
652.085	6752
652.567	6801
653.049	6751
653.53	6747
654.012	6845
654.494	6732
654.976	6821
655.458	6777
655.94	6748
656.422	6852
656.904	6707
657.386	6616
657.868	6623
658.35	6592
658.833	6631
659.315	6651
659.797	6541
660.279	6535
660.762	6557
661.244	6488
661.726	6441
662.209	6470
662.691	6464
663.174	6330
663.656	6374
664.139	6396
664.621	6348
665.104	6295
665.587	6376
666.069	6412
666.552	6393
667.035	6319
667.517	6351
668	6414
668.483	6399
668.966	6352
669.449	6315
669.932	6322
670.415	6369
670.898	6334
671.381	6365
671.864	6365
672.347	6268
672.83	6265
673.313	6278
673.797	6260
674.28	6387
674.763	6380
675.247	6383
675.73	6319
676.213	6355
676.697	6440
677.18	6436
677.664	6451
678.147	6445
678.631	6492
679.114	6563
679.598	6560
680.082	6619
680.565	6598
681.049	6574
681.533	6546
682.017	6583
682.5	6561
682.984	6587
683.468	6576
683.952	6476
684.436	6618
684.92	6550
685.404	6588
685.888	6609
686.372	6537
686.856	6549
687.341	6601
687.825	6506
688.309	6531
688.793	6538
689.278	6478
689.762	6547
690.246	6497
690.731	6489
691.215	6510
691.7	6336
692.184	6446
692.669	6408
693.153	6416
693.638	6308
694.122	6320
694.607	6397
695.092	6308
695.577	6368
696.061	6264
696.546	6287
697.031	6254
697.516	6316
698.001	6320
698.486	6298
698.971	6369
699.456	6194
699.941	6174
700.426	6167
700.911	6247
701.396	6225
701.881	6250
702.366	6199
702.852	6184
703.337	6186
703.822	6148
704.308	6152
704.793	6167
705.278	6183
705.764	6220
706.249	6158
706.735	6146
707.22	6213
707.706	6120
708.191	6206
708.677	6195
709.163	6136
709.648	6155
710.134	6269
710.62	6238
711.106	6238
711.592	6297
712.077	6228
712.563	6056
713.049	6044
713.535	6183
714.021	6184
714.507	6147
714.993	6069
715.479	6105
715.966	6025
716.452	6058
716.938	6077
717.424	5874
717.91	5992
718.397	5928
718.883	5894
719.369	5920
719.856	5843
720.342	5917
720.829	5827
721.315	5857
721.802	5797
722.288	5823
722.775	5599
723.262	5453
723.748	5687
724.235	5667
724.722	5751
725.208	5628
725.695	5617
726.182	5616
726.669	5563
727.156	5624
727.643	5585
728.13	5550
728.617	5473
729.104	5480
729.591	5442
730.078	5484
730.565	5472
731.052	5402
731.539	5413
732.027	5362
732.514	5292
733.001	5327
733.488	5294
733.976	5293
734.463	5268
734.951	5259
735.438	5307
735.926	5238
736.413	5281
736.901	5237
737.388	5273
737.876	5259
738.364	5224
738.851	5253
739.339	5264
739.827	5309
740.314	5120
740.802	5150
741.29	5161
741.778	5102
742.266	5108
742.754	5126
743.242	5187
743.73	5101
744.218	5082
744.706	5029
745.194	5099
745.682	5088
746.17	5100
746.659	5099
747.147	4962
747.635	4981
748.123	4953
748.612	4873
749.1	4816
749.589	4846
750.077	4842
750.566	4826
751.054	4854
751.543	4865
752.031	4752
752.52	4716
753.008	4627
753.497	4636
753.986	4645
754.474	4657
754.963	4686
755.452	4576
755.941	4544
756.43	4531
756.919	4511
757.408	4467
757.896	4499
758.385	4535
758.875	4478
759.364	4439
759.853	4399
760.342	4325
760.831	4408
761.32	4369
761.809	4298
762.299	4316
762.788	4339
763.277	4345
763.767	4295
764.256	4302
764.745	4245
765.235	4303
765.724	4174
766.214	4247
766.703	4198
767.193	4120
767.683	4115
768.172	4023
768.662	4072
769.152	4039
769.641	4046
770.131	3922
770.621	3981
771.111	3927
771.601	3906
772.09	3863
772.58	3811
773.07	3821
773.56	3842
774.05	3756
774.54	3722
775.031	3702
775.521	3674
776.011	3693
776.501	3734
776.991	3638
777.482	3669
777.972	3589
778.462	3587
778.953	3594
779.443	3578
779.933	3578
780.424	3550
780.914	3592
781.405	3594
781.895	3571
782.386	3575
782.877	3547
783.367	3493
783.858	3462
784.349	3460
784.839	3424
785.33	3450
785.821	3436
786.312	3419
786.803	3430
787.293	3429
787.784	3386
788.275	3342
788.766	3308
789.257	3365
789.748	3279
790.24	3238
790.731	3248
791.222	3181
791.713	3169
792.204	3189
792.696	3095
793.187	3115
793.678	3080
794.169	2988
794.661	3025
795.152	2975
795.644	2949
796.135	2948
796.627	2954
797.118	2910
797.61	2872
798.101	2844
798.593	2872
799.085	2822
799.576	2841
800.068	2812
800.56	2833
801.052	2773
801.544	2769
802.035	2766
802.527	2719
803.019	2690
803.511	2668
804.003	2657
804.495	2667
804.987	2651
805.479	2599
805.971	2612
806.464	2610
806.956	2553
807.448	2535
807.94	2539
808.433	2528
808.925	2502
809.417	2484
809.91	2477
810.402	2413
810.894	2435
811.387	2460
811.879	2422
812.372	2435
812.865	2390
813.357	2380
813.85	2368
814.342	2340
814.835	2351
815.328	2332
815.821	2305
816.313	2290
816.806	2298
817.299	2272
817.792	2280
818.285	2238
818.778	2265
819.271	2264
819.764	2235
820.257	2239
820.75	2238
821.243	2242
821.736	2204
822.229	2232
822.722	2211
823.216	2257
