Data from lamp4helium_sterk_Subt2__18__118.txt Node

Date: Wed Apr 09 11:06:56 CEST 2025
User: fys-lab-0081
Spectrometer: S04999
Trigger mode: 0
Resolution mode: 1024 pixels
Integration Time (sec): 1.000000E-1
Scans to average: 1
Nonlinearity correction enabled: false
Boxcar width: 0
Baseline correction enabled: true
XAxis mode: Wavelengths
Number of Pixels in Spectrum: 1024
>>>>>Begin Spectral Data<<<<<
336.42	0
336.877	4
337.334	5
337.792	2
338.249	6
338.706	5
339.164	4
339.621	6
340.079	1
340.536	9
340.994	7
341.452	7
341.909	12
342.367	4
342.825	2
343.283	5
343.741	6
344.198	3
344.656	3
345.114	4
345.572	9
346.03	4
346.488	6
346.947	4
347.405	7
347.863	5
348.321	6
348.779	9
349.238	1
349.696	11
350.154	5
350.613	6
351.071	6
351.53	14
351.988	12
352.447	10
352.905	5
353.364	6
353.823	8
354.282	9
354.74	1
355.199	12
355.658	15
356.117	7
356.576	14
357.035	8
357.494	13
357.953	8
358.412	16
358.871	13
359.33	11
359.789	7
360.249	18
360.708	13
361.167	16
361.626	14
362.086	13
362.545	17
363.005	17
363.464	14
363.924	18
364.383	19
364.843	24
365.303	22
365.762	24
366.222	19
366.682	20
367.142	21
367.601	20
368.061	17
368.521	23
368.981	22
369.441	27
369.901	28
370.361	22
370.821	22
371.282	25
371.742	26
372.202	28
372.662	30
373.123	27
373.583	24
374.043	31
374.504	29
374.964	32
375.425	31
375.885	33
376.346	35
376.806	40
377.267	32
377.728	38
378.188	41
378.649	35
379.11	39
379.571	34
380.032	40
380.493	40
380.954	43
381.414	42
381.876	45
382.337	42
382.798	47
383.259	50
383.72	53
384.181	48
384.642	56
385.104	56
385.565	55
386.026	64
386.488	63
386.949	63
387.411	66
387.872	69
388.334	69
388.795	71
389.257	75
389.719	71
390.181	74
390.642	78
391.104	83
391.566	83
392.028	82
392.49	92
392.952	92
393.414	91
393.876	93
394.338	96
394.8	95
395.262	93
395.724	103
396.186	104
396.648	102
397.111	107
397.573	108
398.035	107
398.498	108
398.96	112
399.423	112
399.885	113
400.348	120
400.81	125
401.273	121
401.736	121
402.198	135
402.661	136
403.124	131
403.587	143
404.049	143.5
404.512	144
404.975	148
405.438	150
405.901	155
406.364	154
406.827	150
407.29	157
407.754	155
408.217	157
408.68	156
409.143	161
409.607	170
410.07	161
410.533	165
410.997	167
411.46	172
411.924	176
412.387	177
412.851	179
413.314	185
413.778	182
414.242	185
414.705	204
415.169	195
415.633	199
416.097	199
416.561	201
417.024	207
417.488	199
417.952	209
418.416	200
418.88	201
419.344	198
419.809	205
420.273	210
420.737	213
421.201	216
421.665	224
422.13	223
422.594	235
423.059	230
423.523	238
423.987	239
424.452	247
424.916	252
425.381	260
425.846	258
426.31	270
426.775	270
427.24	272
427.704	269
428.169	274
428.634	277
429.099	277
429.564	276
430.029	280
430.494	277
430.959	285
431.424	283
431.889	292
432.354	297
432.819	288
433.284	307
433.75	309
434.215	319
434.68	318
435.146	324
435.611	337
436.077	348
436.542	347
437.008	363
437.473	367
437.939	370
438.404	378
438.87	387
439.336	381
439.801	379
440.267	390
440.733	399
441.199	394
441.665	401
442.131	413
442.596	404
443.062	413
443.529	434
443.995	444
444.461	450
444.927	465
445.393	473
445.859	490
446.325	502
446.792	531
447.258	528
447.724	546
448.191	563
448.657	564
449.124	580
449.59	577
450.057	611
450.523	617
450.99	629
451.457	623
451.923	639
452.39	634
452.857	652
453.324	637
453.791	653
454.257	652
454.724	665
455.191	669
455.658	669
456.125	690
456.592	680
457.059	688
457.527	700
457.994	719
458.461	728
458.928	737
459.396	738
459.863	766
460.33	758
460.798	758
461.265	776
461.732	765
462.2	788
462.668	778
463.135	786
463.603	767
464.07	801
464.538	776
465.006	796
465.474	783
465.941	787
466.409	792
466.877	770
467.345	798
467.813	788
468.281	801
468.749	814
469.217	814
469.685	823
470.153	842
470.621	833
471.09	840
471.558	885
472.026	883
472.494	909
472.963	914
473.431	933
473.9	960
474.368	981
474.837	995
475.305	1001
475.774	1023
476.242	1057
476.711	1052
477.18	1080
477.648	1076
478.117	1085
478.586	1085
479.055	1089
479.524	1099
479.993	1097
480.462	1093
480.93	1095
481.399	1096
481.869	1106
482.338	1093
482.807	1118
483.276	1108
483.745	1107
484.214	1144
484.684	1166
485.153	1167
485.622	1176
486.092	1212
486.561	1186
487.031	1228
487.5	1259
487.97	1267
488.439	1297
488.909	1327
489.378	1381
489.848	1382
490.318	1403
490.787	1468
491.257	1487
491.727	1489
492.197	1513
492.667	1521
493.137	1536
493.607	1543
494.077	1560
494.547	1549
495.017	1537
495.487	1564
495.957	1599
496.427	1571
496.897	1562
497.368	1584
497.838	1576
498.308	1612
498.779	1628
499.249	1630
499.719	1645
500.19	1669
500.66	1674
501.131	1682
501.602	1718
502.072	1710
502.543	1740
503.014	1801
503.484	1787
503.955	1845
504.426	1911
504.897	1924
505.368	1956
505.838	2006
506.309	2048
506.78	2120
507.251	2158
507.722	2199
508.194	2251
508.665	2278
509.136	2286
509.607	2348
510.078	2365
510.549	2382
511.021	2445
511.492	2447
511.964	2482
512.435	2514
512.906	2493
513.378	2507
513.849	2564
514.321	2575
514.793	2595
515.264	2645
515.736	2668
516.208	2714
516.679	2727
517.151	2751
517.623	2780
518.095	2826
518.567	2845
519.038	2894
519.51	2889
519.982	2924
520.454	2961
520.927	3013
521.399	3055
521.871	3092
522.343	3089
522.815	3118
523.287	3118
523.76	3135
524.232	3182
524.704	3204
525.177	3156
525.649	3179
526.122	3216
526.594	3138
527.067	3224
527.539	3248
528.012	3247
528.484	3229
528.957	3244
529.43	3247
529.903	3233
530.375	3350
530.848	3280
531.321	3332
531.794	3328
532.267	3405
532.74	3349
533.213	3352
533.686	3397
534.159	3394
534.632	3462
535.105	3462
535.578	3535
536.051	3543
536.525	3565
536.998	3556
537.471	3642
537.945	3596
538.418	3646
538.891	3666
539.365	3715
539.838	3740
540.312	3717
540.786	3746
541.259	3758
541.733	3815
542.206	3828
542.68	3760
543.154	3765
543.628	3792
544.101	3849
544.575	3796
545.049	3707
545.523	3768
545.997	3754
546.471	3781
546.945	3759
547.419	3824
547.893	3695
548.367	3772
548.842	3727
549.316	3750
549.79	3764
550.264	3740
550.739	3793
551.213	3815
551.687	3818
552.162	3837
552.636	3788
553.111	3801
553.585	3906
554.06	3852
554.534	3918
555.009	3910
555.484	3974
555.958	4004
556.433	4007
556.908	4076
557.383	4037
557.858	4129
558.333	4137
558.807	4122
559.282	4167
559.757	4273
560.232	4270
560.708	4183
561.183	4167
561.658	4242
562.133	4228
562.608	4200
563.083	4300
563.559	4217
564.034	4228
564.509	4221
564.985	4239
565.46	4193
565.936	4273
566.411	4259
566.887	4203
567.362	4231
567.838	4242
568.313	4291
568.789	4222
569.265	4229
569.74	4254
570.216	4214
570.692	4272
571.168	4282
571.644	4291
572.12	4284
572.596	4312
573.071	4330
573.547	4461
574.024	4521
574.5	4549
574.976	4567
575.452	4629
575.928	4696
576.404	4703
576.881	4833
577.357	4756
577.833	4794
578.31	4924
578.786	4955
579.262	5025
579.739	4955
580.215	5120
580.692	5139
581.169	5071
581.645	5078
582.122	5223
582.598	5222
583.075	5197
583.552	5216
584.029	5196
584.506	5187
584.982	5145
585.459	5254
585.936	5180
586.413	5241
586.89	5339
587.367	5296
587.844	5392
588.321	5343
588.799	5357
589.276	5308
589.753	5382
590.23	5418
590.707	5419
591.185	5421
591.662	5456
592.139	5510
592.617	5574
593.094	5554
593.572	5587
594.049	5628
594.527	5664
595.004	5677
595.482	5870
595.96	5811
596.437	5768
596.915	5910
597.393	5821
597.871	5977
598.349	5914
598.826	6026
599.304	6030
599.782	6159
600.26	6117
600.738	6243
601.216	6210
601.694	6238
602.173	6283
602.651	6315
603.129	6267
603.607	6319
604.085	6323
604.564	6346
605.042	6384
605.52	6333
605.999	6458
606.477	6282
606.956	6330
607.434	6397.5
607.913	6465
608.391	6443
608.87	6387
609.348	6305
609.827	6332
610.306	6373
610.785	6378
611.263	6384
611.742	6335
612.221	6250
612.7	6330
613.179	6383
613.658	6301
614.137	6394
614.616	6453
615.095	6355
615.574	6443
616.053	6470
616.532	6415
617.011	6430
617.491	6475
617.97	6447
618.449	6520
618.928	6585
619.408	6525
619.887	6583
620.367	6619
620.846	6690
621.326	6619
621.805	6769
622.285	6774
622.764	6852
623.244	6849
623.724	6875
624.203	6927
624.683	6804
625.163	6941
625.643	6909
626.123	6852
626.602	7014
627.082	6877
627.562	6863
628.042	6979
628.522	6931
629.002	6889
629.482	6922
629.963	6919
630.443	6844
630.923	6847
631.403	6903
631.883	6886
632.364	6925
632.844	6883
633.324	6893
633.805	6877
634.285	6779
634.766	6748
635.246	6767
635.727	6788
636.207	6812
636.688	6780
637.168	6737
637.649	6716
638.13	6729
638.611	6799
639.091	6769
639.572	6718
640.053	6655
640.534	6716
641.015	6696
641.496	6599
641.977	6721
642.458	6652
642.939	6673
643.42	6680
643.901	6693
644.382	6781
644.863	6758
645.345	6750
645.826	6741
646.307	6740
646.788	6841
647.27	6736
647.751	6761
648.233	6804
648.714	6651
649.196	6814
649.677	6772
650.159	6785
650.64	6708
651.122	6822
651.603	6741
652.085	6792
652.567	6854
653.049	6794
653.53	6783
654.012	6897
654.494	6787
654.976	6872
655.458	6822
655.94	6808
656.422	6901
656.904	6765
657.386	6675
657.868	6669
658.35	6641
658.833	6687
659.315	6676
659.797	6586
660.279	6580
660.762	6602
661.244	6530
661.726	6499
662.209	6507
662.691	6510
663.174	6376
663.656	6429
664.139	6435
664.621	6386
665.104	6345
665.587	6433
666.069	6462
666.552	6434
667.035	6357
667.517	6403
668	6468
668.483	6452
668.966	6395
669.449	6362
669.932	6369
670.415	6425
670.898	6385
671.381	6397
671.864	6408
672.347	6311
672.83	6312
673.313	6324
673.797	6309
674.28	6418
674.763	6420
675.247	6433
675.73	6358
676.213	6410
676.697	6473
677.18	6490
677.664	6500
678.147	6490
678.631	6545
679.114	6615
679.598	6602
680.082	6656
680.565	6641
681.049	6625
681.533	6591
682.017	6628
682.5	6623
682.984	6624
683.468	6624
683.952	6524
684.436	6661
684.92	6600
685.404	6642
685.888	6655
686.372	6577
686.856	6598
687.341	6652
687.825	6551
688.309	6574
688.793	6590
689.278	6527
689.762	6598
690.246	6544
690.731	6529
691.215	6559
691.7	6383
692.184	6490
692.669	6459
693.153	6473
693.638	6355
694.122	6382
694.607	6439
695.092	6352
695.577	6419
696.061	6301
696.546	6329
697.031	6301
697.516	6352
698.001	6372
698.486	6326
698.971	6402
699.456	6237
699.941	6208
700.426	6220
700.911	6286
701.396	6269
701.881	6305
702.366	6249
702.852	6227
703.337	6216
703.822	6194
704.308	6194
704.793	6222
705.278	6235
705.764	6244
706.249	6196
706.735	6189
707.22	6247
707.706	6165
708.191	6248
708.677	6234
709.163	6183
709.648	6204
710.134	6319
710.62	6278
711.106	6286
711.592	6345
712.077	6278
712.563	6099
713.049	6087
713.535	6237
714.021	6228
714.507	6200
714.993	6114
715.479	6147
715.966	6069
716.452	6098
716.938	6121
717.424	5928
717.91	6036
718.397	5966
718.883	5933
719.369	5964
719.856	5894
720.342	5964
720.829	5872
721.315	5892
721.802	5849
722.288	5867
722.775	5645
723.262	5489
723.748	5729
724.235	5716
724.722	5792
725.208	5672
725.695	5657
726.182	5656
726.669	5605
727.156	5667
727.643	5613
728.13	5589
728.617	5517
729.104	5522
729.591	5467
730.078	5510
730.565	5517
731.052	5431
731.539	5442
732.027	5406
732.514	5325
733.001	5370
733.488	5331
733.976	5335
734.463	5312
734.951	5302
735.438	5346
735.926	5272
736.413	5311
736.901	5275
737.388	5310
737.876	5293
738.364	5250
738.851	5292
739.339	5305
739.827	5353
740.314	5165
740.802	5183
741.29	5196
741.778	5136
742.266	5139
742.754	5165
743.242	5223
743.73	5131
744.218	5114
744.706	5060
745.194	5139
745.682	5132
746.17	5131
746.659	5129
747.147	5006
747.635	5005
748.123	4986
748.612	4913
749.1	4851
749.589	4881
750.077	4868
750.566	4857
751.054	4887
751.543	4909
752.031	4784
752.52	4751
753.008	4660
753.497	4673
753.986	4678
754.474	4680
754.963	4715
755.452	4621
755.941	4577
756.43	4564
756.919	4544
757.408	4504
757.896	4526
758.385	4567
758.875	4517
759.364	4459
759.853	4427
760.342	4344
760.831	4438
761.32	4390
761.809	4314
762.299	4349
762.788	4366
763.277	4373
763.767	4327
764.256	4321
764.745	4276
765.235	4338
765.724	4204
766.214	4266
766.703	4218
767.193	4153
767.683	4143
768.172	4051
768.662	4086
769.152	4078
769.641	4072
770.131	3955
770.621	4000
771.111	3943
771.601	3935
772.09	3894
772.58	3837
773.07	3848
773.56	3866
774.05	3772
774.54	3753
775.031	3723
775.521	3710
776.011	3718
776.501	3754
776.991	3670
777.482	3698
777.972	3609
778.462	3597
778.953	3625
779.443	3612
779.933	3603
780.424	3578
780.914	3615
781.405	3621
781.895	3599
782.386	3602
782.877	3575
783.367	3512
783.858	3484
784.349	3493
784.839	3447
785.33	3470
785.821	3465
786.312	3441
786.803	3462
787.293	3454
787.784	3410
788.275	3364
788.766	3336
789.257	3386
789.748	3301
790.24	3263
790.731	3269
791.222	3205
791.713	3195
792.204	3207
792.696	3109
793.187	3141
793.678	3098
794.169	3006
794.661	3050
795.152	2995
795.644	2967
796.135	2970
796.627	2981
797.118	2925
797.61	2905
798.101	2856
798.593	2890
799.085	2835
799.576	2857
800.068	2836
800.56	2857
801.052	2795
801.544	2790
802.035	2788
802.527	2748
803.019	2709
803.511	2683
804.003	2674
804.495	2685
804.987	2660
805.479	2620
805.971	2629
806.464	2634
806.956	2568
807.448	2553
807.94	2559
808.433	2541
808.925	2523
809.417	2505
809.91	2499
810.402	2432
810.894	2452
811.387	2476
811.879	2441
812.372	2465
812.865	2402
813.357	2398
813.85	2387
814.342	2354
814.835	2361
815.328	2356
815.821	2314
816.313	2310
816.806	2316
817.299	2286
817.792	2297
818.285	2258
818.778	2284
819.271	2271
819.764	2250
820.257	2257
820.75	2255
821.243	2256
821.736	2215
822.229	2248
822.722	2227
823.216	2270
