Data from lamp4helium_sterk_Subt2__5__105.txt Node

Date: Wed Apr 09 11:06:55 CEST 2025
User: fys-lab-0081
Spectrometer: S04999
Trigger mode: 0
Resolution mode: 1024 pixels
Integration Time (sec): 1.000000E-1
Scans to average: 1
Nonlinearity correction enabled: false
Boxcar width: 0
Baseline correction enabled: true
XAxis mode: Wavelengths
Number of Pixels in Spectrum: 1024
>>>>>Begin Spectral Data<<<<<
336.42	2
336.877	1
337.334	4
337.792	3
338.249	7
338.706	-1
339.164	6
339.621	6
340.079	10
340.536	4
340.994	11
341.452	7
341.909	10
342.367	6
342.825	2
343.283	7
343.741	4
344.198	0
344.656	5
345.114	4
345.572	5
346.03	5
346.488	5
346.947	5
347.405	7
347.863	5
348.321	6
348.779	11
349.238	6
349.696	11
350.154	4
350.613	4
351.071	11
351.53	13
351.988	12
352.447	9
352.905	5
353.364	7
353.823	12
354.282	15
354.74	4
355.199	11
355.658	14
356.117	11
356.576	15
357.035	8
357.494	10
357.953	7
358.412	12
358.871	9
359.33	11
359.789	9
360.249	15
360.708	10
361.167	14
361.626	13
362.086	13
362.545	16
363.005	19
363.464	14
363.924	18
364.383	13
364.843	18
365.303	24
365.762	24
366.222	20
366.682	21
367.142	23
367.601	20
368.061	19
368.521	23
368.981	20
369.441	28
369.901	25
370.361	20
370.821	22
371.282	26
371.742	28
372.202	25
372.662	28
373.123	25
373.583	28
374.043	31
374.504	26
374.964	30
375.425	28
375.885	35
376.346	34
376.806	36
377.267	32
377.728	37
378.188	35
378.649	37
379.11	39
379.571	34
380.032	40
380.493	43
380.954	45
381.414	42
381.876	44
382.337	41
382.798	50
383.259	53
383.72	53
384.181	50
384.642	54
385.104	53
385.565	57
386.026	61
386.488	63
386.949	64
387.411	65
387.872	67
388.334	72
388.795	76
389.257	76
389.719	69
390.181	74
390.642	76
391.104	83
391.566	82
392.028	87
392.49	93
392.952	92
393.414	94
393.876	95
394.338	93
394.8	91
395.262	91
395.724	104
396.186	104
396.648	102
397.111	105
397.573	111
398.035	107
398.498	109
398.96	110
399.423	113
399.885	112
400.348	115
400.81	123
401.273	126
401.736	124
402.198	136
402.661	133
403.124	135
403.587	140
404.049	145.5
404.512	151
404.975	145
405.438	145
405.901	157
406.364	154
406.827	154
407.29	153
407.754	152
408.217	159
408.68	157
409.143	164
409.607	169
410.07	161
410.533	168
410.997	170
411.46	174
411.924	176
412.387	181
412.851	181
413.314	182
413.778	187
414.242	192
414.705	201
415.169	198
415.633	196
416.097	192
416.561	206
417.024	206
417.488	200
417.952	207
418.416	197
418.88	199
419.344	202
419.809	210
420.273	214
420.737	210
421.201	218
421.665	223
422.13	223
422.594	236
423.059	239
423.523	240
423.987	238
424.452	245
424.916	253
425.381	262
425.846	256
426.31	266
426.775	272
427.24	278
427.704	273
428.169	274
428.634	279
429.099	279
429.564	274
430.029	284
430.494	278
430.959	281
431.424	281
431.889	291
432.354	297
432.819	294
433.284	307
433.75	312
434.215	314
434.68	315
435.146	321
435.611	338
436.077	349
436.542	351
437.008	367
437.473	367
437.939	375
438.404	381
438.87	391
439.336	380
439.801	379
440.267	394
440.733	402
441.199	397
441.665	403
442.131	418
442.596	403
443.062	413
443.529	433
443.995	438
444.461	454
444.927	478
445.393	471
445.859	490
446.325	502
446.792	530
447.258	531
447.724	541
448.191	562
448.657	566
449.124	585
449.59	581
450.057	612
450.523	621
450.99	629
451.457	627
451.923	640
452.39	631
452.857	655
453.324	645
453.791	659
454.257	659
454.724	661
455.191	667
455.658	673
456.125	695
456.592	675
457.059	694
457.527	700
457.994	723
458.461	723
458.928	737
459.396	737
459.863	764
460.33	758
460.798	763
461.265	776
461.732	769
462.2	786
462.668	788
463.135	796
463.603	772
464.07	800
464.538	781
465.006	800
465.474	779
465.941	784
466.409	797
466.877	784
467.345	799
467.813	786
468.281	805
468.749	817
469.217	808
469.685	824
470.153	840
470.621	840
471.09	844
471.558	883
472.026	882
472.494	908
472.963	920
473.431	946
473.9	962
474.368	980
474.837	1003
475.305	1014
475.774	1030
476.242	1057
476.711	1063
477.18	1084
477.648	1078
478.117	1093
478.586	1083
479.055	1095
479.524	1101
479.993	1099
480.462	1094
480.93	1100
481.399	1102
481.869	1111
482.338	1100
482.807	1122
483.276	1109
483.745	1114
484.214	1144
484.684	1170
485.153	1171
485.622	1182
486.092	1219
486.561	1196
487.031	1240
487.5	1260
487.97	1268
488.439	1302
488.909	1334
489.378	1385
489.848	1386
490.318	1414
490.787	1469
491.257	1487
491.727	1491
492.197	1516
492.667	1519
493.137	1543
493.607	1552
494.077	1566
494.547	1548
495.017	1537
495.487	1568
495.957	1607
496.427	1570
496.897	1572
497.368	1589
497.838	1587
498.308	1615
498.779	1627
499.249	1633
499.719	1654
500.19	1683
500.66	1684
501.131	1694
501.602	1721
502.072	1717
502.543	1748
503.014	1802
503.484	1796
503.955	1847
504.426	1920
504.897	1923
505.368	1965
505.838	2019
506.309	2057
506.78	2127
507.251	2167
507.722	2207
508.194	2258
508.665	2292
509.136	2282
509.607	2355
510.078	2373
510.549	2393
511.021	2456
511.492	2452
511.964	2496
512.435	2529
512.906	2495
513.378	2516
513.849	2573
514.321	2578
514.793	2604
515.264	2649
515.736	2676
516.208	2718
516.679	2737
517.151	2755
517.623	2784
518.095	2832
518.567	2857
519.038	2907
519.51	2901
519.982	2932
520.454	2968
520.927	3020
521.399	3069
521.871	3094
522.343	3108
522.815	3127
523.287	3129
523.76	3141
524.232	3192
524.704	3215
525.177	3172
525.649	3191
526.122	3223
526.594	3156
527.067	3230
527.539	3268
528.012	3250
528.484	3242
528.957	3259
529.43	3257
529.903	3248
530.375	3358
530.848	3291
531.321	3341
531.794	3340
532.267	3414
532.74	3354
533.213	3356
533.686	3421
534.159	3405
534.632	3471
535.105	3468
535.578	3548
536.051	3556
536.525	3567
536.998	3566
537.471	3662
537.945	3606
538.418	3659
538.891	3680
539.365	3728
539.838	3752
540.312	3731
540.786	3760
541.259	3769
541.733	3827
542.206	3834
542.68	3778
543.154	3776
543.628	3804
544.101	3856
544.575	3806
545.049	3708
545.523	3782
545.997	3756
546.471	3795
546.945	3770
547.419	3827
547.893	3705
548.367	3779
548.842	3734
549.316	3760
549.79	3779
550.264	3759
550.739	3813
551.213	3820
551.687	3832
552.162	3843
552.636	3813
553.111	3819
553.585	3922
554.06	3866
554.534	3927
555.009	3910
555.484	3987
555.958	4016
556.433	4033
556.908	4085
557.383	4054
557.858	4138
558.333	4142
558.807	4135
559.282	4180
559.757	4290
560.232	4267
560.708	4190
561.183	4184
561.658	4251
562.133	4242
562.608	4218
563.083	4327
563.559	4235
564.034	4234
564.509	4238
564.985	4251
565.46	4214
565.936	4281
566.411	4266
566.887	4208
567.362	4248
567.838	4260
568.313	4299
568.789	4232
569.265	4243
569.74	4273
570.216	4227
570.692	4281
571.168	4282
571.644	4300
572.12	4289
572.596	4329
573.071	4339
573.547	4484
574.024	4536
574.5	4561
574.976	4568
575.452	4644
575.928	4703
576.404	4727
576.881	4842
577.357	4777
577.833	4806
578.31	4927
578.786	4971
579.262	5034
579.739	4966
580.215	5137
580.692	5159
581.169	5088
581.645	5089
582.122	5240
582.598	5229
583.075	5217
583.552	5228
584.029	5212
584.506	5204
584.982	5173
585.459	5276
585.936	5185
586.413	5252
586.89	5353
587.367	5315
587.844	5412
588.321	5351
588.799	5372
589.276	5327
589.753	5401
590.23	5437
590.707	5425
591.185	5448
591.662	5463
592.139	5521
592.617	5595
593.094	5557
593.572	5610
594.049	5642
594.527	5678
595.004	5702
595.482	5876
595.96	5824
596.437	5779
596.915	5928
597.393	5848
597.871	5990
598.349	5926
598.826	6035
599.304	6048
599.782	6176
600.26	6138
600.738	6263
601.216	6221
601.694	6270
602.173	6300
602.651	6327
603.129	6287
603.607	6321
604.085	6343
604.564	6376
605.042	6399
605.52	6357
605.999	6486
606.477	6303
606.956	6334
607.434	6410
607.913	6486
608.391	6460
608.87	6412
609.348	6304
609.827	6353
610.306	6391
610.785	6395
611.263	6392
611.742	6348
612.221	6277
612.7	6352
613.179	6403
613.658	6315
614.137	6418
614.616	6468
615.095	6377
615.574	6464
616.053	6494
616.532	6447
617.011	6458
617.491	6494
617.97	6461
618.449	6535
618.928	6601
619.408	6547
619.887	6594
620.367	6636
620.846	6696
621.326	6644
621.805	6781
622.285	6798
622.764	6864
623.244	6868
623.724	6902
624.203	6946
624.683	6800
625.163	6949
625.643	6927
626.123	6867
626.602	7037
627.082	6895
627.562	6868
628.042	7010
628.522	6938
629.002	6907
629.482	6947
629.963	6947
630.443	6869
630.923	6853
631.403	6928
631.883	6904
632.364	6943
632.844	6908
633.324	6912
633.805	6900
634.285	6806
634.766	6754
635.246	6781
635.727	6803
636.207	6824
636.688	6793
637.168	6760
637.649	6732
638.13	6751
638.611	6807
639.091	6767
639.572	6720
640.053	6678
640.534	6724
641.015	6710
641.496	6617
641.977	6751
642.458	6672
642.939	6690
643.42	6703
643.901	6708
644.382	6797
644.863	6790
645.345	6762
645.826	6749
646.307	6755
646.788	6862
647.27	6766
647.751	6774
648.233	6827
648.714	6667
649.196	6828
649.677	6790
650.159	6802
650.64	6732
651.122	6853
651.603	6747
652.085	6811
652.567	6875
653.049	6812
653.53	6818
654.012	6912
654.494	6801
654.976	6889
655.458	6837
655.94	6813
656.422	6923
656.904	6779
657.386	6691
657.868	6693
658.35	6652
658.833	6693
659.315	6710
659.797	6607
660.279	6599
660.762	6614
661.244	6549
661.726	6501
662.209	6532
662.691	6531
663.174	6394
663.656	6447
664.139	6459
664.621	6412
665.104	6362
665.587	6431
666.069	6474
666.552	6447
667.035	6382
667.517	6413
668	6482
668.483	6478
668.966	6408
669.449	6382
669.932	6384
670.415	6440
670.898	6395
671.381	6429
671.864	6431
672.347	6324
672.83	6331
673.313	6335
673.797	6314
674.28	6442
674.763	6442
675.247	6448
675.73	6383
676.213	6424
676.697	6496
677.18	6493
677.664	6517
678.147	6491
678.631	6552
679.114	6630
679.598	6628
680.082	6687
680.565	6667
681.049	6637
681.533	6622
682.017	6656
682.5	6624
682.984	6638
683.468	6642
683.952	6543
684.436	6687
684.92	6614
685.404	6652
685.888	6667
686.372	6614
686.856	6604
687.341	6666
687.825	6563
688.309	6596
688.793	6610
689.278	6539
689.762	6620
690.246	6555
690.731	6544
691.215	6568
691.7	6403
692.184	6504
692.669	6464
693.153	6479
693.638	6367
694.122	6391
694.607	6457
695.092	6368
695.577	6440
696.061	6321
696.546	6346
697.031	6313
697.516	6368
698.001	6377
698.486	6357
698.971	6426
699.456	6249
699.941	6236
700.426	6236
700.911	6309
701.396	6283
701.881	6322
702.366	6258
702.852	6247
703.337	6240
703.822	6209
704.308	6210
704.793	6233
705.278	6245
705.764	6261
706.249	6210
706.735	6209
707.22	6267
707.706	6181
708.191	6259
708.677	6252
709.163	6190
709.648	6211
710.134	6329
710.62	6299
711.106	6306
711.592	6366
712.077	6289
712.563	6118
713.049	6097
713.535	6249
714.021	6243
714.507	6212
714.993	6125
715.479	6164
715.966	6082
716.452	6119
716.938	6133
717.424	5943
717.91	6039
718.397	5979
718.883	5952
719.369	5973
719.856	5899
720.342	5980
720.829	5896
721.315	5915
721.802	5859
722.288	5881
722.775	5665
723.262	5506
723.748	5748
724.235	5721
724.722	5808
725.208	5679
725.695	5679
726.182	5666
726.669	5612
727.156	5688
727.643	5636
728.13	5601
728.617	5517
729.104	5537
729.591	5494
730.078	5529
730.565	5526
731.052	5439
731.539	5459
732.027	5422
732.514	5337
733.001	5389
733.488	5345
733.976	5349
734.463	5320
734.951	5315
735.438	5352
735.926	5284
736.413	5336
736.901	5282
737.388	5324
737.876	5312
738.364	5269
738.851	5304
739.339	5331
739.827	5364
740.314	5183
740.802	5195
741.29	5222
741.778	5144
742.266	5148
742.754	5175
743.242	5237
743.73	5155
744.218	5127
744.706	5075
745.194	5147
745.682	5144
746.17	5138
746.659	5147
747.147	5016
747.635	5016
748.123	4996
748.612	4921
749.1	4869
749.589	4900
750.077	4883
750.566	4861
751.054	4892
751.543	4910
752.031	4805
752.52	4760
753.008	4665
753.497	4691
753.986	4680
754.474	4691
754.963	4729
755.452	4628
755.941	4587
756.43	4580
756.919	4549
757.408	4513
757.896	4554
758.385	4579
758.875	4531
759.364	4479
759.853	4429
760.342	4356
760.831	4453
761.32	4405
761.809	4335
762.299	4364
762.788	4371
763.277	4381
763.767	4331
764.256	4338
764.745	4281
765.235	4343
765.724	4223
766.214	4283
766.703	4243
767.193	4161
767.683	4152
768.172	4065
768.662	4098
769.152	4078
769.641	4082
770.131	3960
770.621	4008
771.111	3962
771.601	3949
772.09	3898
772.58	3850
773.07	3855
773.56	3870
774.05	3783
774.54	3753
775.031	3725
775.521	3716
776.011	3725
776.501	3768
776.991	3670
777.482	3700
777.972	3622
778.462	3610
778.953	3635
779.443	3615
779.933	3615
780.424	3582
780.914	3623
781.405	3643
781.895	3609
782.386	3612
782.877	3590
783.367	3522
783.858	3493
784.349	3497
784.839	3458
785.33	3481
785.821	3473
786.312	3452
786.803	3465
787.293	3477
787.784	3422
788.275	3361
788.766	3344
789.257	3391
789.748	3308
790.24	3269
790.731	3266
791.222	3224
791.713	3209
792.204	3214
792.696	3120
793.187	3141
793.678	3112
794.169	3015
794.661	3047
795.152	2996
795.644	2971
796.135	2976
796.627	2987
797.118	2934
797.61	2897
798.101	2862
798.593	2898
799.085	2847
799.576	2864
800.068	2846
800.56	2854
801.052	2798
801.544	2798
802.035	2791
802.527	2747
803.019	2721
803.511	2695
804.003	2684
804.495	2700
804.987	2676
805.479	2621
805.971	2637
806.464	2641
806.956	2573
807.448	2560
807.94	2561
808.433	2547
808.925	2534
809.417	2508
809.91	2504
810.402	2435
810.894	2449
811.387	2484
811.879	2450
812.372	2458
812.865	2410
813.357	2401
813.85	2388
814.342	2368
814.835	2367
815.328	2358
815.821	2320
816.313	2314
816.806	2318
817.299	2288
817.792	2299
818.285	2257
818.778	2284
819.271	2277
819.764	2258
820.257	2260
820.75	2263
821.243	2250
821.736	2228
822.229	2253
822.722	2232
823.216	2265
