Data from lamp4helium_sterk_Subt2__76__176.txt Node

Date: Wed Apr 09 11:07:03 CEST 2025
User: fys-lab-0081
Spectrometer: S04999
Trigger mode: 0
Resolution mode: 1024 pixels
Integration Time (sec): 1.000000E-1
Scans to average: 1
Nonlinearity correction enabled: false
Boxcar width: 0
Baseline correction enabled: true
XAxis mode: Wavelengths
Number of Pixels in Spectrum: 1024
>>>>>Begin Spectral Data<<<<<
336.42	0
336.877	4
337.334	3
337.792	8
338.249	4
338.706	5
339.164	4
339.621	3
340.079	3
340.536	6
340.994	2
341.452	2
341.909	10
342.367	2
342.825	2
343.283	4
343.741	6
344.198	5
344.656	4
345.114	0
345.572	4
346.03	5
346.488	5
346.947	6
347.405	5
347.863	4
348.321	4
348.779	11
349.238	4
349.696	7
350.154	5
350.613	6
351.071	7
351.53	9
351.988	12
352.447	10
352.905	6
353.364	7
353.823	6
354.282	10
354.74	4
355.199	15
355.658	12
356.117	12
356.576	9
357.035	5
357.494	10
357.953	7
358.412	11
358.871	13
359.33	14
359.789	13
360.249	11
360.708	14
361.167	18
361.626	14
362.086	13
362.545	12
363.005	15
363.464	15
363.924	18
364.383	16
364.843	20
365.303	20
365.762	21
366.222	22
366.682	18
367.142	20
367.601	19
368.061	21
368.521	19
368.981	21
369.441	27
369.901	23
370.361	23
370.821	21
371.282	24
371.742	27
372.202	25
372.662	30
373.123	25
373.583	25
374.043	31
374.504	24
374.964	28
375.425	28
375.885	31
376.346	32
376.806	40
377.267	36
377.728	35
378.188	38
378.649	33
379.11	42
379.571	35
380.032	40
380.493	36
380.954	45
381.414	45
381.876	44
382.337	40
382.798	48
383.259	52
383.72	53
384.181	50
384.642	50
385.104	60
385.565	58
386.026	58
386.488	66
386.949	63
387.411	65
387.872	69
388.334	67
388.795	71
389.257	74
389.719	71
390.181	72
390.642	72
391.104	80
391.566	84
392.028	86
392.49	94
392.952	85
393.414	90
393.876	95
394.338	92
394.8	92
395.262	89
395.724	101
396.186	99
396.648	103
397.111	103
397.573	112
398.035	105
398.498	105
398.96	112
399.423	106
399.885	113
400.348	115
400.81	119
401.273	122
401.736	123
402.198	131
402.661	136
403.124	131
403.587	136
404.049	138.5
404.512	141
404.975	144
405.438	146
405.901	154
406.364	151
406.827	154
407.29	151
407.754	150
408.217	152
408.68	157
409.143	161
409.607	161
410.07	165
410.533	160
410.997	168
411.46	170
411.924	172
412.387	176
412.851	176
413.314	181
413.778	177
414.242	185
414.705	198
415.169	194
415.633	193
416.097	187
416.561	199
417.024	202
417.488	196
417.952	199
418.416	194
418.88	197
419.344	199
419.809	207
420.273	210
420.737	206
421.201	214
421.665	222
422.13	221
422.594	228
423.059	232
423.523	234
423.987	235
424.452	242
424.916	248
425.381	259
425.846	257
426.31	268
426.775	269
427.24	270
427.704	269
428.169	276
428.634	275
429.099	279
429.564	269
430.029	276
430.494	274
430.959	281
431.424	274
431.889	288
432.354	293
432.819	284
433.284	299
433.75	301
434.215	320
434.68	313
435.146	318
435.611	328
436.077	350
436.542	347
437.008	359
437.473	359
437.939	368
438.404	369
438.87	385
439.336	377
439.801	375
440.267	383
440.733	390
441.199	396
441.665	394
442.131	410
442.596	401
443.062	412
443.529	435
443.995	437
444.461	439
444.927	463
445.393	468
445.859	486
446.325	494
446.792	525
447.258	519
447.724	534
448.191	556
448.657	554
449.124	575
449.59	571
450.057	608
450.523	610
450.99	621
451.457	615
451.923	635
452.39	629
452.857	647
453.324	634
453.791	650
454.257	650
454.724	657
455.191	659
455.658	666
456.125	684
456.592	672
457.059	683
457.527	689
457.994	714
458.461	723
458.928	732
459.396	730
459.863	753
460.33	749
460.798	754
461.265	763
461.732	754
462.2	775
462.668	772
463.135	787
463.603	764
464.07	785
464.538	759
465.006	789
465.474	769
465.941	778
466.409	788
466.877	773
467.345	787
467.813	776
468.281	791
468.749	806
469.217	806
469.685	818
470.153	832
470.621	833
471.09	830
471.558	870
472.026	871
472.494	890
472.963	905
473.431	931
473.9	946
474.368	970
474.837	990
475.305	1005
475.774	1015
476.242	1049
476.711	1043
477.18	1069
477.648	1067
478.117	1079
478.586	1071
479.055	1075
479.524	1090
479.993	1085
480.462	1081
480.93	1087
481.399	1088
481.869	1096
482.338	1089
482.807	1107
483.276	1099
483.745	1099
484.214	1129
484.684	1155
485.153	1155
485.622	1160
486.092	1205
486.561	1176
487.031	1228
487.5	1244
487.97	1256
488.439	1286
488.909	1320
489.378	1370
489.848	1368
490.318	1390
490.787	1456
491.257	1467
491.727	1475
492.197	1493
492.667	1501
493.137	1523
493.607	1525
494.077	1539
494.547	1532
495.017	1517
495.487	1551
495.957	1587
496.427	1553
496.897	1547
497.368	1569
497.838	1566
498.308	1592
498.779	1611
499.249	1616
499.719	1633
500.19	1662
500.66	1663
501.131	1674
501.602	1701
502.072	1701
502.543	1726
503.014	1784
503.484	1766
503.955	1820
504.426	1896
504.897	1901
505.368	1939
505.838	1992
506.309	2031
506.78	2097
507.251	2132
507.722	2181
508.194	2230
508.665	2264
509.136	2258
509.607	2329
510.078	2344
510.549	2364
511.021	2428
511.492	2426
511.964	2459
512.435	2489
512.906	2465
513.378	2489
513.849	2545
514.321	2557
514.793	2580
515.264	2619
515.736	2641
516.208	2678
516.679	2705
517.151	2724
517.623	2754
518.095	2797
518.567	2814
519.038	2878
519.51	2872
519.982	2900
520.454	2931
520.927	2988
521.399	3028
521.871	3070
522.343	3070
522.815	3091
523.287	3086
523.76	3111
524.232	3152
524.704	3174
525.177	3128
525.649	3158
526.122	3185
526.594	3117
527.067	3189
527.539	3227
528.012	3210
528.484	3206
528.957	3221
529.43	3221
529.903	3206
530.375	3324
530.848	3256
531.321	3305
531.794	3300
532.267	3376
532.74	3314
533.213	3320
533.686	3372
534.159	3353
534.632	3438
535.105	3440
535.578	3501
536.051	3520
536.525	3526
536.998	3530
537.471	3616
537.945	3577
538.418	3620
538.891	3631
539.365	3682
539.838	3712
540.312	3678
540.786	3715
541.259	3728
541.733	3782
542.206	3785
542.68	3729
543.154	3737
543.628	3757
544.101	3816
544.575	3753
545.049	3671
545.523	3742
545.997	3719
546.471	3758
546.945	3732
547.419	3786
547.893	3659
548.367	3738
548.842	3702
549.316	3719
549.79	3737
550.264	3712
550.739	3764
551.213	3776
551.687	3781
552.162	3807
552.636	3765
553.111	3770
553.585	3873
554.06	3815
554.534	3888
555.009	3879
555.484	3940
555.958	3974
556.433	3979
556.908	4054
557.383	4002
557.858	4086
558.333	4098
558.807	4093
559.282	4128
559.757	4232
560.232	4218
560.708	4154
561.183	4135
561.658	4203
562.133	4193
562.608	4163
563.083	4269
563.559	4180
564.034	4192
564.509	4184
564.985	4199
565.46	4163
565.936	4238
566.411	4222
566.887	4176
567.362	4202
567.838	4220
568.313	4260
568.789	4184
569.265	4195
569.74	4220
570.216	4180
570.692	4239
571.168	4237
571.644	4243
572.12	4243
572.596	4267
573.071	4290
573.547	4428
574.024	4477
574.5	4509
574.976	4523
575.452	4593
575.928	4655
576.404	4679
576.881	4809
577.357	4716
577.833	4752
578.31	4871
578.786	4921
579.262	4988
579.739	4919
580.215	5083
580.692	5101
581.169	5033
581.645	5047
582.122	5186
582.598	5170
583.075	5154
583.552	5166
584.029	5157
584.506	5148
584.982	5107
585.459	5209
585.936	5140
586.413	5203
586.89	5303
587.367	5257
587.844	5347
588.321	5307
588.799	5313
589.276	5263
589.753	5338
590.23	5380
590.707	5372
591.185	5391
591.662	5420
592.139	5467
592.617	5528
593.094	5506
593.572	5541
594.049	5576
594.527	5621
595.004	5638
595.482	5815
595.96	5756
596.437	5726
596.915	5855
597.393	5775
597.871	5933
598.349	5868
598.826	5974
599.304	5994
599.782	6113
600.26	6070
600.738	6198
601.216	6156
601.694	6205
602.173	6221
602.651	6250
603.129	6224
603.607	6255
604.085	6264
604.564	6295
605.042	6335
605.52	6286
605.999	6417
606.477	6237
606.956	6276
607.434	6350
607.913	6424
608.391	6390
608.87	6338
609.348	6240
609.827	6284
610.306	6329
610.785	6333
611.263	6325
611.742	6282
612.221	6211
612.7	6293
613.179	6336
613.658	6244
614.137	6352
614.616	6408
615.095	6313
615.574	6394
616.053	6423
616.532	6367
617.011	6385
617.491	6437
617.97	6401
618.449	6451
618.928	6528
619.408	6481
619.887	6525
620.367	6576
620.846	6632
621.326	6576
621.805	6724
622.285	6730
622.764	6786
623.244	6806
623.724	6833
624.203	6883
624.683	6747
625.163	6886
625.643	6852
626.123	6795
626.602	6964
627.082	6820
627.562	6803
628.042	6932
628.522	6872
629.002	6838
629.482	6872
629.963	6870
630.443	6788
630.923	6801
631.403	6843
631.883	6830
632.364	6872
632.844	6841
633.324	6840
633.805	6819
634.285	6733
634.766	6699
635.246	6707
635.727	6735
636.207	6760
636.688	6718
637.168	6683
637.649	6667
638.13	6673
638.611	6734
639.091	6717
639.572	6667
640.053	6622
640.534	6654
641.015	6645
641.496	6552
641.977	6673
642.458	6615
642.939	6627
643.42	6640
643.901	6638
644.382	6731
644.863	6705
645.345	6690
645.826	6697
646.307	6683
646.788	6790
647.27	6697
647.751	6702
648.233	6758
648.714	6597
649.196	6758
649.677	6726
650.159	6734
650.64	6665
651.122	6780
651.603	6679
652.085	6738
652.567	6797
653.049	6747
653.53	6748
654.012	6853
654.494	6739
654.976	6815
655.458	6781
655.94	6745
656.422	6844
656.904	6700
657.386	6620
657.868	6622
658.35	6582
658.833	6635
659.315	6655
659.797	6547
660.279	6526
660.762	6555
661.244	6480
661.726	6441
662.209	6467
662.691	6460
663.174	6336
663.656	6384
664.139	6400
664.621	6350
665.104	6307
665.587	6370
666.069	6406
666.552	6394
667.035	6313
667.517	6357
668	6415
668.483	6407
668.966	6352
669.449	6315
669.932	6325
670.415	6377
670.898	6336
671.381	6366
671.864	6371
672.347	6260
672.83	6272
673.313	6261
673.797	6254
674.28	6380
674.763	6387
675.247	6374
675.73	6319
676.213	6361
676.697	6432
677.18	6442
677.664	6441
678.147	6439
678.631	6491
679.114	6564
679.598	6564
680.082	6616
680.565	6605
681.049	6572
681.533	6536
682.017	6583
682.5	6558
682.984	6579
683.468	6571
683.952	6483
684.436	6616
684.92	6555
685.404	6587
685.888	6615
686.372	6533
686.856	6546
687.341	6604
687.825	6494
688.309	6532
688.793	6556
689.278	6486
689.762	6555
690.246	6497
690.731	6484
691.215	6493
691.7	6342
692.184	6440
692.669	6410
693.153	6422
693.638	6306
694.122	6327
694.607	6395
695.092	6303
695.577	6369
696.061	6260
696.546	6279
697.031	6258
697.516	6305
698.001	6316
698.486	6288
698.971	6358
699.456	6193
699.941	6175
700.426	6169
700.911	6241
701.396	6225
701.881	6261
702.366	6196
702.852	6187
703.337	6180
703.822	6150
704.308	6141
704.793	6180
705.278	6192
705.764	6204
706.249	6158
706.735	6152
707.22	6215
707.706	6122
708.191	6197
708.677	6190
709.163	6141
709.648	6160
710.134	6270
710.62	6244
711.106	6237
711.592	6301
712.077	6229
712.563	6062
713.049	6046
713.535	6195
714.021	6187
714.507	6157
714.993	6074
715.479	6104
715.966	6021
716.452	6060
716.938	6059
717.424	5883
717.91	5990
718.397	5923
718.883	5906
719.369	5918
719.856	5838
720.342	5920
720.829	5829
721.315	5854
721.802	5797
722.288	5836
722.775	5608
723.262	5455
723.748	5688
724.235	5677
724.722	5755
725.208	5625
725.695	5625
726.182	5609
726.669	5554
727.156	5622
727.643	5586
728.13	5555
728.617	5469
729.104	5483
729.591	5439
730.078	5481
730.565	5471
731.052	5393
731.539	5413
732.027	5371
732.514	5286
733.001	5323
733.488	5295
733.976	5299
734.463	5267
734.951	5259
735.438	5310
735.926	5241
736.413	5282
736.901	5247
737.388	5279
737.876	5257
738.364	5213
738.851	5255
739.339	5270
739.827	5325
740.314	5115
740.802	5154
741.29	5172
741.778	5104
742.266	5107
742.754	5120
743.242	5189
743.73	5095
744.218	5094
744.706	5029
745.194	5099
745.682	5086
746.17	5093
746.659	5101
747.147	4970
747.635	4971
748.123	4945
748.612	4875
749.1	4827
749.589	4853
750.077	4833
750.566	4817
751.054	4849
751.543	4865
752.031	4757
752.52	4724
753.008	4630
753.497	4643
753.986	4641
754.474	4654
754.963	4691
755.452	4585
755.941	4549
756.43	4532
756.919	4510
757.408	4474
757.896	4498
758.385	4534
758.875	4482
759.364	4435
759.853	4393
760.342	4313
760.831	4413
761.32	4358
761.809	4298
762.299	4314
762.788	4335
763.277	4345
763.767	4294
764.256	4300
764.745	4243
765.235	4300
765.724	4180
766.214	4244
766.703	4196
767.193	4128
767.683	4115
768.172	4027
768.662	4071
769.152	4041
769.641	4049
770.131	3924
770.621	3977
771.111	3930
771.601	3902
772.09	3861
772.58	3820
773.07	3826
773.56	3838
774.05	3753
774.54	3723
775.031	3694
775.521	3680
776.011	3691
776.501	3723
776.991	3639
777.482	3671
777.972	3585
778.462	3579
778.953	3597
779.443	3578
779.933	3580
780.424	3549
780.914	3594
781.405	3608
781.895	3570
782.386	3579
782.877	3551
783.367	3487
783.858	3469
784.349	3459
784.839	3425
785.33	3448
785.821	3439
786.312	3425
786.803	3429
787.293	3430
787.784	3381
788.275	3342
788.766	3315
789.257	3364
789.748	3283
790.24	3238
790.731	3246
791.222	3189
791.713	3177
792.204	3181
792.696	3088
793.187	3122
793.678	3086
794.169	2986
794.661	3022
795.152	2973
795.644	2944
796.135	2940
796.627	2969
797.118	2910
797.61	2875
798.101	2840
798.593	2873
799.085	2820
799.576	2840
800.068	2807
800.56	2837
801.052	2773
801.544	2763
802.035	2761
802.527	2726
803.019	2700
803.511	2677
804.003	2653
804.495	2670
804.987	2654
805.479	2593
805.971	2608
806.464	2622
806.956	2551
807.448	2532
807.94	2537
808.433	2522
808.925	2506
809.417	2488
809.91	2478
810.402	2412
810.894	2430
811.387	2463
811.879	2433
812.372	2434
812.865	2393
813.357	2383
813.85	2373
814.342	2346
814.835	2346
815.328	2336
815.821	2297
816.313	2298
816.806	2297
817.299	2266
817.792	2276
818.285	2242
818.778	2270
819.271	2264
819.764	2237
820.257	2244
820.75	2239
821.243	2238
821.736	2209
822.229	2224
822.722	2215
823.216	2252
