Data from lamp4helium_sterk_Subt2__46__146.txt Node

Date: Wed Apr 09 11:07:00 CEST 2025
User: fys-lab-0081
Spectrometer: S04999
Trigger mode: 0
Resolution mode: 1024 pixels
Integration Time (sec): 1.000000E-1
Scans to average: 1
Nonlinearity correction enabled: false
Boxcar width: 0
Baseline correction enabled: true
XAxis mode: Wavelengths
Number of Pixels in Spectrum: 1024
>>>>>Begin Spectral Data<<<<<
336.42	-4
336.877	4
337.334	2
337.792	8
338.249	6
338.706	4
339.164	3
339.621	8
340.079	2
340.536	4
340.994	8
341.452	9
341.909	8
342.367	4
342.825	3
343.283	6
343.741	2
344.198	5
344.656	4
345.114	7
345.572	10
346.03	2
346.488	6
346.947	-1
347.405	7
347.863	6
348.321	1
348.779	11
349.238	7
349.696	7
350.154	6
350.613	6
351.071	8
351.53	17
351.988	13
352.447	7
352.905	6
353.364	10
353.823	9
354.282	9
354.74	-1
355.199	9
355.658	14
356.117	12
356.576	10
357.035	6
357.494	10
357.953	8
358.412	15
358.871	11
359.33	15
359.789	9
360.249	14
360.708	14
361.167	18
361.626	14
362.086	13
362.545	16
363.005	14
363.464	17
363.924	18
364.383	18
364.843	17
365.303	19
365.762	19
366.222	23
366.682	18
367.142	21
367.601	24
368.061	20
368.521	21
368.981	18
369.441	25
369.901	24
370.361	23
370.821	20
371.282	22
371.742	28
372.202	26
372.662	30
373.123	24
373.583	29
374.043	29
374.504	27
374.964	29
375.425	27
375.885	30
376.346	37
376.806	34
377.267	32
377.728	36
378.188	36
378.649	35
379.11	41
379.571	34
380.032	44
380.493	37
380.954	44
381.414	39
381.876	47
382.337	44
382.798	49
383.259	48
383.72	51
384.181	48
384.642	52
385.104	53
385.565	60
386.026	68
386.488	68
386.949	65
387.411	61
387.872	72
388.334	73
388.795	73
389.257	69
389.719	73
390.181	76
390.642	75
391.104	78
391.566	80
392.028	87
392.49	91
392.952	93
393.414	86
393.876	89
394.338	91
394.8	93
395.262	94
395.724	98
396.186	101
396.648	105
397.111	106
397.573	110
398.035	105
398.498	112
398.96	114
399.423	109
399.885	114
400.348	120
400.81	119
401.273	118
401.736	125
402.198	135
402.661	135
403.124	127
403.587	139
404.049	142
404.512	145
404.975	147
405.438	145
405.901	154
406.364	155
406.827	153
407.29	154
407.754	153
408.217	157
408.68	154
409.143	160
409.607	164
410.07	162
410.533	166
410.997	171
411.46	166
411.924	174
412.387	181
412.851	178
413.314	182
413.778	181
414.242	186
414.705	196
415.169	198
415.633	194
416.097	196
416.561	199
417.024	202
417.488	197
417.952	204
418.416	198
418.88	202
419.344	203
419.809	204
420.273	209
420.737	204
421.201	215
421.665	222
422.13	221
422.594	229
423.059	233
423.523	236
423.987	238
424.452	245
424.916	251
425.381	258
425.846	255
426.31	269
426.775	269
427.24	270
427.704	268
428.169	275
428.634	276
429.099	278
429.564	274
430.029	275
430.494	273
430.959	281
431.424	278
431.889	288
432.354	296
432.819	287
433.284	310
433.75	303
434.215	320
434.68	317
435.146	319
435.611	335
436.077	348
436.542	349
437.008	360
437.473	366
437.939	365
438.404	378
438.87	387
439.336	378
439.801	380
440.267	388
440.733	393
441.199	393
441.665	398
442.131	410
442.596	396
443.062	415
443.529	430
443.995	442
444.461	444
444.927	470
445.393	473
445.859	487
446.325	496
446.792	528
447.258	523
447.724	543
448.191	561
448.657	562
449.124	580
449.59	574
450.057	605
450.523	614
450.99	623
451.457	618
451.923	632
452.39	630
452.857	644
453.324	635
453.791	646
454.257	653
454.724	660
455.191	659
455.658	665
456.125	686
456.592	673
457.059	684
457.527	699
457.994	717
458.461	723
458.928	741
459.396	735
459.863	753
460.33	749
460.798	757
461.265	770
461.732	764
462.2	778
462.668	778
463.135	791
463.603	765
464.07	790
464.538	767
465.006	794
465.474	778
465.941	781
466.409	787
466.877	772
467.345	796
467.813	782
468.281	793
468.749	804
469.217	805
469.685	813
470.153	836
470.621	832
471.09	838
471.558	875
472.026	877
472.494	904
472.963	912
473.431	934
473.9	954
474.368	980
474.837	992
475.305	1005
475.774	1029
476.242	1050
476.711	1050
477.18	1076
477.648	1076
478.117	1074
478.586	1081
479.055	1085
479.524	1093
479.993	1091
480.462	1087
480.93	1090
481.399	1092
481.869	1102
482.338	1092
482.807	1114
483.276	1100
483.745	1099
484.214	1143
484.684	1160
485.153	1162
485.622	1167
486.092	1206
486.561	1178
487.031	1226
487.5	1251
487.97	1260
488.439	1295
488.909	1323
489.378	1372
489.848	1372
490.318	1403
490.787	1459
491.257	1478
491.727	1486
492.197	1509
492.667	1511
493.137	1526
493.607	1535
494.077	1553
494.547	1531
495.017	1524
495.487	1555
495.957	1593
496.427	1564
496.897	1553
497.368	1581
497.838	1568
498.308	1598
498.779	1615
499.249	1617
499.719	1639
500.19	1660
500.66	1665
501.131	1670
501.602	1705
502.072	1703
502.543	1731
503.014	1791
503.484	1788
503.955	1836
504.426	1899
504.897	1912
505.368	1943
505.838	1996
506.309	2044
506.78	2107
507.251	2143
507.722	2187
508.194	2242
508.665	2272
509.136	2270
509.607	2336
510.078	2349
510.549	2377
511.021	2434
511.492	2430
511.964	2472
512.435	2495
512.906	2479
513.378	2505
513.849	2555
514.321	2566
514.793	2586
515.264	2634
515.736	2646
516.208	2703
516.679	2715
517.151	2741
517.623	2768
518.095	2816
518.567	2833
519.038	2880
519.51	2871
519.982	2910
520.454	2947
520.927	2996
521.399	3041
521.871	3068
522.343	3081
522.815	3101
523.287	3103
523.76	3119
524.232	3165
524.704	3192
525.177	3133
525.649	3163
526.122	3193
526.594	3126
527.067	3195
527.539	3229
528.012	3232
528.484	3213
528.957	3238
529.43	3229
529.903	3219
530.375	3327
530.848	3265
531.321	3309
531.794	3316
532.267	3384
532.74	3332
533.213	3337
533.686	3393
534.159	3377
534.632	3450
535.105	3452
535.578	3521
536.051	3530
536.525	3539
536.998	3549
537.471	3629
537.945	3574
538.418	3625
538.891	3649
539.365	3698
539.838	3720
540.312	3696
540.786	3722
541.259	3731
541.733	3800
542.206	3805
542.68	3747
543.154	3749
543.628	3767
544.101	3828
544.575	3774
545.049	3680
545.523	3757
545.997	3738
546.471	3766
546.945	3743
547.419	3801
547.893	3676
548.367	3756
548.842	3712
549.316	3725
549.79	3747
550.264	3732
550.739	3776
551.213	3788
551.687	3799
552.162	3817
552.636	3783
553.111	3778
553.585	3894
554.06	3827
554.534	3899
555.009	3895
555.484	3952
555.958	3992
556.433	4003
556.908	4060
557.383	4024
557.858	4105
558.333	4115
558.807	4105
559.282	4150
559.757	4250
560.232	4230
560.708	4162
561.183	4148
561.658	4219
562.133	4213
562.608	4177
563.083	4284
563.559	4199
564.034	4202
564.509	4210
564.985	4216
565.46	4181
565.936	4254
566.411	4238
566.887	4188
567.362	4212
567.838	4226
568.313	4270
568.789	4200
569.265	4210
569.74	4234
570.216	4194
570.692	4253
571.168	4247
571.644	4269
572.12	4261
572.596	4289
573.071	4307
573.547	4444
574.024	4503
574.5	4541
574.976	4546
575.452	4609
575.928	4673
576.404	4682
576.881	4820
577.357	4738
577.833	4766
578.31	4889
578.786	4941
579.262	4999
579.739	4933
580.215	5104
580.692	5127
581.169	5059
581.645	5057
582.122	5192
582.598	5204
583.075	5181
583.552	5190
584.029	5172
584.506	5162
584.982	5129
585.459	5234
585.936	5161
586.413	5219
586.89	5324
587.367	5283
587.844	5373
588.321	5328
588.799	5330
589.276	5284
589.753	5358
590.23	5395
590.707	5385
591.185	5404
591.662	5421
592.139	5494
592.617	5549
593.094	5532
593.572	5562
594.049	5615
594.527	5638
595.004	5660
595.482	5831
595.96	5779
596.437	5751
596.915	5869
597.393	5802
597.871	5951
598.349	5888
598.826	5997
599.304	5998
599.782	6133
600.26	6087
600.738	6217
601.216	6187
601.694	6215
602.173	6243
602.651	6288
603.129	6231
603.607	6277
604.085	6298
604.564	6328
605.042	6347
605.52	6316
605.999	6432
606.477	6260
606.956	6295
607.434	6374
607.913	6453
608.391	6427
608.87	6349
609.348	6259
609.827	6305
610.306	6357
610.785	6354
611.263	6350
611.742	6307
612.221	6222
612.7	6303
613.179	6361
613.658	6272
614.137	6365
614.616	6430
615.095	6328
615.574	6410
616.053	6445
616.532	6389
617.011	6408
617.491	6446
617.97	6415
618.449	6497
618.928	6551
619.408	6491
619.887	6559
620.367	6601
620.846	6663
621.326	6590
621.805	6736
622.285	6757
622.764	6820
623.244	6820
623.724	6849
624.203	6907
624.683	6773
625.163	6905
625.643	6878
626.123	6819
626.602	6987
627.082	6852
627.562	6835
628.042	6949
628.522	6894
629.002	6865
629.482	6887
629.963	6892
630.443	6820
630.923	6816
631.403	6869
631.883	6843
632.364	6895
632.844	6860
633.324	6870
633.805	6845
634.285	6748
634.766	6714
635.246	6735
635.727	6767
636.207	6776
636.688	6743
637.168	6709
637.649	6678
638.13	6701
638.611	6776
639.091	6737
639.572	6688
640.053	6640
640.534	6688
641.015	6665
641.496	6580
641.977	6691
642.458	6635
642.939	6641
643.42	6663
643.901	6655
644.382	6748
644.863	6730
645.345	6708
645.826	6711
646.307	6703
646.788	6824
647.27	6725
647.751	6728
648.233	6788
648.714	6626
649.196	6785
649.677	6745
650.159	6749
650.64	6685
651.122	6817
651.603	6703
652.085	6764
652.567	6821
653.049	6763
653.53	6763
654.012	6870
654.494	6771
654.976	6840
655.458	6805
655.94	6768
656.422	6868
656.904	6733
657.386	6643
657.868	6643
658.35	6609
658.833	6648
659.315	6667
659.797	6556
660.279	6554
660.762	6580
661.244	6506
661.726	6461
662.209	6494
662.691	6488
663.174	6360
663.656	6399
664.139	6422
664.621	6370
665.104	6328
665.587	6395
666.069	6433
666.552	6415
667.035	6333
667.517	6362
668	6437
668.483	6435
668.966	6372
669.449	6332
669.932	6343
670.415	6403
670.898	6351
671.381	6382
671.864	6380
672.347	6277
672.83	6291
673.313	6299
673.797	6275
674.28	6401
674.763	6400
675.247	6393
675.73	6333
676.213	6381
676.697	6457
677.18	6456
677.664	6472
678.147	6453
678.631	6514
679.114	6584
679.598	6585
680.082	6640
680.565	6627
681.049	6593
681.533	6562
682.017	6605
682.5	6597
682.984	6601
683.468	6608
683.952	6493
684.436	6640
684.92	6565
685.404	6614
685.888	6626
686.372	6559
686.856	6571
687.341	6625
687.825	6521
688.309	6551
688.793	6568
689.278	6500
689.762	6563
690.246	6510
690.731	6506
691.215	6525
691.7	6362
692.184	6460
692.669	6425
693.153	6438
693.638	6327
694.122	6343
694.607	6408
695.092	6326
695.577	6393
696.061	6274
696.546	6305
697.031	6274
697.516	6330
698.001	6345
698.486	6299
698.971	6379
699.456	6212
699.941	6195
700.426	6184
700.911	6267
701.396	6243
701.881	6273
702.366	6220
702.852	6200
703.337	6191
703.822	6167
704.308	6171
704.793	6196
705.278	6213
705.764	6230
706.249	6173
706.735	6177
707.22	6233
707.706	6140
708.191	6224
708.677	6220
709.163	6160
709.648	6180
710.134	6289
710.62	6263
711.106	6270
711.592	6307
712.077	6254
712.563	6080
713.049	6067
713.535	6209
714.021	6207
714.507	6177
714.993	6089
715.479	6127
715.966	6048
716.452	6073
716.938	6089
717.424	5906
717.91	6009
718.397	5942
718.883	5921
719.369	5934
719.856	5858
720.342	5939
720.829	5853
721.315	5875
721.802	5823
722.288	5849
722.775	5626
723.262	5476
723.748	5715
724.235	5686
724.722	5774
725.208	5648
725.695	5638
726.182	5619
726.669	5578
727.156	5638
727.643	5600
728.13	5571
728.617	5488
729.104	5497
729.591	5453
730.078	5503
730.565	5496
731.052	5411
731.539	5424
732.027	5387
732.514	5310
733.001	5340
733.488	5313
733.976	5308
734.463	5289
734.951	5281
735.438	5325
735.926	5252
736.413	5298
736.901	5255
737.388	5284
737.876	5275
738.364	5234
738.851	5272
739.339	5286
739.827	5331
740.314	5137
740.802	5164
741.29	5187
741.778	5125
742.266	5127
742.754	5150
743.242	5197
743.73	5115
744.218	5095
744.706	5044
745.194	5116
745.682	5103
746.17	5111
746.659	5113
747.147	4990
747.635	4993
748.123	4966
748.612	4891
749.1	4842
749.589	4868
750.077	4848
750.566	4828
751.054	4864
751.543	4885
752.031	4765
752.52	4733
753.008	4645
753.497	4661
753.986	4658
754.474	4672
754.963	4706
755.452	4599
755.941	4557
756.43	4549
756.919	4530
757.408	4497
757.896	4511
758.385	4537
758.875	4497
759.364	4455
759.853	4415
760.342	4326
760.831	4422
761.32	4378
761.809	4307
762.299	4334
762.788	4349
763.277	4350
763.767	4309
764.256	4312
764.745	4262
765.235	4314
765.724	4188
766.214	4254
766.703	4212
767.193	4135
767.683	4135
768.172	4041
768.662	4072
769.152	4048
769.641	4053
770.131	3940
770.621	3991
771.111	3930
771.601	3928
772.09	3874
772.58	3827
773.07	3834
773.56	3858
774.05	3766
774.54	3746
775.031	3707
775.521	3696
776.011	3707
776.501	3733
776.991	3656
777.482	3685
777.972	3596
778.462	3591
778.953	3608
779.443	3590
779.933	3590
780.424	3561
780.914	3604
781.405	3617
781.895	3588
782.386	3582
782.877	3563
783.367	3495
783.858	3471
784.349	3476
784.839	3446
785.33	3454
785.821	3448
786.312	3433
786.803	3438
787.293	3450
787.784	3399
788.275	3341
788.766	3329
789.257	3373
789.748	3289
790.24	3247
790.731	3255
791.222	3196
791.713	3186
792.204	3189
792.696	3103
793.187	3128
793.678	3087
794.169	3001
794.661	3039
795.152	2988
795.644	2949
796.135	2951
796.627	2975
797.118	2908
797.61	2884
798.101	2851
798.593	2880
799.085	2829
799.576	2850
800.068	2823
800.56	2840
801.052	2788
801.544	2776
802.035	2775
802.527	2738
803.019	2702
803.511	2678
804.003	2660
804.495	2677
804.987	2654
805.479	2606
805.971	2624
806.464	2625
806.956	2561
807.448	2540
807.94	2556
808.433	2535
808.925	2514
809.417	2491
809.91	2485
810.402	2415
810.894	2441
811.387	2466
811.879	2432
812.372	2443
812.865	2405
813.357	2390
813.85	2370
814.342	2354
814.835	2356
815.328	2345
815.821	2308
816.313	2301
816.806	2310
817.299	2278
817.792	2289
818.285	2243
818.778	2274
819.271	2271
819.764	2233
820.257	2242
820.75	2241
821.243	2250
821.736	2221
822.229	2236
822.722	2223
823.216	2257
