Data from lamp4helium_sterk_Subt2__51__151.txt Node

Date: Wed Apr 09 11:07:00 CEST 2025
User: fys-lab-0081
Spectrometer: S04999
Trigger mode: 0
Resolution mode: 1024 pixels
Integration Time (sec): 1.000000E-1
Scans to average: 1
Nonlinearity correction enabled: false
Boxcar width: 0
Baseline correction enabled: true
XAxis mode: Wavelengths
Number of Pixels in Spectrum: 1024
>>>>>Begin Spectral Data<<<<<
336.42	3
336.877	7
337.334	5
337.792	1
338.249	8
338.706	1
339.164	4
339.621	4
340.079	6
340.536	6
340.994	1
341.452	10
341.909	10
342.367	5
342.825	2
343.283	6
343.741	6
344.198	5
344.656	0
345.114	3
345.572	11
346.03	4
346.488	5
346.947	5
347.405	8
347.863	5
348.321	6
348.779	5
349.238	6
349.696	8
350.154	5
350.613	5
351.071	9
351.53	14
351.988	11
352.447	7
352.905	1
353.364	12
353.823	12
354.282	12
354.74	-1
355.199	13
355.658	14
356.117	9
356.576	12
357.035	5
357.494	9
357.953	10
358.412	17
358.871	9
359.33	8
359.789	6
360.249	17
360.708	15
361.167	16
361.626	18
362.086	15
362.545	16
363.005	15
363.464	13
363.924	20
364.383	15
364.843	19
365.303	17
365.762	26
366.222	19
366.682	19
367.142	20
367.601	21
368.061	18
368.521	22
368.981	18
369.441	28
369.901	23
370.361	23
370.821	24
371.282	21
371.742	26
372.202	26
372.662	30
373.123	28
373.583	26
374.043	31
374.504	29
374.964	27
375.425	31
375.885	31
376.346	31
376.806	35
377.267	35
377.728	37
378.188	31
378.649	31
379.11	40
379.571	34
380.032	36
380.493	36
380.954	49
381.414	40
381.876	41
382.337	43
382.798	49
383.259	51
383.72	49
384.181	51
384.642	55
385.104	52
385.565	62
386.026	65
386.488	62
386.949	62
387.411	65
387.872	67
388.334	67
388.795	71
389.257	69
389.719	72
390.181	75
390.642	74
391.104	75
391.566	81
392.028	84
392.49	92
392.952	90
393.414	89
393.876	95
394.338	93
394.8	91
395.262	90
395.724	102
396.186	106
396.648	102
397.111	101
397.573	108
398.035	106
398.498	109
398.96	112
399.423	110
399.885	116
400.348	119
400.81	122
401.273	123
401.736	119
402.198	134
402.661	134
403.124	132
403.587	142
404.049	144.5
404.512	147
404.975	147
405.438	142
405.901	155
406.364	152
406.827	152
407.29	151
407.754	150
408.217	155
408.68	150
409.143	162
409.607	164
410.07	162
410.533	161
410.997	167
411.46	171
411.924	178
412.387	177
412.851	179
413.314	184
413.778	183
414.242	186
414.705	196
415.169	195
415.633	194
416.097	198
416.561	198
417.024	208
417.488	201
417.952	209
418.416	198
418.88	198
419.344	202
419.809	210
420.273	209
420.737	209
421.201	218
421.665	224
422.13	224
422.594	234
423.059	233
423.523	236
423.987	236
424.452	247
424.916	250
425.381	259
425.846	260
426.31	266
426.775	266
427.24	272
427.704	270
428.169	275
428.634	275
429.099	277
429.564	274
430.029	278
430.494	273
430.959	280
431.424	272
431.889	289
432.354	297
432.819	285
433.284	304
433.75	306
434.215	319
434.68	313
435.146	318
435.611	333
436.077	342
436.542	347
437.008	361
437.473	362
437.939	366
438.404	375
438.87	386
439.336	377
439.801	373
440.267	387
440.733	392
441.199	396
441.665	396
442.131	409
442.596	398
443.062	412
443.529	432
443.995	439
444.461	449
444.927	468
445.393	472
445.859	489
446.325	491
446.792	525
447.258	525
447.724	540
448.191	560
448.657	563
449.124	580
449.59	570
450.057	606
450.523	617
450.99	624
451.457	613
451.923	630
452.39	624
452.857	649
453.324	640
453.791	642
454.257	648
454.724	662
455.191	663
455.658	660
456.125	684
456.592	675
457.059	685
457.527	693
457.994	716
458.461	720
458.928	735
459.396	734
459.863	759
460.33	747
460.798	754
461.265	771
461.732	757
462.2	780
462.668	778
463.135	786
463.603	768
464.07	795
464.538	768
465.006	787
465.474	777
465.941	777
466.409	790
466.877	774
467.345	789
467.813	778
468.281	794
468.749	806
469.217	804
469.685	818
470.153	833
470.621	835
471.09	832
471.558	871
472.026	878
472.494	899
472.963	913
473.431	931
473.9	950
474.368	975
474.837	983
475.305	1002
475.774	1020
476.242	1043
476.711	1049
477.18	1074
477.648	1068
478.117	1071
478.586	1074
479.055	1082
479.524	1089
479.993	1095
480.462	1082
480.93	1090
481.399	1090
481.869	1100
482.338	1091
482.807	1103
483.276	1098
483.745	1102
484.214	1135
484.684	1156
485.153	1159
485.622	1170
486.092	1204
486.561	1177
487.031	1226
487.5	1243
487.97	1259
488.439	1291
488.909	1319
489.378	1361
489.848	1374
490.318	1399
490.787	1455
491.257	1474
491.727	1481
492.197	1499
492.667	1506
493.137	1526
493.607	1527
494.077	1553
494.547	1533
495.017	1529
495.487	1549
495.957	1591
496.427	1557
496.897	1552
497.368	1574
497.838	1560
498.308	1595
498.779	1619
499.249	1620
499.719	1633
500.19	1655
500.66	1663
501.131	1674
501.602	1707
502.072	1695
502.543	1729
503.014	1790
503.484	1775
503.955	1829
504.426	1895
504.897	1908
505.368	1941
505.838	1993
506.309	2036
506.78	2104
507.251	2141
507.722	2186
508.194	2234
508.665	2271
509.136	2260
509.607	2332
510.078	2347
510.549	2365
511.021	2428
511.492	2429
511.964	2464
512.435	2494
512.906	2478
513.378	2493
513.849	2545
514.321	2559
514.793	2582
515.264	2628
515.736	2650
516.208	2690
516.679	2709
517.151	2728
517.623	2759
518.095	2807
518.567	2824
519.038	2886
519.51	2871
519.982	2901
520.454	2940
520.927	2988
521.399	3037
521.871	3073
522.343	3077
522.815	3101
523.287	3095
523.76	3111
524.232	3165
524.704	3193
525.177	3133
525.649	3157
526.122	3196
526.594	3126
527.067	3200
527.539	3231
528.012	3220
528.484	3215
528.957	3232
529.43	3231
529.903	3216
530.375	3328
530.848	3256
531.321	3311
531.794	3307
532.267	3375
532.74	3328
533.213	3325
533.686	3381
534.159	3364
534.632	3447
535.105	3448
535.578	3518
536.051	3524
536.525	3532
536.998	3537
537.471	3622
537.945	3570
538.418	3622
538.891	3644
539.365	3700
539.838	3711
540.312	3695
540.786	3719
541.259	3738
541.733	3796
542.206	3804
542.68	3740
543.154	3740
543.628	3766
544.101	3831
544.575	3777
545.049	3672
545.523	3747
545.997	3728
546.471	3766
546.945	3742
547.419	3794
547.893	3670
548.367	3746
548.842	3705
549.316	3728
549.79	3743
550.264	3723
550.739	3772
551.213	3789
551.687	3786
552.162	3810
552.636	3771
553.111	3776
553.585	3893
554.06	3823
554.534	3892
555.009	3896
555.484	3950
555.958	3981
556.433	3987
556.908	4050
557.383	4008
557.858	4104
558.333	4113
558.807	4098
559.282	4139
559.757	4250
560.232	4231
560.708	4152
561.183	4149
561.658	4216
562.133	4200
562.608	4171
563.083	4287
563.559	4198
564.034	4193
564.509	4192
564.985	4208
565.46	4173
565.936	4250
566.411	4235
566.887	4174
567.362	4211
567.838	4220
568.313	4269
568.789	4200
569.265	4206
569.74	4227
570.216	4188
570.692	4247
571.168	4239
571.644	4262
572.12	4257
572.596	4279
573.071	4300
573.547	4442
574.024	4492
574.5	4525
574.976	4535
575.452	4596
575.928	4670
576.404	4674
576.881	4801
577.357	4736
577.833	4760
578.31	4894
578.786	4930
579.262	4994
579.739	4938
580.215	5091
580.692	5094
581.169	5048
581.645	5053
582.122	5191
582.598	5190
583.075	5170
583.552	5185
584.029	5169
584.506	5154
584.982	5126
585.459	5235
585.936	5141
586.413	5209
586.89	5308
587.367	5264
587.844	5358
588.321	5310
588.799	5327
589.276	5271
589.753	5357
590.23	5386
590.707	5380
591.185	5400
591.662	5416
592.139	5483
592.617	5543
593.094	5524
593.572	5549
594.049	5592
594.527	5624
595.004	5653
595.482	5817
595.96	5774
596.437	5742
596.915	5876
597.393	5796
597.871	5947
598.349	5869
598.826	5993
599.304	5996
599.782	6129
600.26	6077
600.738	6215
601.216	6173
601.694	6220
602.173	6235
602.651	6273
603.129	6234
603.607	6277
604.085	6281
604.564	6309
605.042	6347
605.52	6292
605.999	6429
606.477	6251
606.956	6283
607.434	6355.5
607.913	6428
608.391	6408
608.87	6344
609.348	6258
609.827	6301
610.306	6336
610.785	6348
611.263	6342
611.742	6300
612.221	6208
612.7	6308
613.179	6340
613.658	6264
614.137	6348
614.616	6425
615.095	6318
615.574	6396
616.053	6447
616.532	6394
617.011	6397
617.491	6429
617.97	6418
618.449	6481
618.928	6550
619.408	6499
619.887	6544
620.367	6571
620.846	6635
621.326	6589
621.805	6728
622.285	6743
622.764	6805
623.244	6817
623.724	6843
624.203	6892
624.683	6761
625.163	6898
625.643	6866
626.123	6822
626.602	6983
627.082	6846
627.562	6835
628.042	6948
628.522	6897
629.002	6845
629.482	6885
629.963	6884
630.443	6794
630.923	6802
631.403	6864
631.883	6847
632.364	6884
632.844	6850
633.324	6863
633.805	6837
634.285	6745
634.766	6710
635.246	6722
635.727	6758
636.207	6779
636.688	6736
637.168	6707
637.649	6677
638.13	6700
638.611	6752
639.091	6726
639.572	6674
640.053	6618
640.534	6670
641.015	6668
641.496	6554
641.977	6679
642.458	6626
642.939	6634
643.42	6652
643.901	6649
644.382	6744
644.863	6717
645.345	6706
645.826	6706
646.307	6692
646.788	6806
647.27	6716
647.751	6726
648.233	6772
648.714	6618
649.196	6777
649.677	6730
650.159	6748
650.64	6675
651.122	6783
651.603	6691
652.085	6756
652.567	6818
653.049	6757
653.53	6762
654.012	6870
654.494	6744
654.976	6830
655.458	6795
655.94	6759
656.422	6851
656.904	6719
657.386	6633
657.868	6632
658.35	6591
658.833	6645
659.315	6667
659.797	6558
660.279	6537
660.762	6568
661.244	6495
661.726	6451
662.209	6479
662.691	6471
663.174	6357
663.656	6391
664.139	6403
664.621	6355
665.104	6318
665.587	6391
666.069	6428
666.552	6408
667.035	6328
667.517	6355
668	6436
668.483	6421
668.966	6353
669.449	6334
669.932	6335
670.415	6383
670.898	6350
671.381	6378
671.864	6378
672.347	6271
672.83	6285
673.313	6284
673.797	6279
674.28	6389
674.763	6395
675.247	6390
675.73	6326
676.213	6364
676.697	6447
677.18	6444
677.664	6466
678.147	6457
678.631	6507
679.114	6581
679.598	6580
680.082	6626
680.565	6615
681.049	6579
681.533	6557
682.017	6601
682.5	6584
682.984	6586
683.468	6594
683.952	6488
684.436	6635
684.92	6566
685.404	6605
685.888	6624
686.372	6549
686.856	6558
687.341	6613
687.825	6504
688.309	6539
688.793	6562
689.278	6495
689.762	6557
690.246	6510
690.731	6491
691.215	6517
691.7	6353
692.184	6451
692.669	6422
693.153	6433
693.638	6318
694.122	6338
694.607	6407
695.092	6311
695.577	6384
696.061	6272
696.546	6295
697.031	6263
697.516	6312
698.001	6333
698.486	6305
698.971	6383
699.456	6206
699.941	6195
700.426	6187
700.911	6252
701.396	6231
701.881	6269
702.366	6217
702.852	6202
703.337	6187
703.822	6159
704.308	6161
704.793	6190
705.278	6205
705.764	6223
706.249	6171
706.735	6156
707.22	6222
707.706	6133
708.191	6206
708.677	6209
709.163	6142
709.648	6170
710.134	6279
710.62	6254
711.106	6263
711.592	6317
712.077	6233
712.563	6067
713.049	6042
713.535	6199
714.021	6184
714.507	6178
714.993	6078
715.479	6114
715.966	6039
716.452	6065
716.938	6088
717.424	5892
717.91	6008
718.397	5929
718.883	5897
719.369	5934
719.856	5857
720.342	5934
720.829	5841
721.315	5872
721.802	5812
722.288	5846
722.775	5617
723.262	5469
723.748	5702
724.235	5684
724.722	5761
725.208	5632
725.695	5634
726.182	5617
726.669	5573
727.156	5636
727.643	5598
728.13	5577
728.617	5472
729.104	5492
729.591	5443
730.078	5488
730.565	5482
731.052	5406
731.539	5430
732.027	5378
732.514	5297
733.001	5346
733.488	5309
733.976	5303
734.463	5287
734.951	5276
735.438	5321
735.926	5250
736.413	5294
736.901	5253
737.388	5278
737.876	5264
738.364	5228
738.851	5263
739.339	5275
739.827	5321
740.314	5131
740.802	5161
741.29	5184
741.778	5103
742.266	5115
742.754	5140
743.242	5207
743.73	5106
744.218	5090
744.706	5040
745.194	5111
745.682	5101
746.17	5106
746.659	5096
747.147	4982
747.635	4986
748.123	4969
748.612	4893
749.1	4832
749.589	4858
750.077	4843
750.566	4827
751.054	4859
751.543	4873
752.031	4763
752.52	4732
753.008	4639
753.497	4658
753.986	4646
754.474	4658
754.963	4703
755.452	4593
755.941	4554
756.43	4549
756.919	4521
757.408	4489
757.896	4509
758.385	4537
758.875	4489
759.364	4445
759.853	4401
760.342	4321
760.831	4415
761.32	4369
761.809	4308
762.299	4331
762.788	4344
763.277	4345
763.767	4294
764.256	4303
764.745	4255
765.235	4317
765.724	4184
766.214	4251
766.703	4204
767.193	4133
767.683	4124
768.172	4027
768.662	4067
769.152	4062
769.641	4054
770.131	3934
770.621	3979
771.111	3935
771.601	3918
772.09	3861
772.58	3819
773.07	3827
773.56	3847
774.05	3760
774.54	3737
775.031	3700
775.521	3690
776.011	3704
776.501	3731
776.991	3653
777.482	3679
777.972	3595
778.462	3594
778.953	3602
779.443	3586
779.933	3588
780.424	3561
780.914	3598
781.405	3615
781.895	3584
782.386	3585
782.877	3560
783.367	3494
783.858	3469
784.349	3472
784.839	3432
785.33	3453
785.821	3443
786.312	3428
786.803	3441
787.293	3445
787.784	3393
788.275	3339
788.766	3325
789.257	3363
789.748	3288
790.24	3247
790.731	3254
791.222	3191
791.713	3182
792.204	3190
792.696	3100
793.187	3127
793.678	3095
794.169	2990
794.661	3028
795.152	2982
795.644	2954
796.135	2954
796.627	2974
797.118	2911
797.61	2876
798.101	2840
798.593	2880
799.085	2829
799.576	2837
800.068	2826
800.56	2839
801.052	2778
801.544	2769
802.035	2770
802.527	2734
803.019	2700
803.511	2673
804.003	2658
804.495	2673
804.987	2656
805.479	2604
805.971	2624
806.464	2622
806.956	2558
807.448	2534
807.94	2545
808.433	2527
808.925	2512
809.417	2486
809.91	2485
810.402	2417
810.894	2438
811.387	2466
811.879	2432
812.372	2442
812.865	2397
813.357	2387
813.85	2374
814.342	2347
814.835	2349
815.328	2345
815.821	2301
816.313	2294
816.806	2300
817.299	2276
817.792	2288
818.285	2241
818.778	2268
819.271	2262
819.764	2233
820.257	2236
820.75	2240
821.243	2247
821.736	2213
822.229	2237
822.722	2218
823.216	2252
