Data from lamp4helium_sterk_Subt2__70__170.txt Node

Date: Wed Apr 09 11:07:03 CEST 2025
User: fys-lab-0081
Spectrometer: S04999
Trigger mode: 0
Resolution mode: 1024 pixels
Integration Time (sec): 1.000000E-1
Scans to average: 1
Nonlinearity correction enabled: false
Boxcar width: 0
Baseline correction enabled: true
XAxis mode: Wavelengths
Number of Pixels in Spectrum: 1024
>>>>>Begin Spectral Data<<<<<
336.42	-3
336.877	3
337.334	2
337.792	3
338.249	7
338.706	0
339.164	3
339.621	6
340.079	10
340.536	5
340.994	7
341.452	8
341.909	7
342.367	0
342.825	3
343.283	9
343.741	5
344.198	-2
344.656	1
345.114	5
345.572	6
346.03	5
346.488	3
346.947	5
347.405	14
347.863	5
348.321	2
348.779	8
349.238	7
349.696	6
350.154	-1
350.613	7
351.071	7
351.53	11
351.988	8
352.447	7
352.905	4
353.364	10
353.823	8
354.282	4
354.74	4
355.199	9
355.658	9
356.117	10
356.576	12
357.035	10
357.494	13
357.953	13
358.412	14
358.871	11
359.33	13
359.789	13
360.249	12
360.708	15
361.167	11
361.626	15
362.086	14
362.545	16
363.005	17
363.464	18
363.924	21
364.383	15
364.843	17
365.303	19
365.762	20
366.222	18
366.682	16
367.142	22
367.601	19
368.061	17
368.521	22
368.981	22
369.441	28
369.901	25
370.361	20
370.821	22
371.282	22
371.742	23
372.202	24
372.662	28
373.123	27
373.583	29
374.043	32
374.504	25
374.964	28
375.425	30
375.885	30
376.346	29
376.806	35
377.267	36
377.728	35
378.188	38
378.649	33
379.11	37
379.571	34
380.032	39
380.493	40
380.954	42
381.414	38
381.876	40
382.337	45
382.798	45
383.259	51
383.72	47
384.181	54
384.642	54
385.104	54
385.565	60
386.026	63
386.488	60
386.949	60
387.411	63
387.872	64
388.334	70
388.795	75
389.257	74
389.719	72
390.181	75
390.642	75
391.104	78
391.566	78
392.028	85
392.49	88
392.952	88
393.414	93
393.876	92
394.338	92
394.8	89
395.262	91
395.724	103
396.186	101
396.648	105
397.111	102
397.573	107
398.035	105
398.498	109
398.96	111
399.423	111
399.885	113
400.348	117
400.81	121
401.273	118
401.736	118
402.198	133
402.661	136
403.124	132
403.587	138
404.049	141.5
404.512	145
404.975	149
405.438	145
405.901	149
406.364	152
406.827	158
407.29	150
407.754	148
408.217	153
408.68	153
409.143	161
409.607	164
410.07	163
410.533	162
410.997	167
411.46	170
411.924	177
412.387	174
412.851	178
413.314	182
413.778	185
414.242	190
414.705	195
415.169	196
415.633	194
416.097	192
416.561	200
417.024	201
417.488	195
417.952	203
418.416	200
418.88	198
419.344	200
419.809	203
420.273	207
420.737	206
421.201	212
421.665	222
422.13	224
422.594	227
423.059	231
423.523	236
423.987	233
424.452	248
424.916	250
425.381	256
425.846	258
426.31	266
426.775	268
427.24	274
427.704	271
428.169	273
428.634	276
429.099	274
429.564	269
430.029	276
430.494	273
430.959	280
431.424	274
431.889	289
432.354	295
432.819	287
433.284	304
433.75	304
434.215	321
434.68	314
435.146	316
435.611	328
436.077	345
436.542	347
437.008	361
437.473	361
437.939	366
438.404	376
438.87	383
439.336	377
439.801	373
440.267	384
440.733	392
441.199	391
441.665	393
442.131	406
442.596	394
443.062	414
443.529	429
443.995	441
444.461	439
444.927	464
445.393	465
445.859	486
446.325	492
446.792	523
447.258	526
447.724	539
448.191	556
448.657	562
449.124	580
449.59	573
450.057	609
450.523	612
450.99	624
451.457	616
451.923	630
452.39	626
452.857	639
453.324	631
453.791	643
454.257	650
454.724	659
455.191	663
455.658	658
456.125	685
456.592	669
457.059	686
457.527	693
457.994	717
458.461	721
458.928	731
459.396	733
459.863	752
460.33	750
460.798	757
461.265	764
461.732	756
462.2	778
462.668	773
463.135	791
463.603	763
464.07	793
464.538	765
465.006	785
465.474	770
465.941	777
466.409	783
466.877	767
467.345	789
467.813	779
468.281	790
468.749	807
469.217	802
469.685	816
470.153	833
470.621	829
471.09	829
471.558	871
472.026	868
472.494	898
472.963	906
473.431	934
473.9	953
474.368	972
474.837	987
475.305	999
475.774	1019
476.242	1042
476.711	1044
477.18	1073
477.648	1065
478.117	1081
478.586	1073
479.055	1074
479.524	1093
479.993	1089
480.462	1083
480.93	1081
481.399	1082
481.869	1097
482.338	1086
482.807	1109
483.276	1099
483.745	1101
484.214	1137
484.684	1154
485.153	1161
485.622	1166
486.092	1200
486.561	1176
487.031	1228
487.5	1243
487.97	1255
488.439	1285
488.909	1322
489.378	1366
489.848	1371
490.318	1390
490.787	1452
491.257	1471
491.727	1486
492.197	1499
492.667	1502
493.137	1525
493.607	1525
494.077	1545
494.547	1532
495.017	1523
495.487	1549
495.957	1591
496.427	1546
496.897	1553
497.368	1574
497.838	1566
498.308	1590
498.779	1613
499.249	1618
499.719	1634
500.19	1649
500.66	1660
501.131	1669
501.602	1703
502.072	1696
502.543	1728
503.014	1781
503.484	1771
503.955	1825
504.426	1891
504.897	1903
505.368	1936
505.838	1995
506.309	2038
506.78	2100
507.251	2132
507.722	2188
508.194	2229
508.665	2261
509.136	2260
509.607	2331
510.078	2348
510.549	2366
511.021	2422
511.492	2420
511.964	2459
512.435	2494
512.906	2470
513.378	2488
513.849	2542
514.321	2557
514.793	2583
515.264	2618
515.736	2646
516.208	2691
516.679	2708
517.151	2724
517.623	2747
518.095	2800
518.567	2819
519.038	2870
519.51	2866
519.982	2898
520.454	2928
520.927	2987
521.399	3031
521.871	3063
522.343	3065
522.815	3092
523.287	3087
523.76	3108
524.232	3152
524.704	3178
525.177	3131
525.649	3153
526.122	3192
526.594	3118
527.067	3193
527.539	3226
528.012	3218
528.484	3201
528.957	3218
529.43	3228
529.903	3210
530.375	3322
530.848	3253
531.321	3302
531.794	3308
532.267	3371
532.74	3324
533.213	3321
533.686	3382
534.159	3366
534.632	3445
535.105	3439
535.578	3506
536.051	3523
536.525	3529
536.998	3533
537.471	3607
537.945	3570
538.418	3619
538.891	3645
539.365	3686
539.838	3707
540.312	3689
540.786	3718
541.259	3722
541.733	3787
542.206	3790
542.68	3737
543.154	3744
543.628	3763
544.101	3817
544.575	3763
545.049	3658
545.523	3743
545.997	3717
546.471	3759
546.945	3738
547.419	3793
547.893	3659
548.367	3742
548.842	3691
549.316	3727
549.79	3737
550.264	3715
550.739	3770
551.213	3778
551.687	3786
552.162	3805
552.636	3767
553.111	3771
553.585	3872
554.06	3830
554.534	3885
555.009	3881
555.484	3937
555.958	3978
556.433	3985
556.908	4047
557.383	4002
557.858	4092
558.333	4100
558.807	4081
559.282	4133
559.757	4235
560.232	4228
560.708	4156
561.183	4147
561.658	4210
562.133	4193
562.608	4168
563.083	4275
563.559	4176
564.034	4178
564.509	4186
564.985	4208
565.46	4164
565.936	4239
566.411	4225
566.887	4168
567.362	4202
567.838	4209
568.313	4261
568.789	4182
569.265	4196
569.74	4223
570.216	4186
570.692	4231
571.168	4238
571.644	4254
572.12	4254
572.596	4280
573.071	4285
573.547	4425
574.024	4496
574.5	4506
574.976	4525
575.452	4596
575.928	4653
576.404	4672
576.881	4801
577.357	4722
577.833	4756
578.31	4875
578.786	4921
579.262	4985
579.739	4922
580.215	5081
580.692	5094
581.169	5042
581.645	5048
582.122	5187
582.598	5177
583.075	5160
583.552	5174
584.029	5160
584.506	5160
584.982	5118
585.459	5212
585.936	5143
586.413	5206
586.89	5300
587.367	5262
587.844	5351
588.321	5305
588.799	5330
589.276	5275
589.753	5352
590.23	5375
590.707	5373
591.185	5390
591.662	5411
592.139	5468
592.617	5539
593.094	5520
593.572	5551
594.049	5589
594.527	5618
595.004	5643
595.482	5815
595.96	5763
596.437	5730
596.915	5863
597.393	5791
597.871	5941
598.349	5873
598.826	5982
599.304	5990
599.782	6111
600.26	6074
600.738	6208
601.216	6161
601.694	6204
602.173	6233
602.651	6272
603.129	6210
603.607	6256
604.085	6275
604.564	6294
605.042	6334
605.52	6288
605.999	6408
606.477	6238
606.956	6273
607.434	6346
607.913	6419
608.391	6396
608.87	6340
609.348	6250
609.827	6290
610.306	6338
610.785	6344
611.263	6340
611.742	6284
612.221	6205
612.7	6291
613.179	6332
613.658	6245
614.137	6350
614.616	6408
615.095	6311
615.574	6400
616.053	6432
616.532	6375
617.011	6388
617.491	6435
617.97	6409
618.449	6464
618.928	6528
619.408	6478
619.887	6533
620.367	6570
620.846	6634
621.326	6570
621.805	6714
622.285	6734
622.764	6799
623.244	6808
623.724	6829
624.203	6880
624.683	6756
625.163	6883
625.643	6865
626.123	6797
626.602	6967
627.082	6830
627.562	6807
628.042	6929
628.522	6876
629.002	6834
629.482	6867
629.963	6870
630.443	6797
630.923	6789
631.403	6855
631.883	6835
632.364	6868
632.844	6838
633.324	6848
633.805	6831
634.285	6732
634.766	6701
635.246	6720
635.727	6748
636.207	6764
636.688	6721
637.168	6693
637.649	6666
638.13	6690
638.611	6741
639.091	6701
639.572	6667
640.053	6609
640.534	6665
641.015	6654
641.496	6549
641.977	6684
642.458	6610
642.939	6636
643.42	6636
643.901	6646
644.382	6729
644.863	6719
645.345	6685
645.826	6686
646.307	6692
646.788	6799
647.27	6700
647.751	6702
648.233	6757
648.714	6603
649.196	6764
649.677	6721
650.159	6734
650.64	6675
651.122	6794
651.603	6684
652.085	6748
652.567	6809
653.049	6758
653.53	6746
654.012	6854
654.494	6736
654.976	6817
655.458	6783
655.94	6761
656.422	6848
656.904	6714
657.386	6625
657.868	6628
658.35	6587
658.833	6631
659.315	6653
659.797	6543
660.279	6544
660.762	6554
661.244	6486
661.726	6446
662.209	6468
662.691	6464
663.174	6339
663.656	6382
664.139	6389
664.621	6343
665.104	6309
665.587	6367
666.069	6422
666.552	6389
667.035	6323
667.517	6347
668	6425
668.483	6420
668.966	6354
669.449	6316
669.932	6319
670.415	6388
670.898	6328
671.381	6364
671.864	6369
672.347	6259
672.83	6277
673.313	6272
673.797	6257
674.28	6379
674.763	6388
675.247	6376
675.73	6326
676.213	6365
676.697	6436
677.18	6437
677.664	6447
678.147	6439
678.631	6492
679.114	6571
679.598	6576
680.082	6622
680.565	6604
681.049	6569
681.533	6555
682.017	6585
682.5	6560
682.984	6587
683.468	6579
683.952	6485
684.436	6621
684.92	6566
685.404	6589
685.888	6614
686.372	6540
686.856	6545
687.341	6600
687.825	6496
688.309	6542
688.793	6557
689.278	6477
689.762	6557
690.246	6499
690.731	6497
691.215	6506
691.7	6348
692.184	6455
692.669	6408
693.153	6428
693.638	6305
694.122	6321
694.607	6404
695.092	6322
695.577	6373
696.061	6261
696.546	6285
697.031	6256
697.516	6306
698.001	6323
698.486	6292
698.971	6365
699.456	6201
699.941	6187
700.426	6172
700.911	6247
701.396	6222
701.881	6254
702.366	6208
702.852	6186
703.337	6175
703.822	6154
704.308	6157
704.793	6179
705.278	6193
705.764	6207
706.249	6168
706.735	6155
707.22	6215
707.706	6119
708.191	6208
708.677	6213
709.163	6141
709.648	6158
710.134	6270
710.62	6249
711.106	6242
711.592	6304
712.077	6225
712.563	6055
713.049	6051
713.535	6198
714.021	6192
714.507	6161
714.993	6069
715.479	6103
715.966	6024
716.452	6059
716.938	6074
717.424	5875
717.91	6000
718.397	5928
718.883	5898
719.369	5920
719.856	5847
720.342	5923
720.829	5832
721.315	5860
721.802	5812
722.288	5841
722.775	5608
723.262	5449
723.748	5687
724.235	5673
724.722	5757
725.208	5619
725.695	5620
726.182	5607
726.669	5563
727.156	5634
727.643	5582
728.13	5549
728.617	5473
729.104	5480
729.591	5441
730.078	5477
730.565	5486
731.052	5405
731.539	5422
732.027	5377
732.514	5291
733.001	5332
733.488	5295
733.976	5297
734.463	5276
734.951	5270
735.438	5314
735.926	5237
736.413	5289
736.901	5237
737.388	5283
737.876	5264
738.364	5221
738.851	5255
739.339	5268
739.827	5315
740.314	5129
740.802	5152
741.29	5169
741.778	5099
742.266	5098
742.754	5142
743.242	5185
743.73	5103
744.218	5082
744.706	5038
745.194	5097
745.682	5086
746.17	5091
746.659	5093
747.147	4970
747.635	4979
748.123	4952
748.612	4880
749.1	4829
749.589	4853
750.077	4836
750.566	4815
751.054	4857
751.543	4875
752.031	4756
752.52	4724
753.008	4625
753.497	4647
753.986	4645
754.474	4654
754.963	4685
755.452	4588
755.941	4546
756.43	4530
756.919	4518
757.408	4476
757.896	4509
758.385	4539
758.875	4483
759.364	4436
759.853	4384
760.342	4317
760.831	4418
761.32	4375
761.809	4294
762.299	4327
762.788	4337
763.277	4346
763.767	4289
764.256	4300
764.745	4250
765.235	4303
765.724	4188
766.214	4246
766.703	4205
767.193	4124
767.683	4125
768.172	4027
768.662	4067
769.152	4050
769.641	4045
770.131	3928
770.621	3982
771.111	3918
771.601	3918
772.09	3862
772.58	3811
773.07	3833
773.56	3841
774.05	3752
774.54	3726
775.031	3700
775.521	3687
776.011	3693
776.501	3725
776.991	3642
777.482	3662
777.972	3593
778.462	3572
778.953	3598
779.443	3582
779.933	3583
780.424	3548
780.914	3597
781.405	3617
781.895	3577
782.386	3583
782.877	3553
783.367	3494
783.858	3459
784.349	3468
784.839	3427
785.33	3448
785.821	3443
786.312	3423
786.803	3438
787.293	3435
787.784	3392
788.275	3339
788.766	3322
789.257	3362
789.748	3278
790.24	3243
790.731	3249
791.222	3193
791.713	3175
792.204	3187
792.696	3095
793.187	3117
793.678	3087
794.169	2988
794.661	3026
795.152	2972
795.644	2945
796.135	2948
796.627	2969
797.118	2906
797.61	2884
798.101	2841
798.593	2873
799.085	2821
799.576	2840
800.068	2821
800.56	2843
801.052	2778
801.544	2767
802.035	2769
802.527	2725
803.019	2699
803.511	2663
804.003	2655
804.495	2669
804.987	2649
805.479	2597
805.971	2622
806.464	2615
806.956	2551
807.448	2530
807.94	2541
808.433	2533
808.925	2506
809.417	2483
809.91	2490
810.402	2416
810.894	2435
811.387	2463
811.879	2425
812.372	2438
812.865	2390
813.357	2384
813.85	2373
814.342	2341
814.835	2343
815.328	2340
815.821	2295
816.313	2289
816.806	2306
817.299	2275
817.792	2282
818.285	2237
818.778	2270
819.271	2265
819.764	2229
820.257	2240
820.75	2242
821.243	2239
821.736	2208
822.229	2231
822.722	2208
823.216	2254
