Data from lamp4helium_sterk_Subt2__16__116.txt Node

Date: Wed Apr 09 11:06:56 CEST 2025
User: fys-lab-0081
Spectrometer: S04999
Trigger mode: 0
Resolution mode: 1024 pixels
Integration Time (sec): 1.000000E-1
Scans to average: 1
Nonlinearity correction enabled: false
Boxcar width: 0
Baseline correction enabled: true
XAxis mode: Wavelengths
Number of Pixels in Spectrum: 1024
>>>>>Begin Spectral Data<<<<<
336.42	-3
336.877	7
337.334	5
337.792	4
338.249	6
338.706	4
339.164	9
339.621	3
340.079	6
340.536	6
340.994	5
341.452	7
341.909	8
342.367	2
342.825	-1
343.283	9
343.741	9
344.198	3
344.656	4
345.114	4
345.572	12
346.03	5
346.488	6
346.947	1
347.405	7
347.863	7
348.321	3
348.779	9
349.238	3
349.696	8
350.154	7
350.613	8
351.071	5
351.53	12
351.988	15
352.447	13
352.905	5
353.364	6
353.823	16
354.282	8
354.74	5
355.199	8
355.658	9
356.117	10
356.576	15
357.035	10
357.494	14
357.953	10
358.412	13
358.871	15
359.33	13
359.789	9
360.249	12
360.708	12
361.167	17
361.626	16
362.086	13
362.545	13
363.005	19
363.464	15
363.924	16
364.383	14
364.843	21
365.303	23
365.762	22
366.222	16
366.682	18
367.142	21
367.601	19
368.061	22
368.521	24
368.981	20
369.441	31
369.901	27
370.361	26
370.821	24
371.282	27
371.742	27
372.202	25
372.662	30
373.123	26
373.583	28
374.043	32
374.504	26
374.964	27
375.425	31
375.885	28
376.346	35
376.806	37
377.267	30
377.728	37
378.188	38
378.649	36
379.11	45
379.571	33
380.032	41
380.493	40
380.954	46
381.414	44
381.876	43
382.337	45
382.798	50
383.259	48
383.72	52
384.181	50
384.642	53
385.104	57
385.565	62
386.026	62
386.488	64
386.949	68
387.411	68
387.872	69
388.334	72
388.795	71
389.257	77
389.719	75
390.181	74
390.642	75
391.104	75
391.566	80
392.028	88
392.49	90
392.952	87
393.414	92
393.876	98
394.338	93
394.8	97
395.262	92
395.724	104
396.186	101
396.648	105
397.111	106
397.573	109
398.035	108
398.498	109
398.96	115
399.423	116
399.885	118
400.348	123
400.81	118
401.273	123
401.736	124
402.198	134
402.661	136
403.124	136
403.587	142
404.049	146
404.512	150
404.975	143
405.438	147
405.901	152
406.364	158
406.827	154
407.29	154
407.754	152
408.217	152
408.68	155
409.143	161
409.607	165
410.07	167
410.533	166
410.997	170
411.46	171
411.924	174
412.387	178
412.851	181
413.314	185
413.778	186
414.242	187
414.705	198
415.169	196
415.633	201
416.097	193
416.561	201
417.024	203
417.488	200
417.952	204
418.416	200
418.88	205
419.344	202
419.809	210
420.273	209
420.737	211
421.201	215
421.665	224
422.13	222
422.594	235
423.059	231
423.523	241
423.987	237
424.452	249
424.916	249
425.381	267
425.846	259
426.31	268
426.775	271
427.24	274
427.704	273
428.169	276
428.634	280
429.099	274
429.564	276
430.029	286
430.494	279
430.959	281
431.424	278
431.889	289
432.354	294
432.819	289
433.284	309
433.75	307
434.215	324
434.68	323
435.146	319
435.611	332
436.077	350
436.542	350
437.008	366
437.473	366
437.939	366
438.404	383
438.87	390
439.336	385
439.801	382
440.267	391
440.733	397
441.199	396
441.665	398
442.131	410
442.596	396
443.062	414
443.529	435
443.995	444
444.461	447
444.927	469
445.393	471
445.859	489
446.325	502
446.792	531
447.258	529
447.724	542
448.191	564
448.657	564
449.124	582
449.59	577
450.057	617
450.523	615
450.99	627
451.457	619
451.923	634
452.39	635
452.857	652
453.324	640
453.791	653
454.257	657
454.724	669
455.191	668
455.658	670
456.125	687
456.592	677
457.059	690
457.527	701
457.994	721
458.461	723
458.928	740
459.396	740
459.863	765
460.33	757
460.798	760
461.265	773
461.732	767
462.2	784
462.668	785
463.135	791
463.603	770
464.07	800
464.538	778
465.006	794
465.474	785
465.941	783
466.409	795
466.877	775
467.345	794
467.813	790
468.281	803
468.749	810
469.217	806
469.685	825
470.153	843
470.621	834
471.09	841
471.558	881
472.026	881
472.494	908
472.963	913
473.431	935
473.9	959
474.368	985
474.837	1004
475.305	1012
475.774	1028
476.242	1059
476.711	1058
477.18	1082
477.648	1079
478.117	1089
478.586	1084
479.055	1091
479.524	1102
479.993	1099
480.462	1088
480.93	1096
481.399	1097
481.869	1109
482.338	1091
482.807	1118
483.276	1111
483.745	1109
484.214	1143
484.684	1167
485.153	1166
485.622	1185
486.092	1214
486.561	1183
487.031	1236
487.5	1257
487.97	1265
488.439	1302
488.909	1329
489.378	1381
489.848	1387
490.318	1412
490.787	1474
491.257	1489
491.727	1496
492.197	1515
492.667	1517
493.137	1537
493.607	1548
494.077	1565
494.547	1547
495.017	1536
495.487	1559
495.957	1600
496.427	1570
496.897	1569
497.368	1587
497.838	1578
498.308	1609
498.779	1621
499.249	1637
499.719	1650
500.19	1668
500.66	1678
501.131	1685
501.602	1713
502.072	1708
502.543	1744
503.014	1805
503.484	1791
503.955	1848
504.426	1909
504.897	1924
505.368	1960
505.838	2012
506.309	2052
506.78	2120
507.251	2154
507.722	2200
508.194	2245
508.665	2286
509.136	2283
509.607	2356
510.078	2367
510.549	2386
511.021	2450
511.492	2446
511.964	2486
512.435	2511
512.906	2489
513.378	2512
513.849	2567
514.321	2578
514.793	2598
515.264	2642
515.736	2662
516.208	2710
516.679	2731
517.151	2748
517.623	2780
518.095	2824
518.567	2842
519.038	2906
519.51	2885
519.982	2920
520.454	2955
520.927	3012
521.399	3055
521.871	3083
522.343	3101
522.815	3119
523.287	3115
523.76	3140
524.232	3182
524.704	3209
525.177	3160
525.649	3178
526.122	3215
526.594	3143
527.067	3222
527.539	3256
528.012	3240
528.484	3237
528.957	3251
529.43	3256
529.903	3238
530.375	3352
530.848	3290
531.321	3332
531.794	3336
532.267	3408
532.74	3351
533.213	3344
533.686	3409
534.159	3392
534.632	3469
535.105	3464
535.578	3542
536.051	3546
536.525	3561
536.998	3556
537.471	3642
537.945	3598
538.418	3644
538.891	3670
539.365	3720
539.838	3734
540.312	3721
540.786	3747
541.259	3765
541.733	3816
542.206	3825
542.68	3762
543.154	3762
543.628	3793
544.101	3848
544.575	3795
545.049	3700
545.523	3773
545.997	3754
546.471	3783
546.945	3766
547.419	3823
547.893	3699
548.367	3772
548.842	3726
549.316	3749
549.79	3773
550.264	3749
550.739	3801
551.213	3813
551.687	3811
552.162	3833
552.636	3793
553.111	3802
553.585	3911
554.06	3855
554.534	3921
555.009	3911
555.484	3982
555.958	4015
556.433	4011
556.908	4079
557.383	4040
557.858	4127
558.333	4137
558.807	4122
559.282	4170
559.757	4271
560.232	4264
560.708	4196
561.183	4172
561.658	4234
562.133	4234
562.608	4194
563.083	4318
563.559	4218
564.034	4227
564.509	4222
564.985	4242
565.46	4199
565.936	4282
566.411	4258
566.887	4207
567.362	4244
567.838	4254
568.313	4298
568.789	4230
569.265	4232
569.74	4254
570.216	4222
570.692	4274
571.168	4267
571.644	4283
572.12	4276
572.596	4304
573.071	4325
573.547	4468
574.024	4518
574.5	4549
574.976	4572
575.452	4636
575.928	4693
576.404	4707
576.881	4849
577.357	4762
577.833	4786
578.31	4917
578.786	4960
579.262	5021
579.739	4957
580.215	5128
580.692	5144
581.169	5082
581.645	5082
582.122	5231
582.598	5217
583.075	5200
583.552	5218
584.029	5204
584.506	5188
584.982	5156
585.459	5271
585.936	5175
586.413	5245
586.89	5351
587.367	5308
587.844	5391
588.321	5335
588.799	5368
589.276	5308
589.753	5389
590.23	5427
590.707	5418
591.185	5424
591.662	5456
592.139	5512
592.617	5580
593.094	5551
593.572	5582
594.049	5636
594.527	5666
595.004	5693
595.482	5850
595.96	5806
596.437	5775
596.915	5909
597.393	5834
597.871	5982
598.349	5913
598.826	6027
599.304	6032
599.782	6154
600.26	6120
600.738	6246
601.216	6218
601.694	6252
602.173	6280
602.651	6315
603.129	6269
603.607	6313
604.085	6322
604.564	6350
605.042	6383
605.52	6328
605.999	6475
606.477	6294
606.956	6316
607.434	6396.5
607.913	6477
608.391	6448
608.87	6394
609.348	6298
609.827	6339
610.306	6379
610.785	6381
611.263	6393
611.742	6340
612.221	6254
612.7	6341
613.179	6385
613.658	6301
614.137	6393
614.616	6458
615.095	6364
615.574	6458
616.053	6480
616.532	6421
617.011	6436
617.491	6466
617.97	6452
618.449	6518
618.928	6586
619.408	6526
619.887	6573
620.367	6622
620.846	6685
621.326	6620
621.805	6767
622.285	6779
622.764	6841
623.244	6847
623.724	6878
624.203	6928
624.683	6800
625.163	6935
625.643	6903
626.123	6856
626.602	7019
627.082	6879
627.562	6869
628.042	6993
628.522	6934
629.002	6886
629.482	6936
629.963	6913
630.443	6855
630.923	6863
631.403	6904
631.883	6884
632.364	6925
632.844	6900
633.324	6893
633.805	6881
634.285	6781
634.766	6751
635.246	6770
635.727	6799
636.207	6807
636.688	6768
637.168	6742
637.649	6711
638.13	6742
638.611	6799
639.091	6766
639.572	6720
640.053	6664
640.534	6706
641.015	6688
641.496	6608
641.977	6733
642.458	6657
642.939	6688
643.42	6695
643.901	6703
644.382	6782
644.863	6765
645.345	6739
645.826	6744
646.307	6743
646.788	6859
647.27	6746
647.751	6767
648.233	6810
648.714	6653
649.196	6813
649.677	6772
650.159	6783
650.64	6722
651.122	6842
651.603	6735
652.085	6802
652.567	6858
653.049	6808
653.53	6802
654.012	6913
654.494	6792
654.976	6869
655.458	6830
655.94	6793
656.422	6883
656.904	6761
657.386	6666
657.868	6672
658.35	6633
658.833	6674
659.315	6707
659.797	6596
660.279	6596
660.762	6607
661.244	6528
661.726	6496
662.209	6509
662.691	6511
663.174	6398
663.656	6428
664.139	6440
664.621	6394
665.104	6353
665.587	6427
666.069	6459
666.552	6438
667.035	6365
667.517	6400
668	6480
668.483	6464
668.966	6397
669.449	6358
669.932	6371
670.415	6424
670.898	6376
671.381	6408
671.864	6418
672.347	6306
672.83	6303
673.313	6310
673.797	6313
674.28	6424
674.763	6418
675.247	6433
675.73	6362
676.213	6406
676.697	6487
677.18	6487
677.664	6499
678.147	6487
678.631	6545
679.114	6616
679.598	6611
680.082	6666
680.565	6648
681.049	6624
681.533	6593
682.017	6647
682.5	6620
682.984	6621
683.468	6629
683.952	6526
684.436	6670
684.92	6601
685.404	6635
685.888	6663
686.372	6580
686.856	6600
687.341	6655
687.825	6549
688.309	6579
688.793	6596
689.278	6541
689.762	6593
690.246	6539
690.731	6531
691.215	6556
691.7	6387
692.184	6496
692.669	6455
693.153	6468
693.638	6359
694.122	6372
694.607	6439
695.092	6356
695.577	6418
696.061	6318
696.546	6322
697.031	6304
697.516	6351
698.001	6369
698.486	6341
698.971	6417
699.456	6237
699.941	6228
700.426	6213
700.911	6302
701.396	6268
701.881	6295
702.366	6245
702.852	6235
703.337	6232
703.822	6191
704.308	6185
704.793	6221
705.278	6238
705.764	6259
706.249	6197
706.735	6204
707.22	6258
707.706	6174
708.191	6246
708.677	6235
709.163	6180
709.648	6212
710.134	6327
710.62	6281
711.106	6292
711.592	6350
712.077	6282
712.563	6104
713.049	6084
713.535	6243
714.021	6231
714.507	6206
714.993	6107
715.479	6155
715.966	6082
716.452	6098
716.938	6115
717.424	5921
717.91	6042
718.397	5974
718.883	5938
719.369	5962
719.856	5887
720.342	5962
720.829	5875
721.315	5898
721.802	5850
722.288	5872
722.775	5643
723.262	5494
723.748	5740
724.235	5718
724.722	5796
725.208	5671
725.695	5667
726.182	5651
726.669	5599
727.156	5677
727.643	5626
728.13	5594
728.617	5503
729.104	5523
729.591	5482
730.078	5536
730.565	5511
731.052	5431
731.539	5444
732.027	5413
732.514	5330
733.001	5366
733.488	5336
733.976	5334
734.463	5317
734.951	5312
735.438	5346
735.926	5267
736.413	5317
736.901	5277
737.388	5313
737.876	5297
738.364	5252
738.851	5303
739.339	5303
739.827	5358
740.314	5166
740.802	5188
741.29	5197
741.778	5140
742.266	5141
742.754	5168
743.242	5223
743.73	5141
744.218	5116
744.706	5070
745.194	5137
745.682	5124
746.17	5129
746.659	5139
747.147	5012
747.635	5002
748.123	4991
748.612	4913
749.1	4858
749.589	4890
750.077	4864
750.566	4852
751.054	4882
751.543	4910
752.031	4786
752.52	4745
753.008	4655
753.497	4674
753.986	4669
754.474	4683
754.963	4709
755.452	4612
755.941	4573
756.43	4566
756.919	4544
757.408	4499
757.896	4535
758.385	4560
758.875	4519
759.364	4463
759.853	4423
760.342	4351
760.831	4433
761.32	4394
761.809	4320
762.299	4341
762.788	4361
763.277	4368
763.767	4321
764.256	4325
764.745	4274
765.235	4341
765.724	4207
766.214	4280
766.703	4231
767.193	4153
767.683	4137
768.172	4059
768.662	4092
769.152	4075
769.641	4078
770.131	3941
770.621	4013
771.111	3935
771.601	3937
772.09	3879
772.58	3838
773.07	3855
773.56	3868
774.05	3787
774.54	3753
775.031	3723
775.521	3707
776.011	3714
776.501	3754
776.991	3665
777.482	3704
777.972	3616
778.462	3609
778.953	3629
779.443	3610
779.933	3603
780.424	3577
780.914	3612
781.405	3636
781.895	3600
782.386	3598
782.877	3575
783.367	3513
783.858	3496
784.349	3487
784.839	3452
785.33	3468
785.821	3464
786.312	3448
786.803	3453
787.293	3464
787.784	3410
788.275	3362
788.766	3336
789.257	3383
789.748	3300
790.24	3261
790.731	3263
791.222	3209
791.713	3202
792.204	3207
792.696	3113
793.187	3135
793.678	3102
794.169	3013
794.661	3051
795.152	2996
795.644	2964
796.135	2966
796.627	2980
797.118	2922
797.61	2894
798.101	2864
798.593	2891
799.085	2839
799.576	2858
800.068	2830
800.56	2855
801.052	2790
801.544	2793
802.035	2783
802.527	2751
803.019	2717
803.511	2693
804.003	2669
804.495	2695
804.987	2675
805.479	2619
805.971	2631
806.464	2631
806.956	2565
807.448	2558
807.94	2551
808.433	2538
808.925	2522
809.417	2506
809.91	2492
810.402	2425
810.894	2448
811.387	2480
811.879	2442
812.372	2454
812.865	2404
813.357	2397
813.85	2392
814.342	2364
814.835	2361
815.328	2352
815.821	2316
816.313	2306
816.806	2311
817.299	2280
817.792	2298
818.285	2256
818.778	2280
819.271	2276
819.764	2241
820.257	2256
820.75	2252
821.243	2255
821.736	2223
822.229	2251
822.722	2225
823.216	2264
