Data from lamp4helium_sterk_Subt2__28__128.txt Node

Date: Wed Apr 09 11:06:58 CEST 2025
User: fys-lab-0081
Spectrometer: S04999
Trigger mode: 0
Resolution mode: 1024 pixels
Integration Time (sec): 1.000000E-1
Scans to average: 1
Nonlinearity correction enabled: false
Boxcar width: 0
Baseline correction enabled: true
XAxis mode: Wavelengths
Number of Pixels in Spectrum: 1024
>>>>>Begin Spectral Data<<<<<
336.42	-1
336.877	9
337.334	3
337.792	7
338.249	8
338.706	8
339.164	3
339.621	4
340.079	4
340.536	9
340.994	3
341.452	8
341.909	8
342.367	2
342.825	1
343.283	2
343.741	2
344.198	5
344.656	5
345.114	6
345.572	5
346.03	1
346.488	6
346.947	6
347.405	8
347.863	1
348.321	5
348.779	7
349.238	5
349.696	4
350.154	4
350.613	10
351.071	6
351.53	11
351.988	12
352.447	9
352.905	9
353.364	6
353.823	7
354.282	4
354.74	2
355.199	12
355.658	7
356.117	8
356.576	7
357.035	12
357.494	11
357.953	11
358.412	15
358.871	15
359.33	15
359.789	8
360.249	11
360.708	14
361.167	19
361.626	13
362.086	13
362.545	14
363.005	16
363.464	15
363.924	20
364.383	16
364.843	21
365.303	22
365.762	21
366.222	22
366.682	16
367.142	21
367.601	19
368.061	20
368.521	22
368.981	22
369.441	27
369.901	27
370.361	22
370.821	18
371.282	24
371.742	27
372.202	24
372.662	28
373.123	22
373.583	25
374.043	30
374.504	27
374.964	25
375.425	28
375.885	30
376.346	36
376.806	33
377.267	34
377.728	37
378.188	38
378.649	33
379.11	39
379.571	33
380.032	42
380.493	43
380.954	47
381.414	43
381.876	39
382.337	42
382.798	47
383.259	51
383.72	48
384.181	46
384.642	54
385.104	60
385.565	59
386.026	63
386.488	61
386.949	63
387.411	65
387.872	67
388.334	69
388.795	74
389.257	72
389.719	71
390.181	78
390.642	73
391.104	75
391.566	83
392.028	83
392.49	92
392.952	91
393.414	93
393.876	96
394.338	91
394.8	92
395.262	90
395.724	101
396.186	105
396.648	103
397.111	106
397.573	108
398.035	104
398.498	110
398.96	111
399.423	111
399.885	114
400.348	119
400.81	117
401.273	122
401.736	117
402.198	137
402.661	135
403.124	131
403.587	138
404.049	142
404.512	146
404.975	148
405.438	149
405.901	156
406.364	155
406.827	151
407.29	150
407.754	154
408.217	155
408.68	153
409.143	166
409.607	166
410.07	163
410.533	165
410.997	171
411.46	172
411.924	180
412.387	177
412.851	179
413.314	182
413.778	185
414.242	187
414.705	197
415.169	195
415.633	194
416.097	195
416.561	201
417.024	203
417.488	201
417.952	201
418.416	198
418.88	204
419.344	201
419.809	204
420.273	211
420.737	205
421.201	216
421.665	218
422.13	220
422.594	231
423.059	234
423.523	237
423.987	236
424.452	249
424.916	254
425.381	258
425.846	258
426.31	266
426.775	275
427.24	276
427.704	272
428.169	277
428.634	281
429.099	277
429.564	272
430.029	277
430.494	277
430.959	280
431.424	277
431.889	294
432.354	297
432.819	291
433.284	308
433.75	301
434.215	319
434.68	315
435.146	318
435.611	337
436.077	345
436.542	348
437.008	362
437.473	367
437.939	369
438.404	380
438.87	383
439.336	376
439.801	378
440.267	391
440.733	396
441.199	395
441.665	397
442.131	410
442.596	403
443.062	413
443.529	430
443.995	440
444.461	445
444.927	471
445.393	467
445.859	490
446.325	493
446.792	530
447.258	531
447.724	540
448.191	560
448.657	565
449.124	576
449.59	572
450.057	611
450.523	619
450.99	623
451.457	620
451.923	641
452.39	627
452.857	652
453.324	638
453.791	652
454.257	652
454.724	662
455.191	660
455.658	667
456.125	687
456.592	676
457.059	688
457.527	701
457.994	721
458.461	726
458.928	739
459.396	741
459.863	757
460.33	754
460.798	754
461.265	767
461.732	759
462.2	784
462.668	776
463.135	792
463.603	766
464.07	794
464.538	771
465.006	791
465.474	779
465.941	779
466.409	787
466.877	776
467.345	800
467.813	785
468.281	800
468.749	811
469.217	805
469.685	818
470.153	837
470.621	834
471.09	837
471.558	877
472.026	877
472.494	897
472.963	916
473.431	937
473.9	955
474.368	982
474.837	993
475.305	1005
475.774	1020
476.242	1054
476.711	1051
477.18	1082
477.648	1073
478.117	1084
478.586	1083
479.055	1086
479.524	1090
479.993	1088
480.462	1090
480.93	1090
481.399	1095
481.869	1105
482.338	1087
482.807	1112
483.276	1109
483.745	1106
484.214	1141
484.684	1162
485.153	1167
485.622	1175
486.092	1208
486.561	1177
487.031	1237
487.5	1250
487.97	1264
488.439	1291
488.909	1326
489.378	1374
489.848	1380
490.318	1406
490.787	1463
491.257	1476
491.727	1487
492.197	1510
492.667	1513
493.137	1532
493.607	1535
494.077	1561
494.547	1541
495.017	1529
495.487	1559
495.957	1603
496.427	1558
496.897	1563
497.368	1583
497.838	1570
498.308	1605
498.779	1622
499.249	1622
499.719	1641
500.19	1664
500.66	1670
501.131	1680
501.602	1716
502.072	1708
502.543	1736
503.014	1798
503.484	1779
503.955	1841
504.426	1906
504.897	1912
505.368	1951
505.838	2009
506.309	2045
506.78	2111
507.251	2151
507.722	2191
508.194	2241
508.665	2279
509.136	2274
509.607	2349
510.078	2357
510.549	2373
511.021	2439
511.492	2438
511.964	2477
512.435	2512
512.906	2483
513.378	2500
513.849	2557
514.321	2574
514.793	2588
515.264	2641
515.736	2660
516.208	2709
516.679	2724
517.151	2736
517.623	2759
518.095	2820
518.567	2836
519.038	2886
519.51	2878
519.982	2919
520.454	2949
520.927	2997
521.399	3045
521.871	3084
522.343	3094
522.815	3111
523.287	3102
523.76	3124
524.232	3173
524.704	3202
525.177	3141
525.649	3170
526.122	3203
526.594	3135
527.067	3208
527.539	3249
528.012	3233
528.484	3224
528.957	3238
529.43	3237
529.903	3228
530.375	3344
530.848	3266
531.321	3318
531.794	3325
532.267	3393
532.74	3341
533.213	3336
533.686	3401
534.159	3381
534.632	3451
535.105	3448
535.578	3526
536.051	3537
536.525	3543
536.998	3548
537.471	3635
537.945	3590
538.418	3637
538.891	3666
539.365	3710
539.838	3731
540.312	3703
540.786	3742
541.259	3743
541.733	3800
542.206	3816
542.68	3749
543.154	3761
543.628	3771
544.101	3841
544.575	3780
545.049	3688
545.523	3768
545.997	3741
546.471	3770
546.945	3748
547.419	3818
547.893	3682
548.367	3759
548.842	3718
549.316	3729
549.79	3759
550.264	3733
550.739	3789
551.213	3794
551.687	3808
552.162	3828
552.636	3789
553.111	3785
553.585	3899
554.06	3834
554.534	3910
555.009	3899
555.484	3963
555.958	4007
556.433	4002
556.908	4075
557.383	4033
557.858	4113
558.333	4126
558.807	4115
559.282	4157
559.757	4258
560.232	4244
560.708	4176
561.183	4157
561.658	4228
562.133	4217
562.608	4188
563.083	4304
563.559	4205
564.034	4210
564.509	4212
564.985	4225
565.46	4189
565.936	4259
566.411	4248
566.887	4190
567.362	4220
567.838	4243
568.313	4277
568.789	4201
569.265	4211
569.74	4245
570.216	4205
570.692	4257
571.168	4256
571.644	4268
572.12	4275
572.596	4300
573.071	4307
573.547	4450
574.024	4515
574.5	4538
574.976	4550
575.452	4618
575.928	4672
576.404	4697
576.881	4819
577.357	4753
577.833	4776
578.31	4909
578.786	4945
579.262	5018
579.739	4946
580.215	5109
580.692	5131
581.169	5057
581.645	5069
582.122	5199
582.598	5199
583.075	5189
583.552	5202
584.029	5181
584.506	5175
584.982	5137
585.459	5246
585.936	5166
586.413	5231
586.89	5337
587.367	5292
587.844	5384
588.321	5328
588.799	5345
589.276	5299
589.753	5361
590.23	5413
590.707	5404
591.185	5423
591.662	5429
592.139	5498
592.617	5568
593.094	5535
593.572	5574
594.049	5618
594.527	5647
595.004	5675
595.482	5831
595.96	5788
596.437	5770
596.915	5890
597.393	5814
597.871	5954
598.349	5893
598.826	6005
599.304	6022
599.782	6147
600.26	6105
600.738	6227
601.216	6195
601.694	6245
602.173	6268
602.651	6296
603.129	6250
603.607	6292
604.085	6312
604.564	6335
605.042	6367
605.52	6322
605.999	6447
606.477	6275
606.956	6310
607.434	6385.5
607.913	6461
608.391	6428
608.87	6372
609.348	6271
609.827	6310
610.306	6360
610.785	6371
611.263	6352
611.742	6316
612.221	6238
612.7	6326
613.179	6369
613.658	6279
614.137	6373
614.616	6436
615.095	6340
615.574	6435
616.053	6452
616.532	6398
617.011	6421
617.491	6463
617.97	6426
618.449	6506
618.928	6560
619.408	6507
619.887	6563
620.367	6603
620.846	6663
621.326	6604
621.805	6757
622.285	6770
622.764	6833
623.244	6846
623.724	6859
624.203	6920
624.683	6790
625.163	6922
625.643	6894
626.123	6835
626.602	6993
627.082	6865
627.562	6842
628.042	6973
628.522	6910
629.002	6869
629.482	6893
629.963	6908
630.443	6831
630.923	6831
631.403	6880
631.883	6863
632.364	6900
632.844	6871
633.324	6878
633.805	6859
634.285	6769
634.766	6716
635.246	6751
635.727	6778
636.207	6794
636.688	6760
637.168	6725
637.649	6706
638.13	6726
638.611	6785
639.091	6747
639.572	6690
640.053	6651
640.534	6702
641.015	6687
641.496	6591
641.977	6716
642.458	6643
642.939	6665
643.42	6672
643.901	6666
644.382	6756
644.863	6744
645.345	6728
645.826	6730
646.307	6713
646.788	6828
647.27	6735
647.751	6739
648.233	6800
648.714	6633
649.196	6797
649.677	6748
650.159	6758
650.64	6705
651.122	6822
651.603	6712
652.085	6769
652.567	6833
653.049	6786
653.53	6779
654.012	6887
654.494	6775
654.976	6846
655.458	6819
655.94	6782
656.422	6873
656.904	6749
657.386	6661
657.868	6661
658.35	6620
658.833	6656
659.315	6685
659.797	6574
660.279	6574
660.762	6585
661.244	6518
661.726	6471
662.209	6494
662.691	6505
663.174	6366
663.656	6409
664.139	6424
664.621	6383
665.104	6346
665.587	6412
666.069	6443
666.552	6437
667.035	6351
667.517	6371
668	6453
668.483	6442
668.966	6382
669.449	6346
669.932	6354
670.415	6411
670.898	6362
671.381	6387
671.864	6394
672.347	6301
672.83	6301
673.313	6301
673.797	6302
674.28	6410
674.763	6415
675.247	6411
675.73	6351
676.213	6390
676.697	6467
677.18	6474
677.664	6479
678.147	6472
678.631	6524
679.114	6594
679.598	6601
680.082	6652
680.565	6639
681.049	6603
681.533	6582
682.017	6613
682.5	6600
682.984	6612
683.468	6616
683.952	6505
684.436	6650
684.92	6584
685.404	6626
685.888	6650
686.372	6564
686.856	6586
687.341	6634
687.825	6532
688.309	6559
688.793	6589
689.278	6511
689.762	6579
690.246	6531
690.731	6521
691.215	6538
691.7	6368
692.184	6476
692.669	6437
693.153	6461
693.638	6338
694.122	6351
694.607	6427
695.092	6339
695.577	6404
696.061	6296
696.546	6326
697.031	6277
697.516	6334
698.001	6349
698.486	6321
698.971	6394
699.456	6223
699.941	6213
700.426	6199
700.911	6277
701.396	6254
701.881	6288
702.366	6238
702.852	6215
703.337	6212
703.822	6182
704.308	6184
704.793	6206
705.278	6214
705.764	6240
706.249	6188
706.735	6180
707.22	6242
707.706	6161
708.191	6230
708.677	6223
709.163	6169
709.648	6192
710.134	6308
710.62	6273
711.106	6274
711.592	6330
712.077	6275
712.563	6087
713.049	6063
713.535	6213
714.021	6214
714.507	6195
714.993	6104
715.479	6133
715.966	6054
716.452	6087
716.938	6100
717.424	5902
717.91	6018
718.397	5961
718.883	5922
719.369	5951
719.856	5879
720.342	5943
720.829	5856
721.315	5885
721.802	5826
722.288	5863
722.775	5629
723.262	5482
723.748	5725
724.235	5707
724.722	5788
725.208	5659
725.695	5646
726.182	5642
726.669	5589
727.156	5658
727.643	5605
728.13	5576
728.617	5497
729.104	5505
729.591	5471
730.078	5509
730.565	5504
731.052	5414
731.539	5433
732.027	5403
732.514	5329
733.001	5361
733.488	5317
733.976	5316
734.463	5300
734.951	5297
735.438	5337
735.926	5270
736.413	5312
736.901	5266
737.388	5301
737.876	5280
738.364	5244
738.851	5291
739.339	5294
739.827	5342
740.314	5158
740.802	5179
741.29	5196
741.778	5128
742.266	5133
742.754	5154
743.242	5205
743.73	5126
744.218	5098
744.706	5057
745.194	5130
745.682	5111
746.17	5111
746.659	5115
747.147	4989
747.635	4989
748.123	4972
748.612	4904
749.1	4848
749.589	4865
750.077	4861
750.566	4842
751.054	4870
751.543	4886
752.031	4779
752.52	4743
753.008	4639
753.497	4667
753.986	4662
754.474	4672
754.963	4704
755.452	4605
755.941	4567
756.43	4547
756.919	4539
757.408	4497
757.896	4522
758.385	4558
758.875	4498
759.364	4457
759.853	4407
760.342	4331
760.831	4441
761.32	4380
761.809	4309
762.299	4343
762.788	4359
763.277	4359
763.767	4316
764.256	4326
764.745	4265
765.235	4329
765.724	4195
766.214	4261
766.703	4220
767.193	4151
767.683	4133
768.172	4046
768.662	4081
769.152	4060
769.641	4065
770.131	3943
770.621	3985
771.111	3940
771.601	3923
772.09	3885
772.58	3833
773.07	3840
773.56	3862
774.05	3777
774.54	3737
775.031	3714
775.521	3705
776.011	3712
776.501	3744
776.991	3658
777.482	3686
777.972	3601
778.462	3601
778.953	3621
779.443	3602
779.933	3603
780.424	3564
780.914	3612
781.405	3620
781.895	3597
782.386	3587
782.877	3566
783.367	3505
783.858	3483
784.349	3482
784.839	3451
785.33	3465
785.821	3451
786.312	3435
786.803	3451
787.293	3450
787.784	3402
788.275	3356
788.766	3329
789.257	3372
789.748	3293
790.24	3262
790.731	3257
791.222	3201
791.713	3190
792.204	3194
792.696	3103
793.187	3132
793.678	3101
794.169	3006
794.661	3037
795.152	2987
795.644	2957
796.135	2960
796.627	2978
797.118	2921
797.61	2891
798.101	2854
798.593	2887
799.085	2834
799.576	2849
800.068	2829
800.56	2850
801.052	2787
801.544	2779
802.035	2779
802.527	2740
803.019	2703
803.511	2683
804.003	2670
804.495	2682
804.987	2663
805.479	2617
805.971	2623
806.464	2631
806.956	2562
807.448	2548
807.94	2558
808.433	2546
808.925	2518
809.417	2501
809.91	2486
810.402	2420
810.894	2449
811.387	2474
811.879	2435
812.372	2449
812.865	2403
813.357	2390
813.85	2379
814.342	2357
814.835	2350
815.328	2351
815.821	2308
816.313	2311
816.806	2310
817.299	2281
817.792	2288
818.285	2247
818.778	2282
819.271	2272
819.764	2241
820.257	2248
820.75	2248
821.243	2246
821.736	2222
822.229	2247
822.722	2228
823.216	2264
