Data from lamp4helium_sterk_Subt2__96__196.txt Node

Date: Wed Apr 09 11:07:06 CEST 2025
User: fys-lab-0081
Spectrometer: S04999
Trigger mode: 0
Resolution mode: 1024 pixels
Integration Time (sec): 1.000000E-1
Scans to average: 1
Nonlinearity correction enabled: false
Boxcar width: 0
Baseline correction enabled: true
XAxis mode: Wavelengths
Number of Pixels in Spectrum: 1024
>>>>>Begin Spectral Data<<<<<
336.42	1
336.877	5
337.334	7
337.792	4
338.249	5
338.706	3
339.164	4
339.621	5
340.079	5
340.536	3
340.994	4
341.452	8
341.909	9
342.367	3
342.825	3
343.283	4
343.741	5
344.198	6
344.656	3
345.114	4
345.572	8
346.03	4
346.488	5
346.947	5
347.405	5
347.863	3
348.321	5
348.779	9
349.238	6
349.696	2
350.154	0
350.613	6
351.071	9
351.53	12
351.988	8
352.447	8
352.905	7
353.364	9
353.823	6
354.282	9
354.74	4
355.199	12
355.658	15
356.117	9
356.576	11
357.035	9
357.494	12
357.953	13
358.412	15
358.871	12
359.33	12
359.789	11
360.249	11
360.708	12
361.167	16
361.626	13
362.086	11
362.545	13
363.005	20
363.464	12
363.924	16
364.383	16
364.843	22
365.303	24
365.762	23
366.222	20
366.682	19
367.142	21
367.601	18
368.061	20
368.521	22
368.981	16
369.441	30
369.901	23
370.361	21
370.821	20
371.282	21
371.742	25
372.202	25
372.662	29
373.123	20
373.583	28
374.043	33
374.504	27
374.964	33
375.425	31
375.885	28
376.346	37
376.806	41
377.267	33
377.728	40
378.188	37
378.649	35
379.11	37
379.571	33
380.032	41
380.493	46
380.954	43
381.414	40
381.876	45
382.337	39
382.798	45
383.259	48
383.72	53
384.181	51
384.642	53
385.104	60
385.565	56
386.026	62
386.488	60
386.949	64
387.411	66
387.872	67
388.334	72
388.795	71
389.257	71
389.719	75
390.181	74
390.642	73
391.104	81
391.566	79
392.028	81
392.49	90
392.952	92
393.414	87
393.876	96
394.338	91
394.8	93
395.262	88
395.724	100
396.186	102
396.648	102
397.111	102
397.573	108
398.035	106
398.498	106
398.96	108
399.423	108
399.885	111
400.348	117
400.81	121
401.273	121
401.736	119
402.198	136
402.661	134
403.124	131
403.587	144
404.049	143
404.512	142
404.975	144
405.438	147
405.901	151
406.364	148
406.827	150
407.29	153
407.754	151
408.217	151
408.68	153
409.143	161
409.607	165
410.07	162
410.533	161
410.997	170
411.46	170
411.924	179
412.387	176
412.851	178
413.314	177
413.778	183
414.242	186
414.705	197
415.169	198
415.633	196
416.097	189
416.561	199
417.024	203
417.488	195
417.952	207
418.416	198
418.88	196
419.344	202
419.809	208
420.273	210
420.737	209
421.201	212
421.665	218
422.13	223
422.594	229
423.059	236
423.523	235
423.987	235
424.452	247
424.916	248
425.381	262
425.846	253
426.31	268
426.775	270
427.24	271
427.704	267
428.169	272
428.634	270
429.099	278
429.564	274
430.029	273
430.494	275
430.959	277
431.424	275
431.889	291
432.354	290
432.819	290
433.284	307
433.75	305
434.215	318
434.68	311
435.146	318
435.611	335
436.077	339
436.542	347
437.008	361
437.473	363
437.939	361
438.404	375
438.87	384
439.336	377
439.801	373
440.267	386
440.733	395
441.199	391
441.665	396
442.131	408
442.596	400
443.062	410
443.529	433
443.995	440
444.461	442
444.927	466
445.393	470
445.859	486
446.325	494
446.792	524
447.258	521
447.724	540
448.191	554
448.657	557
449.124	578
449.59	571
450.057	607
450.523	610
450.99	623
451.457	619
451.923	635
452.39	627
452.857	641
453.324	638
453.791	649
454.257	648
454.724	657
455.191	657
455.658	663
456.125	685
456.592	670
457.059	681
457.527	694
457.994	714
458.461	715
458.928	732
459.396	731
459.863	756
460.33	745
460.798	752
461.265	764
461.732	757
462.2	780
462.668	773
463.135	784
463.603	761
464.07	791
464.538	762
465.006	782
465.474	776
465.941	772
466.409	779
466.877	769
467.345	797
467.813	774
468.281	789
468.749	807
469.217	795
469.685	815
470.153	836
470.621	835
471.09	835
471.558	874
472.026	870
472.494	899
472.963	905
473.431	934
473.9	951
474.368	977
474.837	986
475.305	997
475.774	1014
476.242	1040
476.711	1042
477.18	1077
477.648	1063
478.117	1073
478.586	1069
479.055	1081
479.524	1092
479.993	1089
480.462	1075
480.93	1081
481.399	1087
481.869	1096
482.338	1082
482.807	1104
483.276	1096
483.745	1093
484.214	1133
484.684	1159
485.153	1155
485.622	1168
486.092	1199
486.561	1182
487.031	1218
487.5	1247
487.97	1253
488.439	1282
488.909	1318
489.378	1365
489.848	1367
490.318	1391
490.787	1456
491.257	1471
491.727	1476
492.197	1499
492.667	1506
493.137	1521
493.607	1524
494.077	1544
494.547	1528
495.017	1515
495.487	1545
495.957	1586
496.427	1542
496.897	1545
497.368	1570
497.838	1570
498.308	1583
498.779	1606
499.249	1616
499.719	1638
500.19	1653
500.66	1655
501.131	1664
501.602	1699
502.072	1698
502.543	1720
503.014	1785
503.484	1773
503.955	1824
504.426	1891
504.897	1895
505.368	1938
505.838	1994
506.309	2034
506.78	2099
507.251	2134
507.722	2177
508.194	2227
508.665	2259
509.136	2254
509.607	2334
510.078	2351
510.549	2365
511.021	2418
511.492	2417
511.964	2463
512.435	2488
512.906	2466
513.378	2491
513.849	2536
514.321	2551
514.793	2574
515.264	2623
515.736	2636
516.208	2685
516.679	2705
517.151	2727
517.623	2755
518.095	2801
518.567	2824
519.038	2866
519.51	2858
519.982	2891
520.454	2929
520.927	2981
521.399	3028
521.871	3062
522.343	3068
522.815	3082
523.287	3083
523.76	3101
524.232	3151
524.704	3180
525.177	3119
525.649	3148
526.122	3189
526.594	3110
527.067	3183
527.539	3231
528.012	3210
528.484	3198
528.957	3220
529.43	3220
529.903	3200
530.375	3316
530.848	3249
531.321	3299
531.794	3299
532.267	3365
532.74	3316
533.213	3314
533.686	3375
534.159	3363
534.632	3439
535.105	3429
535.578	3505
536.051	3515
536.525	3524
536.998	3533
537.471	3605
537.945	3561
538.418	3602
538.891	3633
539.365	3687
539.838	3704
540.312	3689
540.786	3713
541.259	3721
541.733	3785
542.206	3787
542.68	3723
543.154	3739
543.628	3748
544.101	3816
544.575	3753
545.049	3663
545.523	3738
545.997	3719
546.471	3745
546.945	3728
547.419	3784
547.893	3660
548.367	3733
548.842	3693
549.316	3720
549.79	3732
550.264	3708
550.739	3763
551.213	3773
551.687	3778
552.162	3803
552.636	3764
553.111	3767
553.585	3872
554.06	3825
554.534	3879
555.009	3870
555.484	3934
555.958	3976
556.433	3980
556.908	4040
557.383	3998
557.858	4093
558.333	4101
558.807	4088
559.282	4131
559.757	4236
560.232	4220
560.708	4146
561.183	4134
561.658	4201
562.133	4184
562.608	4155
563.083	4277
563.559	4181
564.034	4181
564.509	4182
564.985	4205
565.46	4157
565.936	4226
566.411	4219
566.887	4171
567.362	4200
567.838	4206
568.313	4253
568.789	4182
569.265	4194
569.74	4216
570.216	4178
570.692	4233
571.168	4239
571.644	4241
572.12	4241
572.596	4264
573.071	4276
573.547	4419
574.024	4478
574.5	4510
574.976	4517
575.452	4588
575.928	4656
576.404	4662
576.881	4792
577.357	4712
577.833	4756
578.31	4863
578.786	4911
579.262	4981
579.739	4914
580.215	5073
580.692	5096
581.169	5038
581.645	5032
582.122	5185
582.598	5168
583.075	5156
583.552	5162
584.029	5147
584.506	5142
584.982	5108
585.459	5215
585.936	5142
586.413	5191
586.89	5300
587.367	5254
587.844	5343
588.321	5296
588.799	5306
589.276	5257
589.753	5337
590.23	5370
590.707	5364
591.185	5376
591.662	5395
592.139	5455
592.617	5527
593.094	5504
593.572	5538
594.049	5582
594.527	5607
595.004	5645
595.482	5805
595.96	5756
596.437	5727
596.915	5853
597.393	5772
597.871	5927
598.349	5861
598.826	5972
599.304	5971
599.782	6109
600.26	6065
600.738	6193
601.216	6160
601.694	6202
602.173	6228
602.651	6259
603.129	6216
603.607	6248
604.085	6274
604.564	6295
605.042	6329
605.52	6274
605.999	6413
606.477	6244
606.956	6265
607.434	6340.5
607.913	6416
608.391	6401
608.87	6332
609.348	6232
609.827	6282
610.306	6325
610.785	6329
611.263	6331
611.742	6282
612.221	6195
612.7	6292
613.179	6328
613.658	6237
614.137	6330
614.616	6394
615.095	6304
615.574	6383
616.053	6428
616.532	6372
617.011	6382
617.491	6421
617.97	6397
618.449	6468
618.928	6515
619.408	6467
619.887	6523
620.367	6558
620.846	6622
621.326	6565
621.805	6707
622.285	6719
622.764	6786
623.244	6792
623.724	6815
624.203	6879
624.683	6742
625.163	6875
625.643	6856
626.123	6796
626.602	6958
627.082	6821
627.562	6810
628.042	6924
628.522	6867
629.002	6831
629.482	6860
629.963	6860
630.443	6796
630.923	6793
631.403	6839
631.883	6828
632.364	6865
632.844	6834
633.324	6842
633.805	6823
634.285	6721
634.766	6691
635.246	6705
635.727	6739
636.207	6754
636.688	6708
637.168	6684
637.649	6668
638.13	6674
638.611	6736
639.091	6713
639.572	6657
640.053	6602
640.534	6657
641.015	6656
641.496	6547
641.977	6670
642.458	6612
642.939	6621
643.42	6638
643.901	6634
644.382	6731
644.863	6702
645.345	6681
645.826	6684
646.307	6686
646.788	6801
647.27	6688
647.751	6702
648.233	6754
648.714	6601
649.196	6761
649.677	6717
650.159	6724
650.64	6664
651.122	6789
651.603	6673
652.085	6733
652.567	6804
653.049	6736
653.53	6748
654.012	6838
654.494	6737
654.976	6810
655.458	6776
655.94	6739
656.422	6842
656.904	6709
657.386	6614
657.868	6614
658.35	6573
658.833	6617
659.315	6651
659.797	6541
660.279	6526
660.762	6555
661.244	6466
661.726	6423
662.209	6470
662.691	6456
663.174	6340
663.656	6370
664.139	6392
664.621	6342
665.104	6301
665.587	6375
666.069	6407
666.552	6387
667.035	6304
667.517	6347
668	6406
668.483	6400
668.966	6346
669.449	6316
669.932	6320
670.415	6368
670.898	6326
671.381	6356
671.864	6360
672.347	6265
672.83	6266
673.313	6270
673.797	6252
674.28	6370
674.763	6380
675.247	6377
675.73	6311
676.213	6356
676.697	6431
677.18	6429
677.664	6443
678.147	6431
678.631	6485
679.114	6564
679.598	6568
680.082	6624
680.565	6590
681.049	6561
681.533	6540
682.017	6573
682.5	6570
682.984	6575
683.468	6572
683.952	6469
684.436	6611
684.92	6545
685.404	6592
685.888	6604
686.372	6536
686.856	6544
687.341	6601
687.825	6498
688.309	6517
688.793	6546
689.278	6482
689.762	6549
690.246	6487
690.731	6470
691.215	6501
691.7	6350
692.184	6438
692.669	6394
693.153	6415
693.638	6296
694.122	6320
694.607	6384
695.092	6300
695.577	6368
696.061	6252
696.546	6280
697.031	6246
697.516	6296
698.001	6317
698.486	6288
698.971	6365
699.456	6188
699.941	6175
700.426	6162
700.911	6244
701.396	6207
701.881	6251
702.366	6187
702.852	6189
703.337	6179
703.822	6135
704.308	6137
704.793	6181
705.278	6181
705.764	6203
706.249	6148
706.735	6151
707.22	6200
707.706	6112
708.191	6205
708.677	6195
709.163	6134
709.648	6156
710.134	6264
710.62	6232
711.106	6241
711.592	6293
712.077	6222
712.563	6051
713.049	6041
713.535	6193
714.021	6183
714.507	6152
714.993	6066
715.479	6085
715.966	6025
716.452	6063
716.938	6068
717.424	5876
717.91	5989
718.397	5923
718.883	5891
719.369	5919
719.856	5847
720.342	5911
720.829	5822
721.315	5842
721.802	5795
722.288	5822
722.775	5596
723.262	5448
723.748	5681
724.235	5671
724.722	5753
725.208	5620
725.695	5616
726.182	5600
726.669	5554
727.156	5622
727.643	5571
728.13	5545
728.617	5466
729.104	5485
729.591	5438
730.078	5472
730.565	5469
731.052	5385
731.539	5403
732.027	5373
732.514	5293
733.001	5328
733.488	5292
733.976	5292
734.463	5278
734.951	5256
735.438	5303
735.926	5234
736.413	5278
736.901	5235
737.388	5272
737.876	5249
738.364	5208
738.851	5259
739.339	5258
739.827	5305
740.314	5122
740.802	5151
741.29	5159
741.778	5088
742.266	5100
742.754	5126
743.242	5181
743.73	5107
744.218	5077
744.706	5029
745.194	5090
745.682	5083
746.17	5093
746.659	5088
747.147	4962
747.635	4967
748.123	4945
748.612	4877
749.1	4816
749.589	4844
750.077	4826
750.566	4812
751.054	4841
751.543	4865
752.031	4747
752.52	4721
753.008	4628
753.497	4647
753.986	4638
754.474	4646
754.963	4685
755.452	4582
755.941	4535
756.43	4537
756.919	4506
757.408	4465
757.896	4507
758.385	4525
758.875	4478
759.364	4428
759.853	4392
760.342	4318
760.831	4408
761.32	4361
761.809	4289
762.299	4323
762.788	4335
763.277	4337
763.767	4282
764.256	4300
764.745	4253
765.235	4306
765.724	4173
766.214	4233
766.703	4183
767.193	4127
767.683	4116
768.172	4018
768.662	4054
769.152	4046
769.641	4050
770.131	3921
770.621	3967
771.111	3921
771.601	3907
772.09	3859
772.58	3805
773.07	3822
773.56	3836
774.05	3761
774.54	3729
775.031	3686
775.521	3673
776.011	3691
776.501	3722
776.991	3634
777.482	3667
777.972	3583
778.462	3575
778.953	3594
779.443	3583
779.933	3573
780.424	3552
780.914	3586
781.405	3602
781.895	3574
782.386	3576
782.877	3548
783.367	3486
783.858	3464
784.349	3461
784.839	3420
785.33	3440
785.821	3433
786.312	3421
786.803	3423
787.293	3424
787.784	3391
788.275	3336
788.766	3304
789.257	3365
789.748	3276
790.24	3236
790.731	3241
791.222	3177
791.713	3170
792.204	3179
792.696	3083
793.187	3117
793.678	3083
794.169	2989
794.661	3018
795.152	2971
795.644	2942
796.135	2943
796.627	2955
797.118	2905
797.61	2881
798.101	2843
798.593	2871
799.085	2812
799.576	2841
800.068	2808
800.56	2840
801.052	2775
801.544	2765
802.035	2759
802.527	2729
803.019	2694
803.511	2674
804.003	2651
804.495	2671
804.987	2648
805.479	2598
805.971	2613
806.464	2617
806.956	2546
807.448	2528
807.94	2543
808.433	2520
808.925	2501
809.417	2479
809.91	2482
810.402	2411
810.894	2431
811.387	2455
811.879	2426
812.372	2436
812.865	2389
813.357	2380
813.85	2366
814.342	2345
814.835	2342
815.328	2338
815.821	2292
816.313	2295
816.806	2295
817.299	2266
817.792	2275
818.285	2237
818.778	2266
819.271	2262
819.764	2230
820.257	2237
820.75	2233
821.243	2232
821.736	2207
822.229	2231
822.722	2207
823.216	2248
