Data from lamp4helium_sterk_Subt2__81__181.txt Node

Date: Wed Apr 09 11:07:04 CEST 2025
User: fys-lab-0081
Spectrometer: S04999
Trigger mode: 0
Resolution mode: 1024 pixels
Integration Time (sec): 1.000000E-1
Scans to average: 1
Nonlinearity correction enabled: false
Boxcar width: 0
Baseline correction enabled: true
XAxis mode: Wavelengths
Number of Pixels in Spectrum: 1024
>>>>>Begin Spectral Data<<<<<
336.42	2
336.877	2
337.334	1
337.792	2
338.249	7
338.706	2
339.164	1
339.621	2
340.079	4
340.536	7
340.994	6
341.452	6
341.909	8
342.367	8
342.825	5
343.283	9
343.741	1
344.198	6
344.656	8
345.114	3
345.572	8
346.03	1
346.488	3
346.947	6
347.405	7
347.863	5
348.321	7
348.779	9
349.238	2
349.696	11
350.154	5
350.613	8
351.071	4
351.53	14
351.988	12
352.447	6
352.905	6
353.364	11
353.823	8
354.282	8
354.74	3
355.199	11
355.658	14
356.117	13
356.576	9
357.035	9
357.494	10
357.953	9
358.412	17
358.871	16
359.33	11
359.789	11
360.249	13
360.708	14
361.167	16
361.626	13
362.086	12
362.545	14
363.005	13
363.464	18
363.924	17
364.383	17
364.843	21
365.303	22
365.762	20
366.222	18
366.682	21
367.142	25
367.601	22
368.061	17
368.521	20
368.981	20
369.441	30
369.901	25
370.361	22
370.821	21
371.282	22
371.742	21
372.202	25
372.662	29
373.123	26
373.583	28
374.043	34
374.504	28
374.964	32
375.425	28
375.885	31
376.346	35
376.806	39
377.267	34
377.728	38
378.188	39
378.649	35
379.11	37
379.571	36
380.032	40
380.493	40
380.954	44
381.414	41
381.876	44
382.337	50
382.798	48
383.259	51
383.72	50
384.181	48
384.642	53
385.104	55
385.565	57
386.026	63
386.488	61
386.949	64
387.411	64
387.872	73
388.334	74
388.795	72
389.257	71
389.719	73
390.181	72
390.642	76
391.104	78
391.566	82
392.028	86
392.49	90
392.952	91
393.414	91
393.876	93
394.338	89
394.8	96
395.262	89
395.724	99
396.186	100
396.648	104
397.111	103
397.573	111
398.035	102
398.498	111
398.96	111
399.423	111
399.885	114
400.348	116
400.81	119
401.273	119
401.736	120
402.198	132
402.661	133
403.124	131
403.587	142
404.049	144
404.512	146
404.975	146
405.438	147
405.901	156
406.364	150
406.827	150
407.29	151
407.754	150
408.217	155
408.68	151
409.143	160
409.607	164
410.07	161
410.533	162
410.997	166
411.46	170
411.924	177
412.387	176
412.851	178
413.314	179
413.778	181
414.242	187
414.705	197
415.169	193
415.633	199
416.097	194
416.561	197
417.024	201
417.488	194
417.952	202
418.416	199
418.88	202
419.344	200
419.809	206
420.273	210
420.737	208
421.201	218
421.665	220
422.13	222
422.594	228
423.059	230
423.523	237
423.987	235
424.452	243
424.916	249
425.381	257
425.846	256
426.31	263
426.775	264
427.24	275
427.704	271
428.169	273
428.634	276
429.099	274
429.564	274
430.029	274
430.494	275
430.959	276
431.424	275
431.889	287
432.354	292
432.819	290
433.284	303
433.75	300
434.215	316
434.68	316
435.146	322
435.611	333
436.077	345
436.542	347
437.008	366
437.473	364
437.939	366
438.404	375
438.87	384
439.336	374
439.801	374
440.267	383
440.733	390
441.199	390
441.665	395
442.131	402
442.596	403
443.062	412
443.529	432
443.995	439
444.461	445
444.927	466
445.393	465
445.859	489
446.325	491
446.792	521
447.258	523
447.724	541
448.191	556
448.657	564
449.124	578
449.59	566
450.057	604
450.523	610
450.99	617
451.457	615
451.923	626
452.39	625
452.857	644
453.324	636
453.791	648
454.257	647
454.724	657
455.191	657
455.658	659
456.125	683
456.592	663
457.059	680
457.527	697
457.994	713
458.461	717
458.928	734
459.396	730
459.863	752
460.33	747
460.798	753
461.265	764
461.732	759
462.2	774
462.668	770
463.135	787
463.603	764
464.07	795
464.538	760
465.006	783
465.474	776
465.941	778
466.409	785
466.877	771
467.345	790
467.813	779
468.281	795
468.749	807
469.217	805
469.685	813
470.153	838
470.621	832
471.09	829
471.558	872
472.026	871
472.494	900
472.963	902
473.431	929
473.9	945
474.368	972
474.837	990
475.305	1004
475.774	1015
476.242	1042
476.711	1047
477.18	1070
477.648	1066
478.117	1076
478.586	1074
479.055	1085
479.524	1091
479.993	1089
480.462	1084
480.93	1087
481.399	1088
481.869	1092
482.338	1084
482.807	1102
483.276	1093
483.745	1096
484.214	1132
484.684	1155
485.153	1157
485.622	1167
486.092	1200
486.561	1179
487.031	1218
487.5	1243
487.97	1254
488.439	1278
488.909	1318
489.378	1372
489.848	1369
490.318	1397
490.787	1452
491.257	1475
491.727	1477
492.197	1499
492.667	1505
493.137	1521
493.607	1532
494.077	1549
494.547	1530
495.017	1522
495.487	1552
495.957	1584
496.427	1553
496.897	1546
497.368	1571
497.838	1564
498.308	1594
498.779	1617
499.249	1612
499.719	1632
500.19	1649
500.66	1661
501.131	1667
501.602	1698
502.072	1699
502.543	1721
503.014	1782
503.484	1776
503.955	1831
504.426	1899
504.897	1905
505.368	1938
505.838	1988
506.309	2031
506.78	2098
507.251	2136
507.722	2179
508.194	2226
508.665	2260
509.136	2258
509.607	2322
510.078	2343
510.549	2361
511.021	2421
511.492	2423
511.964	2462
512.435	2490
512.906	2470
513.378	2483
513.849	2539
514.321	2556
514.793	2578
515.264	2622
515.736	2639
516.208	2691
516.679	2703
517.151	2728
517.623	2751
518.095	2802
518.567	2827
519.038	2874
519.51	2858
519.982	2896
520.454	2937
520.927	2991
521.399	3029
521.871	3063
522.343	3071
522.815	3089
523.287	3084
523.76	3107
524.232	3152
524.704	3171
525.177	3121
525.649	3155
526.122	3180
526.594	3113
527.067	3194
527.539	3227
528.012	3219
528.484	3201
528.957	3225
529.43	3224
529.903	3209
530.375	3322
530.848	3244
531.321	3298
531.794	3302
532.267	3379
532.74	3315
533.213	3313
533.686	3370
534.159	3368
534.632	3439
535.105	3439
535.578	3509
536.051	3516
536.525	3536
536.998	3530
537.471	3618
537.945	3560
538.418	3618
538.891	3633
539.365	3690
539.838	3705
540.312	3688
540.786	3712
541.259	3721
541.733	3782
542.206	3793
542.68	3724
543.154	3725
543.628	3753
544.101	3820
544.575	3764
545.049	3671
545.523	3743
545.997	3716
546.471	3757
546.945	3728
547.419	3784
547.893	3650
548.367	3733
548.842	3696
549.316	3719
549.79	3737
550.264	3714
550.739	3762
551.213	3771
551.687	3779
552.162	3802
552.636	3763
553.111	3764
553.585	3881
554.06	3819
554.534	3887
555.009	3878
555.484	3939
555.958	3989
556.433	3984
556.908	4037
557.383	4010
557.858	4093
558.333	4101
558.807	4089
559.282	4131
559.757	4241
560.232	4225
560.708	4144
561.183	4130
561.658	4211
562.133	4196
562.608	4169
563.083	4275
563.559	4183
564.034	4196
564.509	4182
564.985	4197
565.46	4160
565.936	4238
566.411	4216
566.887	4167
567.362	4201
567.838	4216
568.313	4248
568.789	4194
569.265	4192
569.74	4225
570.216	4170
570.692	4244
571.168	4241
571.644	4248
572.12	4247
572.596	4271
573.071	4286
573.547	4427
574.024	4486
574.5	4514
574.976	4535
575.452	4586
575.928	4653
576.404	4679
576.881	4801
577.357	4708
577.833	4756
578.31	4870
578.786	4922
579.262	4981
579.739	4918
580.215	5082
580.692	5101
581.169	5044
581.645	5046
582.122	5186
582.598	5185
583.075	5157
583.552	5178
584.029	5164
584.506	5149
584.982	5114
585.459	5222
585.936	5139
586.413	5205
586.89	5301
587.367	5253
587.844	5345
588.321	5306
588.799	5326
589.276	5264
589.753	5348
590.23	5380
590.707	5370
591.185	5387
591.662	5410
592.139	5468
592.617	5534
593.094	5508
593.572	5532
594.049	5575
594.527	5620
595.004	5643
595.482	5815
595.96	5767
596.437	5743
596.915	5862
597.393	5779
597.871	5934
598.349	5864
598.826	5972
599.304	5981
599.782	6111
600.26	6069
600.738	6191
601.216	6165
601.694	6200
602.173	6235
602.651	6261
603.129	6212
603.607	6260
604.085	6277
604.564	6304
605.042	6338
605.52	6289
605.999	6419
606.477	6230
606.956	6278
607.434	6350
607.913	6422
608.391	6390
608.87	6338
609.348	6237
609.827	6283
610.306	6331
610.785	6338
611.263	6325
611.742	6281
612.221	6196
612.7	6294
613.179	6331
613.658	6243
614.137	6340
614.616	6404
615.095	6312
615.574	6403
616.053	6426
616.532	6365
617.011	6387
617.491	6425
617.97	6391
618.449	6477
618.928	6528
619.408	6473
619.887	6529
620.367	6564
620.846	6631
621.326	6567
621.805	6717
622.285	6722
622.764	6798
623.244	6800
623.724	6829
624.203	6881
624.683	6734
625.163	6885
625.643	6856
626.123	6798
626.602	6957
627.082	6820
627.562	6811
628.042	6932
628.522	6878
629.002	6835
629.482	6877
629.963	6876
630.443	6792
630.923	6790
631.403	6843
631.883	6834
632.364	6870
632.844	6835
633.324	6835
633.805	6828
634.285	6734
634.766	6698
635.246	6715
635.727	6747
636.207	6755
636.688	6716
637.168	6689
637.649	6661
638.13	6676
638.611	6744
639.091	6701
639.572	6663
640.053	6611
640.534	6660
641.015	6649
641.496	6550
641.977	6661
642.458	6601
642.939	6626
643.42	6638
643.901	6630
644.382	6731
644.863	6710
645.345	6686
645.826	6683
646.307	6676
646.788	6788
647.27	6695
647.751	6701
648.233	6757
648.714	6609
649.196	6772
649.677	6717
650.159	6732
650.64	6666
651.122	6784
651.603	6680
652.085	6743
652.567	6803
653.049	6745
653.53	6746
654.012	6847
654.494	6748
654.976	6816
655.458	6782
655.94	6744
656.422	6846
656.904	6707
657.386	6615
657.868	6626
658.35	6586
658.833	6625
659.315	6646
659.797	6546
660.279	6529
660.762	6550
661.244	6480
661.726	6430
662.209	6474
662.691	6462
663.174	6343
663.656	6383
664.139	6403
664.621	6356
665.104	6302
665.587	6374
666.069	6411
666.552	6399
667.035	6305
667.517	6348
668	6422
668.483	6407
668.966	6348
669.449	6317
669.932	6317
670.415	6377
670.898	6334
671.381	6360
671.864	6369
672.347	6267
672.83	6269
673.313	6264
673.797	6253
674.28	6377
674.763	6380
675.247	6384
675.73	6319
676.213	6366
676.697	6445
677.18	6438
677.664	6441
678.147	6445
678.631	6482
679.114	6563
679.598	6571
680.082	6625
680.565	6599
681.049	6568
681.533	6542
682.017	6593
682.5	6571
682.984	6575
683.468	6579
683.952	6482
684.436	6626
684.92	6551
685.404	6593
685.888	6616
686.372	6542
686.856	6545
687.341	6606
687.825	6506
688.309	6531
688.793	6551
689.278	6480
689.762	6548
690.246	6496
690.731	6486
691.215	6503
691.7	6347
692.184	6435
692.669	6413
693.153	6426
693.638	6309
694.122	6317
694.607	6397
695.092	6315
695.577	6370
696.061	6269
696.546	6288
697.031	6249
697.516	6303
698.001	6320
698.486	6292
698.971	6372
699.456	6192
699.941	6159
700.426	6168
700.911	6248
701.396	6223
701.881	6260
702.366	6204
702.852	6185
703.337	6184
703.822	6145
704.308	6144
704.793	6184
705.278	6190
705.764	6203
706.249	6168
706.735	6146
707.22	6212
707.706	6122
708.191	6198
708.677	6200
709.163	6133
709.648	6163
710.134	6268
710.62	6242
711.106	6237
711.592	6291
712.077	6224
712.563	6059
713.049	6041
713.535	6182
714.021	6181
714.507	6154
714.993	6075
715.479	6102
715.966	6024
716.452	6049
716.938	6068
717.424	5869
717.91	5991
718.397	5928
718.883	5901
719.369	5914
719.856	5834
720.342	5912
720.829	5835
721.315	5859
721.802	5808
722.288	5832
722.775	5609
723.262	5453
723.748	5694
724.235	5664
724.722	5751
725.208	5626
725.695	5620
726.182	5616
726.669	5564
727.156	5614
727.643	5582
728.13	5548
728.617	5474
729.104	5478
729.591	5436
730.078	5476
730.565	5473
731.052	5387
731.539	5407
732.027	5367
732.514	5292
733.001	5334
733.488	5300
733.976	5298
734.463	5272
734.951	5271
735.438	5303
735.926	5233
736.413	5283
736.901	5241
737.388	5277
737.876	5257
738.364	5223
738.851	5265
739.339	5265
739.827	5319
740.314	5125
740.802	5156
741.29	5162
741.778	5096
742.266	5107
742.754	5132
743.242	5194
743.73	5098
744.218	5077
744.706	5031
745.194	5104
745.682	5079
746.17	5086
746.659	5102
747.147	4969
747.635	4966
748.123	4951
748.612	4882
749.1	4830
749.589	4854
750.077	4832
750.566	4820
751.054	4848
751.543	4864
752.031	4747
752.52	4725
753.008	4625
753.497	4631
753.986	4635
754.474	4641
754.963	4676
755.452	4585
755.941	4548
756.43	4536
756.919	4515
757.408	4471
757.896	4504
758.385	4535
758.875	4483
759.364	4437
759.853	4393
760.342	4322
760.831	4405
761.32	4371
761.809	4288
762.299	4324
762.788	4337
763.277	4344
763.767	4286
764.256	4299
764.745	4240
765.235	4306
765.724	4178
766.214	4239
766.703	4203
767.193	4132
767.683	4111
768.172	4024
768.662	4062
769.152	4037
769.641	4047
770.131	3929
770.621	3970
771.111	3918
771.601	3902
772.09	3864
772.58	3811
773.07	3819
773.56	3841
774.05	3758
774.54	3722
775.031	3687
775.521	3681
776.011	3690
776.501	3729
776.991	3636
777.482	3673
777.972	3582
778.462	3577
778.953	3600
779.443	3585
779.933	3573
780.424	3545
780.914	3587
781.405	3610
781.895	3577
782.386	3569
782.877	3550
783.367	3490
783.858	3464
784.349	3469
784.839	3425
785.33	3448
785.821	3438
786.312	3418
786.803	3432
787.293	3438
787.784	3379
788.275	3340
788.766	3315
789.257	3363
789.748	3282
790.24	3240
790.731	3244
791.222	3189
791.713	3168
792.204	3182
792.696	3095
793.187	3120
793.678	3079
794.169	2986
794.661	3029
795.152	2969
795.644	2938
796.135	2949
796.627	2967
797.118	2910
797.61	2874
798.101	2834
798.593	2863
799.085	2818
799.576	2838
800.068	2815
800.56	2837
801.052	2776
801.544	2774
802.035	2762
802.527	2722
803.019	2690
803.511	2669
804.003	2652
804.495	2665
804.987	2644
805.479	2596
805.971	2618
806.464	2614
806.956	2549
807.448	2532
807.94	2544
808.433	2523
808.925	2501
809.417	2487
809.91	2483
810.402	2417
810.894	2435
811.387	2459
811.879	2429
812.372	2436
812.865	2390
813.357	2384
813.85	2369
814.342	2336
814.835	2340
815.328	2338
815.821	2298
816.313	2293
816.806	2295
817.299	2273
817.792	2273
818.285	2239
818.778	2264
819.271	2256
819.764	2233
820.257	2234
820.75	2242
821.243	2235
821.736	2208
822.229	2232
822.722	2211
823.216	2248
