Data from lamp4helium_sterk_Subt2__67__167.txt Node

Date: Wed Apr 09 11:07:02 CEST 2025
User: fys-lab-0081
Spectrometer: S04999
Trigger mode: 0
Resolution mode: 1024 pixels
Integration Time (sec): 1.000000E-1
Scans to average: 1
Nonlinearity correction enabled: false
Boxcar width: 0
Baseline correction enabled: true
XAxis mode: Wavelengths
Number of Pixels in Spectrum: 1024
>>>>>Begin Spectral Data<<<<<
336.42	-3
336.877	3
337.334	5
337.792	6
338.249	5
338.706	3
339.164	5
339.621	3
340.079	4
340.536	5
340.994	5
341.452	6
341.909	7
342.367	2
342.825	-1
343.283	8
343.741	4
344.198	5
344.656	8
345.114	0
345.572	4
346.03	4
346.488	6
346.947	3
347.405	6
347.863	5
348.321	3
348.779	9
349.238	10
349.696	6
350.154	3
350.613	6
351.071	8
351.53	13
351.988	9
352.447	9
352.905	6
353.364	9
353.823	13
354.282	5
354.74	6
355.199	12
355.658	11
356.117	5
356.576	9
357.035	9
357.494	16
357.953	9
358.412	13
358.871	13
359.33	13
359.789	8
360.249	9
360.708	14
361.167	15
361.626	16
362.086	13
362.545	13
363.005	18
363.464	15
363.924	20
364.383	10
364.843	17
365.303	26
365.762	26
366.222	20
366.682	15
367.142	20
367.601	22
368.061	24
368.521	20
368.981	19
369.441	27
369.901	25
370.361	18
370.821	22
371.282	24
371.742	28
372.202	29
372.662	26
373.123	26
373.583	30
374.043	30
374.504	30
374.964	28
375.425	30
375.885	33
376.346	36
376.806	38
377.267	32
377.728	34
378.188	40
378.649	33
379.11	39
379.571	33
380.032	39
380.493	43
380.954	46
381.414	40
381.876	42
382.337	43
382.798	53
383.259	51
383.72	50
384.181	50
384.642	50
385.104	56
385.565	56
386.026	63
386.488	62
386.949	64
387.411	64
387.872	69
388.334	73
388.795	73
389.257	71
389.719	73
390.181	72
390.642	74
391.104	77
391.566	81
392.028	82
392.49	92
392.952	89
393.414	91
393.876	92
394.338	93
394.8	91
395.262	93
395.724	103
396.186	102
396.648	101
397.111	105
397.573	108
398.035	104
398.498	108
398.96	112
399.423	111
399.885	112
400.348	118
400.81	120
401.273	119
401.736	121
402.198	139
402.661	134
403.124	130
403.587	142
404.049	144.5
404.512	147
404.975	146
405.438	145
405.901	152
406.364	151
406.827	153
407.29	150
407.754	150
408.217	152
408.68	151
409.143	162
409.607	164
410.07	161
410.533	160
410.997	168
411.46	170
411.924	174
412.387	176
412.851	176
413.314	182
413.778	181
414.242	185
414.705	197
415.169	197
415.633	194
416.097	192
416.561	197
417.024	206
417.488	202
417.952	205
418.416	198
418.88	200
419.344	203
419.809	204
420.273	209
420.737	203
421.201	209
421.665	214
422.13	219
422.594	225
423.059	228
423.523	239
423.987	237
424.452	250
424.916	249
425.381	256
425.846	254
426.31	266
426.775	269
427.24	273
427.704	266
428.169	273
428.634	275
429.099	273
429.564	276
430.029	275
430.494	278
430.959	277
431.424	275
431.889	286
432.354	292
432.819	282
433.284	303
433.75	308
434.215	320
434.68	314
435.146	316
435.611	332
436.077	344
436.542	344
437.008	363
437.473	365
437.939	363
438.404	375
438.87	386
439.336	374
439.801	373
440.267	383
440.733	395
441.199	395
441.665	396
442.131	405
442.596	396
443.062	414
443.529	428
443.995	436
444.461	443
444.927	464
445.393	464
445.859	486
446.325	490
446.792	522
447.258	524
447.724	532
448.191	557
448.657	560
449.124	578
449.59	570
450.057	605
450.523	617
450.99	623
451.457	614
451.923	631
452.39	627
452.857	644
453.324	633
453.791	648
454.257	650
454.724	655
455.191	658
455.658	662
456.125	681
456.592	674
457.059	685
457.527	691
457.994	716
458.461	719
458.928	729
459.396	733
459.863	756
460.33	748
460.798	756
461.265	766
461.732	757
462.2	778
462.668	770
463.135	786
463.603	758
464.07	789
464.538	771
465.006	789
465.474	774
465.941	778
466.409	786
466.877	768
467.345	788
467.813	780
468.281	794
468.749	807
469.217	806
469.685	815
470.153	836
470.621	830
471.09	833
471.558	869
472.026	871
472.494	894
472.963	905
473.431	934
473.9	952
474.368	969
474.837	985
475.305	1000
475.774	1015
476.242	1045
476.711	1044
477.18	1071
477.648	1069
478.117	1074
478.586	1075
479.055	1077
479.524	1089
479.993	1089
480.462	1083
480.93	1084
481.399	1088
481.869	1098
482.338	1085
482.807	1105
483.276	1096
483.745	1098
484.214	1133
484.684	1151
485.153	1155
485.622	1167
486.092	1202
486.561	1181
487.031	1226
487.5	1247
487.97	1252
488.439	1283
488.909	1318
489.378	1371
489.848	1370
490.318	1394
490.787	1452
491.257	1473
491.727	1473
492.197	1495
492.667	1507
493.137	1526
493.607	1524
494.077	1547
494.547	1530
495.017	1515
495.487	1554
495.957	1585
496.427	1548
496.897	1554
497.368	1574
497.838	1561
498.308	1593
498.779	1611
499.249	1613
499.719	1634
500.19	1653
500.66	1660
501.131	1675
501.602	1705
502.072	1703
502.543	1724
503.014	1786
503.484	1777
503.955	1824
504.426	1889
504.897	1893
505.368	1941
505.838	1993
506.309	2038
506.78	2102
507.251	2143
507.722	2178
508.194	2230
508.665	2260
509.136	2253
509.607	2331
510.078	2344
510.549	2360
511.021	2421
511.492	2423
511.964	2458
512.435	2486
512.906	2468
513.378	2490
513.849	2540
514.321	2562
514.793	2580
515.264	2624
515.736	2640
516.208	2689
516.679	2702
517.151	2726
517.623	2746
518.095	2805
518.567	2818
519.038	2876
519.51	2869
519.982	2900
520.454	2931
520.927	2988
521.399	3032
521.871	3057
522.343	3067
522.815	3093
523.287	3090
523.76	3111
524.232	3155
524.704	3176
525.177	3123
525.649	3154
526.122	3190
526.594	3118
527.067	3193
527.539	3224
528.012	3217
528.484	3205
528.957	3222
529.43	3224
529.903	3212
530.375	3323
530.848	3255
531.321	3301
531.794	3305
532.267	3381
532.74	3321
533.213	3318
533.686	3381
534.159	3357
534.632	3440
535.105	3435
535.578	3505
536.051	3512
536.525	3541
536.998	3535
537.471	3615
537.945	3567
538.418	3611
538.891	3638
539.365	3687
539.838	3713
540.312	3686
540.786	3715
541.259	3727
541.733	3782
542.206	3790
542.68	3733
543.154	3734
543.628	3758
544.101	3812
544.575	3761
545.049	3672
545.523	3738
545.997	3722
546.471	3755
546.945	3728
547.419	3786
547.893	3668
548.367	3735
548.842	3703
549.316	3716
549.79	3747
550.264	3715
550.739	3756
551.213	3779
551.687	3785
552.162	3807
552.636	3775
553.111	3768
553.585	3878
554.06	3820
554.534	3888
555.009	3873
555.484	3940
555.958	3986
556.433	3983
556.908	4046
557.383	4002
557.858	4093
558.333	4105
558.807	4085
559.282	4134
559.757	4238
560.232	4221
560.708	4143
561.183	4142
561.658	4204
562.133	4189
562.608	4158
563.083	4273
563.559	4186
564.034	4188
564.509	4183
564.985	4204
565.46	4159
565.936	4234
566.411	4220
566.887	4169
567.362	4206
567.838	4215
568.313	4255
568.789	4183
569.265	4197
569.74	4229
570.216	4183
570.692	4235
571.168	4239
571.644	4253
572.12	4257
572.596	4271
573.071	4291
573.547	4436
574.024	4480
574.5	4512
574.976	4531
575.452	4589
575.928	4647
576.404	4678
576.881	4810
577.357	4716
577.833	4756
578.31	4877
578.786	4923
579.262	4992
579.739	4922
580.215	5084
580.692	5100
581.169	5036
581.645	5043
582.122	5184
582.598	5181
583.075	5156
583.552	5174
584.029	5153
584.506	5151
584.982	5122
585.459	5220
585.936	5139
586.413	5183
586.89	5307
587.367	5263
587.844	5355
588.321	5300
588.799	5312
589.276	5268
589.753	5344
590.23	5371
590.707	5377
591.185	5388
591.662	5407
592.139	5469
592.617	5539
593.094	5505
593.572	5537
594.049	5591
594.527	5620
595.004	5636
595.482	5813
595.96	5767
596.437	5732
596.915	5855
597.393	5783
597.871	5939
598.349	5866
598.826	5983
599.304	5991
599.782	6117
600.26	6070
600.738	6200
601.216	6154
601.694	6204
602.173	6226
602.651	6270
603.129	6215
603.607	6260
604.085	6271
604.564	6297
605.042	6348
605.52	6285
605.999	6420
606.477	6239
606.956	6278
607.434	6349
607.913	6420
608.391	6399
608.87	6331
609.348	6246
609.827	6284
610.306	6321
610.785	6340
611.263	6327
611.742	6287
612.221	6192
612.7	6292
613.179	6325
613.658	6244
614.137	6352
614.616	6414
615.095	6307
615.574	6386
616.053	6418
616.532	6372
617.011	6399
617.491	6433
617.97	6398
618.449	6466
618.928	6527
619.408	6473
619.887	6534
620.367	6570
620.846	6622
621.326	6575
621.805	6724
622.285	6726
622.764	6799
623.244	6809
623.724	6830
624.203	6877
624.683	6738
625.163	6870
625.643	6859
626.123	6807
626.602	6966
627.082	6827
627.562	6811
628.042	6946
628.522	6875
629.002	6837
629.482	6878
629.963	6874
630.443	6784
630.923	6804
631.403	6846
631.883	6828
632.364	6870
632.844	6839
633.324	6847
633.805	6826
634.285	6737
634.766	6691
635.246	6715
635.727	6743
636.207	6759
636.688	6722
637.168	6691
637.649	6674
638.13	6685
638.611	6742
639.091	6712
639.572	6664
640.053	6613
640.534	6655
641.015	6656
641.496	6552
641.977	6678
642.458	6611
642.939	6637
643.42	6640
643.901	6648
644.382	6728
644.863	6712
645.345	6687
645.826	6687
646.307	6691
646.788	6800
647.27	6702
647.751	6706
648.233	6757
648.714	6603
649.196	6761
649.677	6713
650.159	6733
650.64	6663
651.122	6789
651.603	6688
652.085	6738
652.567	6805
653.049	6749
653.53	6751
654.012	6848
654.494	6747
654.976	6823
655.458	6786
655.94	6746
656.422	6864
656.904	6720
657.386	6625
657.868	6629
658.35	6581
658.833	6636
659.315	6653
659.797	6544
660.279	6533
660.762	6554
661.244	6481
661.726	6441
662.209	6477
662.691	6470
663.174	6334
663.656	6388
664.139	6398
664.621	6341
665.104	6302
665.587	6385
666.069	6412
666.552	6407
667.035	6314
667.517	6357
668	6429
668.483	6417
668.966	6347
669.449	6316
669.932	6327
670.415	6385
670.898	6338
671.381	6364
671.864	6361
672.347	6265
672.83	6275
673.313	6287
673.797	6263
674.28	6376
674.763	6389
675.247	6383
675.73	6308
676.213	6363
676.697	6435
677.18	6448
677.664	6448
678.147	6443
678.631	6488
679.114	6563
679.598	6569
680.082	6616
680.565	6605
681.049	6567
681.533	6543
682.017	6589
682.5	6561
682.984	6581
683.468	6587
683.952	6483
684.436	6619
684.92	6555
685.404	6586
685.888	6616
686.372	6541
686.856	6549
687.341	6616
687.825	6504
688.309	6527
688.793	6565
689.278	6486
689.762	6545
690.246	6499
690.731	6486
691.215	6503
691.7	6347
692.184	6443
692.669	6403
693.153	6420
693.638	6306
694.122	6324
694.607	6398
695.092	6314
695.577	6371
696.061	6259
696.546	6287
697.031	6247
697.516	6301
698.001	6329
698.486	6306
698.971	6368
699.456	6195
699.941	6180
700.426	6172
700.911	6252
701.396	6225
701.881	6259
702.366	6206
702.852	6184
703.337	6191
703.822	6155
704.308	6152
704.793	6176
705.278	6193
705.764	6202
706.249	6159
706.735	6148
707.22	6212
707.706	6124
708.191	6198
708.677	6196
709.163	6135
709.648	6159
710.134	6280
710.62	6232
711.106	6240
711.592	6307
712.077	6232
712.563	6054
713.049	6048
713.535	6195
714.021	6186
714.507	6146
714.993	6078
715.479	6103
715.966	6037
716.452	6064
716.938	6072
717.424	5871
717.91	5999
718.397	5944
718.883	5894
719.369	5914
719.856	5854
720.342	5919
720.829	5832
721.315	5858
721.802	5805
722.288	5835
722.775	5599
723.262	5458
723.748	5703
724.235	5679
724.722	5748
725.208	5628
725.695	5624
726.182	5604
726.669	5556
727.156	5631
727.643	5583
728.13	5553
728.617	5466
729.104	5483
729.591	5446
730.078	5478
730.565	5489
731.052	5383
731.539	5410
732.027	5374
732.514	5295
733.001	5339
733.488	5297
733.976	5298
734.463	5273
734.951	5269
735.438	5315
735.926	5234
736.413	5282
736.901	5236
737.388	5274
737.876	5257
738.364	5222
738.851	5265
739.339	5269
739.827	5323
740.314	5126
740.802	5157
741.29	5174
741.778	5106
742.266	5106
742.754	5130
743.242	5197
743.73	5108
744.218	5078
744.706	5030
745.194	5107
745.682	5092
746.17	5098
746.659	5094
747.147	4964
747.635	4979
748.123	4955
748.612	4883
749.1	4824
749.589	4845
750.077	4838
750.566	4816
751.054	4847
751.543	4872
752.031	4757
752.52	4725
753.008	4635
753.497	4646
753.986	4643
754.474	4647
754.963	4685
755.452	4598
755.941	4542
756.43	4531
756.919	4507
757.408	4479
757.896	4502
758.385	4537
758.875	4479
759.364	4434
759.853	4399
760.342	4314
760.831	4410
761.32	4363
761.809	4296
762.299	4323
762.788	4340
763.277	4346
763.767	4297
764.256	4301
764.745	4248
765.235	4313
765.724	4190
766.214	4250
766.703	4192
767.193	4124
767.683	4122
768.172	4025
768.662	4060
769.152	4048
769.641	4049
770.131	3927
770.621	3977
771.111	3923
771.601	3910
772.09	3865
772.58	3814
773.07	3814
773.56	3835
774.05	3755
774.54	3724
775.031	3695
775.521	3688
776.011	3693
776.501	3729
776.991	3641
777.482	3660
777.972	3581
778.462	3581
778.953	3600
779.443	3582
779.933	3579
780.424	3552
780.914	3595
781.405	3614
781.895	3579
782.386	3577
782.877	3558
783.367	3491
783.858	3466
784.349	3466
784.839	3430
785.33	3439
785.821	3438
786.312	3418
786.803	3433
787.293	3436
787.784	3387
788.275	3345
788.766	3313
789.257	3366
789.748	3281
790.24	3239
790.731	3243
791.222	3183
791.713	3179
792.204	3182
792.696	3098
793.187	3117
793.678	3083
794.169	2992
794.661	3032
795.152	2977
795.644	2935
796.135	2953
796.627	2967
797.118	2906
797.61	2877
798.101	2845
798.593	2867
799.085	2814
799.576	2838
800.068	2812
800.56	2829
801.052	2769
801.544	2766
802.035	2764
802.527	2732
803.019	2690
803.511	2672
804.003	2653
804.495	2671
804.987	2652
805.479	2603
805.971	2617
806.464	2623
806.956	2556
807.448	2538
807.94	2542
808.433	2522
808.925	2508
809.417	2487
809.91	2485
810.402	2414
810.894	2438
811.387	2464
811.879	2433
812.372	2442
812.865	2392
813.357	2382
813.85	2365
814.342	2340
814.835	2347
815.328	2340
815.821	2295
816.313	2292
816.806	2298
817.299	2270
817.792	2278
818.285	2247
818.778	2273
819.271	2263
819.764	2236
820.257	2236
820.75	2242
821.243	2238
821.736	2209
822.229	2230
822.722	2213
823.216	2251
