Data from lamp4helium_sterk_Subt2__15__115.txt Node

Date: Wed Apr 09 11:06:56 CEST 2025
User: fys-lab-0081
Spectrometer: S04999
Trigger mode: 0
Resolution mode: 1024 pixels
Integration Time (sec): 1.000000E-1
Scans to average: 1
Nonlinearity correction enabled: false
Boxcar width: 0
Baseline correction enabled: true
XAxis mode: Wavelengths
Number of Pixels in Spectrum: 1024
>>>>>Begin Spectral Data<<<<<
336.42	3
336.877	7
337.334	4
337.792	4
338.249	5
338.706	8
339.164	4
339.621	8
340.079	6
340.536	4
340.994	2
341.452	8
341.909	10
342.367	2
342.825	1
343.283	9
343.741	4
344.198	2
344.656	4
345.114	2
345.572	11
346.03	3
346.488	6
346.947	6
347.405	7
347.863	3
348.321	5
348.779	10
349.238	5
349.696	10
350.154	4
350.613	5
351.071	6
351.53	16
351.988	12
352.447	9
352.905	3
353.364	6
353.823	9
354.282	12
354.74	5
355.199	10
355.658	13
356.117	11
356.576	13
357.035	6
357.494	13
357.953	10
358.412	14
358.871	15
359.33	12
359.789	9
360.249	15
360.708	13
361.167	16
361.626	13
362.086	12
362.545	14
363.005	17
363.464	15
363.924	17
364.383	15
364.843	17
365.303	23
365.762	19
366.222	19
366.682	22
367.142	23
367.601	20
368.061	21
368.521	24
368.981	16
369.441	27
369.901	23
370.361	23
370.821	23
371.282	26
371.742	26
372.202	26
372.662	29
373.123	25
373.583	27
374.043	30
374.504	25
374.964	26
375.425	34
375.885	30
376.346	37
376.806	41
377.267	30
377.728	40
378.188	36
378.649	36
379.11	42
379.571	35
380.032	44
380.493	36
380.954	47
381.414	38
381.876	44
382.337	37
382.798	49
383.259	52
383.72	53
384.181	52
384.642	52
385.104	51
385.565	60
386.026	64
386.488	63
386.949	61
387.411	66
387.872	72
388.334	72
388.795	73
389.257	72
389.719	69
390.181	80
390.642	77
391.104	77
391.566	84
392.028	90
392.49	92
392.952	90
393.414	95
393.876	95
394.338	90
394.8	94
395.262	89
395.724	102
396.186	104
396.648	105
397.111	106
397.573	110
398.035	106
398.498	114
398.96	111
399.423	109
399.885	115
400.348	118
400.81	120
401.273	121
401.736	121
402.198	138
402.661	138
403.124	133
403.587	145
404.049	144
404.512	143
404.975	147
405.438	147
405.901	156
406.364	155
406.827	151
407.29	153
407.754	153
408.217	158
408.68	155
409.143	161
409.607	165
410.07	163
410.533	162
410.997	169
411.46	170
411.924	178
412.387	180
412.851	179
413.314	184
413.778	183
414.242	188
414.705	203
415.169	197
415.633	199
416.097	198
416.561	202
417.024	205
417.488	196
417.952	204
418.416	206
418.88	202
419.344	202
419.809	209
420.273	212
420.737	210
421.201	217
421.665	224
422.13	224
422.594	233
423.059	235
423.523	239
423.987	241
424.452	250
424.916	253
425.381	260
425.846	256
426.31	272
426.775	274
427.24	279
427.704	273
428.169	276
428.634	279
429.099	279
429.564	277
430.029	284
430.494	277
430.959	284
431.424	279
431.889	294
432.354	295
432.819	290
433.284	307
433.75	307
434.215	323
434.68	318
435.146	319
435.611	336
436.077	354
436.542	349
437.008	364
437.473	370
437.939	370
438.404	383
438.87	385
439.336	378
439.801	382
440.267	391
440.733	398
441.199	394
441.665	399
442.131	411
442.596	404
443.062	415
443.529	437
443.995	440
444.461	446
444.927	473
445.393	473
445.859	492
446.325	498
446.792	530
447.258	528
447.724	545
448.191	566
448.657	573
449.124	586
449.59	573
450.057	612
450.523	616
450.99	629
451.457	621
451.923	635
452.39	630
452.857	649
453.324	639
453.791	657
454.257	653
454.724	661
455.191	664
455.658	666
456.125	692
456.592	677
457.059	688
457.527	702
457.994	725
458.461	725
458.928	744
459.396	733
459.863	764
460.33	756
460.798	760
461.265	772
461.732	768
462.2	784
462.668	779
463.135	793
463.603	769
464.07	799
464.538	774
465.006	797
465.474	781
465.941	784
466.409	792
466.877	776
467.345	797
467.813	790
468.281	800
468.749	812
469.217	810
469.685	820
470.153	844
470.621	837
471.09	837
471.558	881
472.026	878
472.494	902
472.963	915
473.431	941
473.9	963
474.368	985
474.837	1000
475.305	1007
475.774	1027
476.242	1052
476.711	1060
477.18	1080
477.648	1075
478.117	1086
478.586	1087
479.055	1085
479.524	1098
479.993	1099
480.462	1093
480.93	1098
481.399	1099
481.869	1106
482.338	1095
482.807	1116
483.276	1107
483.745	1109
484.214	1143
484.684	1170
485.153	1171
485.622	1176
486.092	1211
486.561	1192
487.031	1238
487.5	1259
487.97	1264
488.439	1300
488.909	1331
489.378	1377
489.848	1387
490.318	1409
490.787	1469
491.257	1491
491.727	1497
492.197	1512
492.667	1518
493.137	1539
493.607	1545
494.077	1566
494.547	1552
495.017	1539
495.487	1564
495.957	1600
496.427	1575
496.897	1568
497.368	1590
497.838	1586
498.308	1609
498.779	1629
499.249	1632
499.719	1643
500.19	1669
500.66	1679
501.131	1686
501.602	1720
502.072	1715
502.543	1739
503.014	1800
503.484	1791
503.955	1838
504.426	1917
504.897	1929
505.368	1959
505.838	2008
506.309	2060
506.78	2128
507.251	2150
507.722	2207
508.194	2248
508.665	2293
509.136	2281
509.607	2352
510.078	2369
510.549	2383
511.021	2448
511.492	2448
511.964	2482
512.435	2512
512.906	2487
513.378	2515
513.849	2572
514.321	2578
514.793	2607
515.264	2641
515.736	2671
516.208	2714
516.679	2736
517.151	2751
517.623	2782
518.095	2824
518.567	2847
519.038	2904
519.51	2892
519.982	2922
520.454	2960
520.927	3013
521.399	3060
521.871	3093
522.343	3099
522.815	3118
523.287	3117
523.76	3130
524.232	3177
524.704	3206
525.177	3158
525.649	3185
526.122	3209
526.594	3153
527.067	3210
527.539	3254
528.012	3234
528.484	3234
528.957	3255
529.43	3249
529.903	3236
530.375	3355
530.848	3284
531.321	3325
531.794	3343
532.267	3410
532.74	3348
533.213	3352
533.686	3411
534.159	3389
534.632	3465
535.105	3471
535.578	3534
536.051	3552
536.525	3563
536.998	3564
537.471	3639
537.945	3603
538.418	3653
538.891	3672
539.365	3725
539.838	3748
540.312	3727
540.786	3756
541.259	3761
541.733	3827
542.206	3827
542.68	3758
543.154	3768
543.628	3791
544.101	3864
544.575	3801
545.049	3701
545.523	3776
545.997	3760
546.471	3786
546.945	3769
547.419	3817
547.893	3691
548.367	3781
548.842	3733
549.316	3760
549.79	3774
550.264	3750
550.739	3798
551.213	3812
551.687	3819
552.162	3834
552.636	3804
553.111	3803
553.585	3910
554.06	3856
554.534	3921
555.009	3910
555.484	3975
555.958	4026
556.433	4010
556.908	4085
557.383	4045
557.858	4132
558.333	4134
558.807	4127
559.282	4170
559.757	4269
560.232	4264
560.708	4181
561.183	4178
561.658	4240
562.133	4242
562.608	4205
563.083	4312
563.559	4218
564.034	4224
564.509	4233
564.985	4244
565.46	4197
565.936	4284
566.411	4266
566.887	4210
567.362	4238
567.838	4247
568.313	4306
568.789	4220
569.265	4231
569.74	4262
570.216	4224
570.692	4279
571.168	4271
571.644	4281
572.12	4286
572.596	4313
573.071	4324
573.547	4472
574.024	4532
574.5	4553
574.976	4568
575.452	4631
575.928	4699
576.404	4713
576.881	4843
577.357	4764
577.833	4810
578.31	4919
578.786	4966
579.262	5031
579.739	4965
580.215	5124
580.692	5144
581.169	5075
581.645	5081
582.122	5224
582.598	5227
583.075	5206
583.552	5222
584.029	5205
584.506	5190
584.982	5159
585.459	5269
585.936	5188
586.413	5253
586.89	5349
587.367	5315
587.844	5401
588.321	5341
588.799	5371
589.276	5316
589.753	5385
590.23	5425
590.707	5422
591.185	5433
591.662	5456
592.139	5512
592.617	5584
593.094	5559
593.572	5586
594.049	5627
594.527	5674
595.004	5691
595.482	5869
595.96	5814
596.437	5770
596.915	5899
597.393	5832
597.871	5987
598.349	5920
598.826	6023
599.304	6040
599.782	6166
600.26	6133
600.738	6248
601.216	6209
601.694	6263
602.173	6277
602.651	6315
603.129	6275
603.607	6314
604.085	6329
604.564	6351
605.042	6381
605.52	6337
605.999	6468
606.477	6302
606.956	6330
607.434	6404.5
607.913	6479
608.391	6454
608.87	6393
609.348	6309
609.827	6335
610.306	6380
610.785	6393
611.263	6384
611.742	6338
612.221	6242
612.7	6344
613.179	6395
613.658	6302
614.137	6406
614.616	6468
615.095	6367
615.574	6451
616.053	6487
616.532	6421
617.011	6450
617.491	6478
617.97	6451
618.449	6531
618.928	6589
619.408	6529
619.887	6581
620.367	6623
620.846	6682
621.326	6629
621.805	6779
622.285	6788
622.764	6851
623.244	6867
623.724	6888
624.203	6933
624.683	6806
625.163	6947
625.643	6915
626.123	6857
626.602	7021
627.082	6892
627.562	6864
628.042	6994
628.522	6936
629.002	6893
629.482	6927
629.963	6930
630.443	6852
630.923	6858
631.403	6907
631.883	6895
632.364	6928
632.844	6896
633.324	6908
633.805	6892
634.285	6787
634.766	6753
635.246	6782
635.727	6800
636.207	6807
636.688	6782
637.168	6752
637.649	6710
638.13	6743
638.611	6790
639.091	6764
639.572	6721
640.053	6667
640.534	6720
641.015	6702
641.496	6603
641.977	6727
642.458	6663
642.939	6685
643.42	6693
643.901	6696
644.382	6785
644.863	6761
645.345	6740
645.826	6745
646.307	6750
646.788	6855
647.27	6753
647.751	6765
648.233	6814
648.714	6658
649.196	6825
649.677	6778
650.159	6786
650.64	6725
651.122	6834
651.603	6724
652.085	6813
652.567	6863
653.049	6806
653.53	6802
654.012	6912
654.494	6795
654.976	6878
655.458	6834
655.94	6803
656.422	6897
656.904	6763
657.386	6667
657.868	6681
658.35	6633
658.833	6684
659.315	6702
659.797	6600
660.279	6595
660.762	6611
661.244	6539
661.726	6495
662.209	6528
662.691	6515
663.174	6394
663.656	6429
664.139	6450
664.621	6394
665.104	6350
665.587	6425
666.069	6473
666.552	6454
667.035	6363
667.517	6394
668	6468
668.483	6471
668.966	6387
669.449	6380
669.932	6371
670.415	6436
670.898	6395
671.381	6423
671.864	6419
672.347	6318
672.83	6319
673.313	6327
673.797	6310
674.28	6422
674.763	6432
675.247	6436
675.73	6372
676.213	6410
676.697	6483
677.18	6499
677.664	6502
678.147	6501
678.631	6542
679.114	6611
679.598	6611
680.082	6668
680.565	6651
681.049	6627
681.533	6603
682.017	6647
682.5	6613
682.984	6633
683.468	6632
683.952	6538
684.436	6674
684.92	6602
685.404	6642
685.888	6663
686.372	6589
686.856	6597
687.341	6667
687.825	6549
688.309	6574
688.793	6595
689.278	6534
689.762	6595
690.246	6537
690.731	6527
691.215	6565
691.7	6395
692.184	6490
692.669	6469
693.153	6469
693.638	6360
694.122	6367
694.607	6444
695.092	6360
695.577	6422
696.061	6309
696.546	6336
697.031	6306
697.516	6359
698.001	6373
698.486	6342
698.971	6417
699.456	6244
699.941	6230
700.426	6217
700.911	6295
701.396	6277
701.881	6300
702.366	6262
702.852	6243
703.337	6229
703.822	6202
704.308	6196
704.793	6227
705.278	6236
705.764	6266
706.249	6205
706.735	6200
707.22	6261
707.706	6168
708.191	6251
708.677	6260
709.163	6195
709.648	6208
710.134	6321
710.62	6285
711.106	6291
711.592	6349
712.077	6287
712.563	6099
713.049	6090
713.535	6248
714.021	6227
714.507	6211
714.993	6121
715.479	6156
715.966	6084
716.452	6113
716.938	6122
717.424	5917
717.91	6041
718.397	5969
718.883	5947
719.369	5963
719.856	5900
720.342	5974
720.829	5890
721.315	5892
721.802	5852
722.288	5870
722.775	5647
723.262	5500
723.748	5738
724.235	5717
724.722	5803
725.208	5665
725.695	5670
726.182	5652
726.669	5604
727.156	5670
727.643	5621
728.13	5599
728.617	5520
729.104	5529
729.591	5481
730.078	5532
730.565	5519
731.052	5431
731.539	5450
732.027	5421
732.514	5336
733.001	5376
733.488	5342
733.976	5337
734.463	5321
734.951	5309
735.438	5349
735.926	5280
736.413	5330
736.901	5278
737.388	5319
737.876	5294
738.364	5262
738.851	5294
739.339	5304
739.827	5363
740.314	5166
740.802	5193
741.29	5215
741.778	5137
742.266	5143
742.754	5170
743.242	5229
743.73	5143
744.218	5122
744.706	5066
745.194	5135
745.682	5122
746.17	5140
746.659	5137
747.147	5007
747.635	5009
748.123	4988
748.612	4914
749.1	4862
749.589	4888
750.077	4880
750.566	4857
751.054	4892
751.543	4898
752.031	4789
752.52	4754
753.008	4661
753.497	4680
753.986	4673
754.474	4686
754.963	4725
755.452	4618
755.941	4576
756.43	4574
756.919	4547
757.408	4515
757.896	4539
758.385	4571
758.875	4521
759.364	4471
759.853	4423
760.342	4349
760.831	4446
761.32	4398
761.809	4331
762.299	4349
762.788	4366
763.277	4371
763.767	4329
764.256	4333
764.745	4283
765.235	4342
765.724	4208
766.214	4277
766.703	4228
767.193	4158
767.683	4147
768.172	4057
768.662	4092
769.152	4070
769.641	4079
770.131	3954
770.621	4003
771.111	3946
771.601	3942
772.09	3891
772.58	3840
773.07	3853
773.56	3872
774.05	3782
774.54	3762
775.031	3727
775.521	3712
776.011	3725
776.501	3755
776.991	3675
777.482	3694
777.972	3612
778.462	3602
778.953	3630
779.443	3607
779.933	3601
780.424	3573
780.914	3613
781.405	3635
781.895	3601
782.386	3602
782.877	3575
783.367	3517
783.858	3492
784.349	3493
784.839	3450
785.33	3469
785.821	3469
786.312	3446
786.803	3465
787.293	3466
787.784	3406
788.275	3361
788.766	3333
789.257	3381
789.748	3300
790.24	3264
790.731	3265
791.222	3208
791.713	3201
792.204	3213
792.696	3112
793.187	3146
793.678	3102
794.169	3012
794.661	3057
795.152	2994
795.644	2966
796.135	2971
796.627	2985
797.118	2927
797.61	2906
798.101	2865
798.593	2898
799.085	2841
799.576	2865
800.068	2835
800.56	2855
801.052	2791
801.544	2801
802.035	2788
802.527	2746
803.019	2704
803.511	2699
804.003	2667
804.495	2682
804.987	2671
805.479	2623
805.971	2625
806.464	2643
806.956	2571
807.448	2558
807.94	2559
808.433	2547
808.925	2529
809.417	2504
809.91	2501
810.402	2431
810.894	2456
811.387	2484
811.879	2447
812.372	2450
812.865	2404
813.357	2398
813.85	2385
814.342	2360
814.835	2361
815.328	2348
815.821	2315
816.313	2304
816.806	2317
817.299	2283
817.792	2296
818.285	2251
818.778	2285
819.271	2278
819.764	2245
820.257	2253
820.75	2251
821.243	2263
821.736	2223
822.229	2252
822.722	2231
823.216	2268
