Data from lamp4helium_sterk_Subt2__50__150.txt Node

Date: Wed Apr 09 11:07:00 CEST 2025
User: fys-lab-0081
Spectrometer: S04999
Trigger mode: 0
Resolution mode: 1024 pixels
Integration Time (sec): 1.000000E-1
Scans to average: 1
Nonlinearity correction enabled: false
Boxcar width: 0
Baseline correction enabled: true
XAxis mode: Wavelengths
Number of Pixels in Spectrum: 1024
>>>>>Begin Spectral Data<<<<<
336.42	-2
336.877	2
337.334	6
337.792	2
338.249	2
338.706	2
339.164	7
339.621	6
340.079	6
340.536	4
340.994	3
341.452	11
341.909	7
342.367	7
342.825	1
343.283	10
343.741	6
344.198	4
344.656	2
345.114	5
345.572	6
346.03	4
346.488	9
346.947	6
347.405	8
347.863	7
348.321	5
348.779	9
349.238	4
349.696	10
350.154	3
350.613	4
351.071	11
351.53	12
351.988	9
352.447	6
352.905	3
353.364	7
353.823	12
354.282	9
354.74	8
355.199	13
355.658	11
356.117	13
356.576	12
357.035	9
357.494	13
357.953	8
358.412	12
358.871	13
359.33	15
359.789	11
360.249	14
360.708	12
361.167	15
361.626	11
362.086	11
362.545	16
363.005	15
363.464	15
363.924	16
364.383	12
364.843	21
365.303	25
365.762	19
366.222	17
366.682	20
367.142	22
367.601	19
368.061	20
368.521	21
368.981	19
369.441	27
369.901	25
370.361	19
370.821	21
371.282	22
371.742	23
372.202	27
372.662	28
373.123	25
373.583	27
374.043	28
374.504	28
374.964	30
375.425	32
375.885	30
376.346	34
376.806	39
377.267	30
377.728	39
378.188	38
378.649	36
379.11	37
379.571	36
380.032	37
380.493	45
380.954	43
381.414	37
381.876	44
382.337	45
382.798	47
383.259	50
383.72	49
384.181	49
384.642	51
385.104	57
385.565	60
386.026	64
386.488	62
386.949	63
387.411	65
387.872	70
388.334	71
388.795	71
389.257	73
389.719	74
390.181	78
390.642	75
391.104	77
391.566	83
392.028	83
392.49	88
392.952	88
393.414	89
393.876	94
394.338	92
394.8	93
395.262	86
395.724	104
396.186	103
396.648	104
397.111	102
397.573	107
398.035	105
398.498	106
398.96	112
399.423	112
399.885	113
400.348	118
400.81	121
401.273	124
401.736	121
402.198	133
402.661	132
403.124	128
403.587	139
404.049	141
404.512	143
404.975	147
405.438	144
405.901	153
406.364	152
406.827	151
407.29	154
407.754	151
408.217	153
408.68	158
409.143	163
409.607	162
410.07	162
410.533	159
410.997	165
411.46	166
411.924	173
412.387	180
412.851	180
413.314	187
413.778	181
414.242	188
414.705	204
415.169	198
415.633	198
416.097	197
416.561	201
417.024	205
417.488	196
417.952	204
418.416	196
418.88	199
419.344	198
419.809	205
420.273	210
420.737	209
421.201	214
421.665	221
422.13	224
422.594	229
423.059	237
423.523	239
423.987	239
424.452	246
424.916	251
425.381	259
425.846	252
426.31	268
426.775	267
427.24	274
427.704	269
428.169	274
428.634	280
429.099	280
429.564	275
430.029	279
430.494	276
430.959	281
431.424	278
431.889	290
432.354	296
432.819	287
433.284	305
433.75	307
434.215	316
434.68	316
435.146	318
435.611	336
436.077	348
436.542	346
437.008	363
437.473	363
437.939	368
438.404	375
438.87	382
439.336	381
439.801	378
440.267	389
440.733	395
441.199	392
441.665	390
442.131	413
442.596	398
443.062	413
443.529	433
443.995	436
444.461	446
444.927	466
445.393	468
445.859	486
446.325	496
446.792	525
447.258	521
447.724	536
448.191	561
448.657	559
449.124	577
449.59	569
450.057	606
450.523	614
450.99	624
451.457	616
451.923	633
452.39	627
452.857	647
453.324	637
453.791	648
454.257	650
454.724	660
455.191	659
455.658	657
456.125	682
456.592	671
457.059	684
457.527	693
457.994	718
458.461	718
458.928	735
459.396	731
459.863	757
460.33	753
460.798	755
461.265	769
461.732	758
462.2	785
462.668	777
463.135	789
463.603	764
464.07	795
464.538	766
465.006	790
465.474	773
465.941	773
466.409	789
466.877	768
467.345	798
467.813	784
468.281	792
468.749	805
469.217	804
469.685	814
470.153	833
470.621	834
471.09	836
471.558	874
472.026	872
472.494	899
472.963	907
473.431	936
473.9	949
474.368	976
474.837	989
475.305	1002
475.774	1024
476.242	1047
476.711	1048
477.18	1074
477.648	1066
478.117	1075
478.586	1076
479.055	1081
479.524	1090
479.993	1089
480.462	1089
480.93	1090
481.399	1092
481.869	1100
482.338	1081
482.807	1105
483.276	1100
483.745	1105
484.214	1138
484.684	1158
485.153	1159
485.622	1165
486.092	1203
486.561	1178
487.031	1231
487.5	1248
487.97	1255
488.439	1289
488.909	1322
489.378	1372
489.848	1377
490.318	1397
490.787	1456
491.257	1473
491.727	1478
492.197	1500
492.667	1514
493.137	1527
493.607	1533
494.077	1546
494.547	1540
495.017	1529
495.487	1552
495.957	1588
496.427	1552
496.897	1549
497.368	1578
497.838	1575
498.308	1590
498.779	1619
499.249	1622
499.719	1643
500.19	1660
500.66	1664
501.131	1674
501.602	1713
502.072	1696
502.543	1724
503.014	1795
503.484	1780
503.955	1835
504.426	1899
504.897	1909
505.368	1944
505.838	1996
506.309	2039
506.78	2107
507.251	2141
507.722	2183
508.194	2236
508.665	2275
509.136	2272
509.607	2337
510.078	2352
510.549	2363
511.021	2435
511.492	2432
511.964	2467
512.435	2493
512.906	2468
513.378	2497
513.849	2554
514.321	2570
514.793	2585
515.264	2629
515.736	2651
516.208	2695
516.679	2716
517.151	2728
517.623	2758
518.095	2813
518.567	2825
519.038	2880
519.51	2880
519.982	2907
520.454	2942
520.927	2986
521.399	3040
521.871	3071
522.343	3076
522.815	3100
523.287	3090
523.76	3112
524.232	3162
524.704	3182
525.177	3143
525.649	3166
526.122	3192
526.594	3119
527.067	3202
527.539	3241
528.012	3221
528.484	3213
528.957	3226
529.43	3226
529.903	3218
530.375	3331
530.848	3250
531.321	3300
531.794	3313
532.267	3386
532.74	3326
533.213	3332
533.686	3393
534.159	3376
534.632	3445
535.105	3440
535.578	3509
536.051	3524
536.525	3540
536.998	3537
537.471	3614
537.945	3562
538.418	3621
538.891	3647
539.365	3700
539.838	3720
540.312	3704
540.786	3726
541.259	3737
541.733	3801
542.206	3801
542.68	3735
543.154	3744
543.628	3767
544.101	3827
544.575	3769
545.049	3669
545.523	3751
545.997	3735
546.471	3757
546.945	3736
547.419	3803
547.893	3670
548.367	3752
548.842	3709
549.316	3726
549.79	3744
550.264	3730
550.739	3778
551.213	3787
551.687	3788
552.162	3812
552.636	3774
553.111	3778
553.585	3884
554.06	3824
554.534	3890
555.009	3884
555.484	3950
555.958	3986
556.433	3990
556.908	4050
557.383	4008
557.858	4103
558.333	4102
558.807	4092
559.282	4140
559.757	4252
560.232	4232
560.708	4165
561.183	4149
561.658	4216
562.133	4200
562.608	4173
563.083	4291
563.559	4198
564.034	4200
564.509	4190
564.985	4209
565.46	4172
565.936	4247
566.411	4237
566.887	4175
567.362	4211
567.838	4228
568.313	4268
568.789	4193
569.265	4201
569.74	4229
570.216	4190
570.692	4251
571.168	4250
571.644	4255
572.12	4257
572.596	4284
573.071	4300
573.547	4435
574.024	4492
574.5	4525
574.976	4530
575.452	4595
575.928	4669
576.404	4682
576.881	4809
577.357	4734
577.833	4766
578.31	4896
578.786	4934
579.262	4997
579.739	4941
580.215	5101
580.692	5100
581.169	5046
581.645	5053
582.122	5199
582.598	5194
583.075	5176
583.552	5178
584.029	5172
584.506	5168
584.982	5126
585.459	5235
585.936	5147
586.413	5214
586.89	5321
587.367	5270
587.844	5368
588.321	5308
588.799	5326
589.276	5277
589.753	5354
590.23	5398
590.707	5386
591.185	5400
591.662	5424
592.139	5481
592.617	5532
593.094	5519
593.572	5564
594.049	5594
594.527	5634
595.004	5655
595.482	5830
595.96	5772
596.437	5740
596.915	5872
597.393	5794
597.871	5950
598.349	5885
598.826	5996
599.304	5990
599.782	6127
600.26	6088
600.738	6212
601.216	6179
601.694	6233
602.173	6241
602.651	6273
603.129	6233
603.607	6268
604.085	6282
604.564	6315
605.042	6356
605.52	6301
605.999	6421
606.477	6255
606.956	6292
607.434	6362.5
607.913	6433
608.391	6412
608.87	6353
609.348	6261
609.827	6294
610.306	6352
610.785	6351
611.263	6346
611.742	6300
612.221	6215
612.7	6306
613.179	6340
613.658	6257
614.137	6356
614.616	6430
615.095	6318
615.574	6410
616.053	6440
616.532	6388
617.011	6396
617.491	6441
617.97	6408
618.449	6482
618.928	6541
619.408	6496
619.887	6543
620.367	6588
620.846	6646
621.326	6587
621.805	6734
622.285	6739
622.764	6811
623.244	6822
623.724	6844
624.203	6892
624.683	6763
625.163	6893
625.643	6873
626.123	6811
626.602	6977
627.082	6841
627.562	6821
628.042	6946
628.522	6896
629.002	6859
629.482	6889
629.963	6891
630.443	6802
630.923	6816
631.403	6863
631.883	6835
632.364	6886
632.844	6849
633.324	6868
633.805	6845
634.285	6737
634.766	6710
635.246	6730
635.727	6765
636.207	6772
636.688	6737
637.168	6706
637.649	6689
638.13	6692
638.611	6761
639.091	6729
639.572	6670
640.053	6625
640.534	6662
641.015	6658
641.496	6564
641.977	6680
642.458	6627
642.939	6653
643.42	6654
643.901	6653
644.382	6745
644.863	6722
645.345	6713
645.826	6709
646.307	6700
646.788	6812
647.27	6714
647.751	6720
648.233	6771
648.714	6611
649.196	6778
649.677	6744
650.159	6741
650.64	6679
651.122	6806
651.603	6694
652.085	6760
652.567	6816
653.049	6763
653.53	6764
654.012	6873
654.494	6752
654.976	6839
655.458	6804
655.94	6765
656.422	6858
656.904	6730
657.386	6635
657.868	6640
658.35	6595
658.833	6640
659.315	6666
659.797	6562
660.279	6546
660.762	6566
661.244	6502
661.726	6459
662.209	6486
662.691	6484
663.174	6349
663.656	6393
664.139	6415
664.621	6368
665.104	6322
665.587	6388
666.069	6422
666.552	6414
667.035	6315
667.517	6364
668	6436
668.483	6427
668.966	6355
669.449	6324
669.932	6335
670.415	6389
670.898	6352
671.381	6380
671.864	6376
672.347	6277
672.83	6285
673.313	6285
673.797	6267
674.28	6386
674.763	6390
675.247	6390
675.73	6326
676.213	6375
676.697	6447
677.18	6459
677.664	6469
678.147	6456
678.631	6506
679.114	6581
679.598	6575
680.082	6636
680.565	6611
681.049	6578
681.533	6560
682.017	6604
682.5	6581
682.984	6595
683.468	6590
683.952	6492
684.436	6639
684.92	6571
685.404	6607
685.888	6628
686.372	6554
686.856	6565
687.341	6618
687.825	6512
688.309	6544
688.793	6561
689.278	6495
689.762	6563
690.246	6514
690.731	6503
691.215	6526
691.7	6353
692.184	6467
692.669	6432
693.153	6432
693.638	6317
694.122	6328
694.607	6403
695.092	6327
695.577	6390
696.061	6268
696.546	6307
697.031	6266
697.516	6323
698.001	6331
698.486	6313
698.971	6382
699.456	6199
699.941	6186
700.426	6180
700.911	6260
701.396	6227
701.881	6275
702.366	6217
702.852	6197
703.337	6195
703.822	6170
704.308	6162
704.793	6194
705.278	6204
705.764	6219
706.249	6172
706.735	6166
707.22	6222
707.706	6138
708.191	6214
708.677	6209
709.163	6153
709.648	6174
710.134	6291
710.62	6245
711.106	6255
711.592	6322
712.077	6241
712.563	6072
713.049	6065
713.535	6199
714.021	6197
714.507	6171
714.993	6072
715.479	6117
715.966	6044
716.452	6070
716.938	6079
717.424	5894
717.91	6004
718.397	5942
718.883	5917
719.369	5935
719.856	5860
720.342	5930
720.829	5844
721.315	5869
721.802	5806
722.288	5854
722.775	5617
723.262	5466
723.748	5708
724.235	5685
724.722	5768
725.208	5651
725.695	5633
726.182	5621
726.669	5571
727.156	5635
727.643	5595
728.13	5567
728.617	5482
729.104	5494
729.591	5447
730.078	5495
730.565	5482
731.052	5411
731.539	5417
732.027	5385
732.514	5309
733.001	5343
733.488	5318
733.976	5307
734.463	5283
734.951	5276
735.438	5322
735.926	5243
736.413	5290
736.901	5253
737.388	5286
737.876	5266
738.364	5233
738.851	5262
739.339	5286
739.827	5327
740.314	5142
740.802	5160
741.29	5170
741.778	5119
742.266	5117
742.754	5138
743.242	5201
743.73	5108
744.218	5082
744.706	5050
745.194	5111
745.682	5101
746.17	5099
746.659	5113
747.147	4985
747.635	4978
748.123	4957
748.612	4893
749.1	4836
749.589	4859
750.077	4841
750.566	4835
751.054	4861
751.543	4880
752.031	4763
752.52	4730
753.008	4634
753.497	4653
753.986	4662
754.474	4653
754.963	4695
755.452	4590
755.941	4553
756.43	4542
756.919	4528
757.408	4482
757.896	4516
758.385	4538
758.875	4492
759.364	4455
759.853	4402
760.342	4328
760.831	4417
761.32	4377
761.809	4298
762.299	4324
762.788	4337
763.277	4350
763.767	4302
764.256	4301
764.745	4257
765.235	4316
765.724	4191
766.214	4257
766.703	4205
767.193	4131
767.683	4122
768.172	4038
768.662	4068
769.152	4051
769.641	4053
770.131	3935
770.621	3984
771.111	3931
771.601	3922
772.09	3871
772.58	3822
773.07	3825
773.56	3851
774.05	3753
774.54	3736
775.031	3702
775.521	3694
776.011	3694
776.501	3732
776.991	3641
777.482	3676
777.972	3591
778.462	3585
778.953	3608
779.443	3597
779.933	3583
780.424	3555
780.914	3603
781.405	3623
781.895	3592
782.386	3589
782.877	3556
783.367	3497
783.858	3471
784.349	3477
784.839	3438
785.33	3445
785.821	3446
786.312	3421
786.803	3436
787.293	3448
787.784	3398
788.275	3342
788.766	3332
789.257	3361
789.748	3282
790.24	3244
790.731	3254
791.222	3188
791.713	3185
792.204	3189
792.696	3100
793.187	3126
793.678	3095
794.169	2994
794.661	3029
795.152	2979
795.644	2950
796.135	2950
796.627	2967
797.118	2913
797.61	2883
798.101	2852
798.593	2872
799.085	2830
799.576	2840
800.068	2825
800.56	2841
801.052	2775
801.544	2768
802.035	2774
802.527	2736
803.019	2706
803.511	2674
804.003	2659
804.495	2674
804.987	2653
805.479	2604
805.971	2615
806.464	2623
806.956	2553
807.448	2545
807.94	2546
808.433	2537
808.925	2515
809.417	2499
809.91	2482
810.402	2425
810.894	2439
811.387	2472
811.879	2431
812.372	2441
812.865	2399
813.357	2388
813.85	2369
814.342	2348
814.835	2352
815.328	2342
815.821	2305
816.313	2298
816.806	2304
817.299	2274
817.792	2282
818.285	2243
818.778	2281
819.271	2262
819.764	2237
820.257	2242
820.75	2239
821.243	2250
821.736	2215
822.229	2235
822.722	2225
823.216	2261
