Data from lamp4helium_sterk_Subt2__2__102.txt Node

Date: Wed Apr 09 11:06:54 CEST 2025
User: fys-lab-0081
Spectrometer: S04999
Trigger mode: 0
Resolution mode: 1024 pixels
Integration Time (sec): 1.000000E-1
Scans to average: 1
Nonlinearity correction enabled: false
Boxcar width: 0
Baseline correction enabled: true
XAxis mode: Wavelengths
Number of Pixels in Spectrum: 1024
>>>>>Begin Spectral Data<<<<<
336.42	5
336.877	4
337.334	4
337.792	1
338.249	5
338.706	10
339.164	-1
339.621	8
340.079	5
340.536	6
340.994	5
341.452	6
341.909	12
342.367	4
342.825	3
343.283	7
343.741	5
344.198	6
344.656	4
345.114	2
345.572	10
346.03	5
346.488	5
346.947	3
347.405	11
347.863	6
348.321	7
348.779	5
349.238	5
349.696	12
350.154	8
350.613	7
351.071	9
351.53	12
351.988	9
352.447	10
352.905	6
353.364	7
353.823	12
354.282	4
354.74	8
355.199	8
355.658	10
356.117	13
356.576	11
357.035	12
357.494	11
357.953	8
358.412	13
358.871	12
359.33	15
359.789	9
360.249	13
360.708	18
361.167	14
361.626	13
362.086	12
362.545	13
363.005	17
363.464	17
363.924	17
364.383	13
364.843	18
365.303	24
365.762	23
366.222	20
366.682	17
367.142	18
367.601	23
368.061	24
368.521	20
368.981	18
369.441	29
369.901	25
370.361	19
370.821	24
371.282	23
371.742	25
372.202	22
372.662	29
373.123	25
373.583	28
374.043	34
374.504	25
374.964	29
375.425	35
375.885	32
376.346	32
376.806	35
377.267	33
377.728	41
378.188	36
378.649	35
379.11	38
379.571	34
380.032	38
380.493	41
380.954	43
381.414	39
381.876	44
382.337	46
382.798	48
383.259	50
383.72	51
384.181	50
384.642	56
385.104	55
385.565	57
386.026	63
386.488	63
386.949	68
387.411	64
387.872	71
388.334	72
388.795	69
389.257	71
389.719	72
390.181	74
390.642	74
391.104	84
391.566	83
392.028	83
392.49	90
392.952	92
393.414	88
393.876	93
394.338	93
394.8	96
395.262	95
395.724	101
396.186	105
396.648	102
397.111	106
397.573	107
398.035	108
398.498	111
398.96	116
399.423	113
399.885	114
400.348	117
400.81	123
401.273	123
401.736	122
402.198	139
402.661	138
403.124	133
403.587	143
404.049	144
404.512	145
404.975	148
405.438	150
405.901	154
406.364	153
406.827	152
407.29	155
407.754	153
408.217	156
408.68	155
409.143	164
409.607	166
410.07	169
410.533	164
410.997	169
411.46	171
411.924	184
412.387	180
412.851	181
413.314	188
413.778	183
414.242	186
414.705	198
415.169	194
415.633	199
416.097	196
416.561	200
417.024	207
417.488	195
417.952	208
418.416	204
418.88	202
419.344	203
419.809	208
420.273	213
420.737	208
421.201	221
421.665	222
422.13	223
422.594	232
423.059	239
423.523	236
423.987	243
424.452	250
424.916	251
425.381	261
425.846	263
426.31	270
426.775	273
427.24	274
427.704	276
428.169	279
428.634	276
429.099	279
429.564	276
430.029	283
430.494	280
430.959	283
431.424	279
431.889	295
432.354	297
432.819	290
433.284	310
433.75	310
434.215	323
434.68	318
435.146	320
435.611	335
436.077	350
436.542	348
437.008	368
437.473	366
437.939	371
438.404	378
438.87	389
439.336	376
439.801	384
440.267	390
440.733	398
441.199	400
441.665	395
442.131	411
442.596	403
443.062	422
443.529	437
443.995	440
444.461	449
444.927	477
445.393	475
445.859	496
446.325	500
446.792	535
447.258	529
447.724	546
448.191	563
448.657	569
449.124	580
449.59	576
450.057	620
450.523	617
450.99	631
451.457	618
451.923	638
452.39	634
452.857	652
453.324	640
453.791	657
454.257	654
454.724	665
455.191	667
455.658	668
456.125	687
456.592	678
457.059	692
457.527	702
457.994	725
458.461	726
458.928	745
459.396	740
459.863	760
460.33	761
460.798	765
461.265	774
461.732	764
462.2	785
462.668	784
463.135	801
463.603	770
464.07	799
464.538	778
465.006	800
465.474	783
465.941	786
466.409	792
466.877	777
467.345	801
467.813	788
468.281	802
468.749	812
469.217	810
469.685	823
470.153	841
470.621	850
471.09	844
471.558	885
472.026	884
472.494	915
472.963	914
473.431	945
473.9	964
474.368	984
474.837	998
475.305	1012
475.774	1029
476.242	1059
476.711	1055
477.18	1085
477.648	1079
478.117	1086
478.586	1085
479.055	1096
479.524	1102
479.993	1097
480.462	1095
480.93	1103
481.399	1103
481.869	1108
482.338	1096
482.807	1121
483.276	1111
483.745	1115
484.214	1148
484.684	1168
485.153	1175
485.622	1178
486.092	1219
486.561	1188
487.031	1238
487.5	1262
487.97	1272
488.439	1301
488.909	1331
489.378	1382
489.848	1385
490.318	1414
490.787	1475
491.257	1487
491.727	1494
492.197	1515
492.667	1525
493.137	1540
493.607	1547
494.077	1567
494.547	1549
495.017	1541
495.487	1567
495.957	1608
496.427	1572
496.897	1572
497.368	1591
497.838	1581
498.308	1608
498.779	1628
499.249	1633
499.719	1657
500.19	1676
500.66	1681
501.131	1692
501.602	1729
502.072	1719
502.543	1739
503.014	1812
503.484	1798
503.955	1850
504.426	1918
504.897	1928
505.368	1966
505.838	2017
506.309	2062
506.78	2125
507.251	2164
507.722	2204
508.194	2256
508.665	2293
509.136	2280
509.607	2364
510.078	2374
510.549	2395
511.021	2446
511.492	2457
511.964	2489
512.435	2517
512.906	2499
513.378	2522
513.849	2571
514.321	2585
514.793	2617
515.264	2648
515.736	2672
516.208	2721
516.679	2739
517.151	2755
517.623	2791
518.095	2836
518.567	2854
519.038	2906
519.51	2898
519.982	2927
520.454	2968
520.927	3024
521.399	3065
521.871	3095
522.343	3103
522.815	3124
523.287	3126
523.76	3144
524.232	3196
524.704	3215
525.177	3167
525.649	3186
526.122	3220
526.594	3158
527.067	3226
527.539	3266
528.012	3250
528.484	3240
528.957	3262
529.43	3256
529.903	3244
530.375	3357
530.848	3287
531.321	3335
531.794	3346
532.267	3412
532.74	3356
533.213	3358
533.686	3419
534.159	3405
534.632	3474
535.105	3477
535.578	3545
536.051	3553
536.525	3565
536.998	3578
537.471	3654
537.945	3607
538.418	3664
538.891	3683
539.365	3720
539.838	3745
540.312	3731
540.786	3760
541.259	3763
541.733	3830
542.206	3833
542.68	3769
543.154	3777
543.628	3799
544.101	3859
544.575	3802
545.049	3715
545.523	3783
545.997	3765
546.471	3794
546.945	3775
547.419	3831
547.893	3702
548.367	3775
548.842	3741
549.316	3763
549.79	3776
550.264	3759
550.739	3804
551.213	3814
551.687	3824
552.162	3838
552.636	3805
553.111	3815
553.585	3922
554.06	3865
554.534	3926
555.009	3926
555.484	3983
555.958	4018
556.433	4032
556.908	4091
557.383	4053
557.858	4132
558.333	4150
558.807	4133
559.282	4182
559.757	4292
560.232	4270
560.708	4193
561.183	4184
561.658	4254
562.133	4245
562.608	4210
563.083	4319
563.559	4224
564.034	4237
564.509	4236
564.985	4249
565.46	4207
565.936	4286
566.411	4266
566.887	4214
567.362	4250
567.838	4269
568.313	4307
568.789	4234
569.265	4240
569.74	4273
570.216	4229
570.692	4283
571.168	4285
571.644	4303
572.12	4291
572.596	4321
573.071	4339
573.547	4482
574.024	4531
574.5	4560
574.976	4579
575.452	4643
575.928	4698
576.404	4719
576.881	4849
577.357	4779
577.833	4813
578.31	4924
578.786	4981
579.262	5043
579.739	4974
580.215	5138
580.692	5152
581.169	5093
581.645	5086
582.122	5242
582.598	5240
583.075	5210
583.552	5225
584.029	5204
584.506	5207
584.982	5162
585.459	5277
585.936	5195
586.413	5257
586.89	5375
587.367	5314
587.844	5405
588.321	5359
588.799	5378
589.276	5322
589.753	5398
590.23	5432
590.707	5429
591.185	5449
591.662	5464
592.139	5517
592.617	5587
593.094	5561
593.572	5601
594.049	5645
594.527	5685
595.004	5697
595.482	5876
595.96	5825
596.437	5785
596.915	5925
597.393	5849
597.871	6007
598.349	5928
598.826	6049
599.304	6040
599.782	6175
600.26	6130
600.738	6264
601.216	6228
601.694	6270
602.173	6301
602.651	6321
603.129	6283
603.607	6321
604.085	6338
604.564	6366
605.042	6407
605.52	6359
605.999	6479
606.477	6310
606.956	6337
607.434	6410.5
607.913	6484
608.391	6467
608.87	6396
609.348	6311
609.827	6348
610.306	6397
610.785	6399
611.263	6391
611.742	6351
612.221	6262
612.7	6355
613.179	6396
613.658	6314
614.137	6414
614.616	6481
615.095	6378
615.574	6469
616.053	6491
616.532	6427
617.011	6456
617.491	6487
617.97	6465
618.449	6542
618.928	6597
619.408	6544
619.887	6596
620.367	6640
620.846	6702
621.326	6638
621.805	6790
622.285	6807
622.764	6870
623.244	6878
623.724	6899
624.203	6940
624.683	6830
625.163	6956
625.643	6925
626.123	6871
626.602	7032
627.082	6897
627.562	6880
628.042	7006
628.522	6942
629.002	6918
629.482	6942
629.963	6950
630.443	6860
630.923	6853
631.403	6922
631.883	6893
632.364	6938
632.844	6915
633.324	6915
633.805	6892
634.285	6810
634.766	6762
635.246	6794
635.727	6805
636.207	6824
636.688	6781
637.168	6757
637.649	6730
638.13	6746
638.611	6814
639.091	6778
639.572	6736
640.053	6677
640.534	6730
641.015	6718
641.496	6609
641.977	6750
642.458	6690
642.939	6694
643.42	6705
643.901	6709
644.382	6791
644.863	6769
645.345	6754
645.826	6756
646.307	6763
646.788	6869
647.27	6767
647.751	6781
648.233	6832
648.714	6668
649.196	6821
649.677	6788
650.159	6796
650.64	6733
651.122	6862
651.603	6748
652.085	6821
652.567	6876
653.049	6815
653.53	6818
654.012	6923
654.494	6803
654.976	6878
655.458	6847
655.94	6814
656.422	6910
656.904	6783
657.386	6684
657.868	6693
658.35	6655
658.833	6694
659.315	6716
659.797	6604
660.279	6605
660.762	6613
661.244	6545
661.726	6499
662.209	6533
662.691	6539
663.174	6414
663.656	6449
664.139	6449
664.621	6413
665.104	6368
665.587	6436
666.069	6474
666.552	6462
667.035	6377
667.517	6402
668	6483
668.483	6468
668.966	6413
669.449	6377
669.932	6386
670.415	6438
670.898	6402
671.381	6429
671.864	6425
672.347	6320
672.83	6331
673.313	6317
673.797	6318
674.28	6432
674.763	6438
675.247	6443
675.73	6375
676.213	6419
676.697	6483
677.18	6510
677.664	6516
678.147	6501
678.631	6558
679.114	6624
679.598	6627
680.082	6676
680.565	6667
681.049	6632
681.533	6603
682.017	6657
682.5	6623
682.984	6634
683.468	6645
683.952	6544
684.436	6685
684.92	6618
685.404	6654
685.888	6673
686.372	6606
686.856	6613
687.341	6669
687.825	6555
688.309	6596
688.793	6605
689.278	6542
689.762	6611
690.246	6555
690.731	6554
691.215	6568
691.7	6416
692.184	6499
692.669	6470
693.153	6481
693.638	6365
694.122	6383
694.607	6458
695.092	6370
695.577	6435
696.061	6316
696.546	6343
697.031	6307
697.516	6368
698.001	6385
698.486	6369
698.971	6428
699.456	6254
699.941	6236
700.426	6233
700.911	6305
701.396	6279
701.881	6317
702.366	6253
702.852	6247
703.337	6240
703.822	6215
704.308	6204
704.793	6243
705.278	6243
705.764	6264
706.249	6207
706.735	6211
707.22	6269
707.706	6188
708.191	6260
708.677	6256
709.163	6196
709.648	6226
710.134	6336
710.62	6304
711.106	6312
711.592	6364
712.077	6280
712.563	6103
713.049	6099
713.535	6258
714.021	6242
714.507	6211
714.993	6137
715.479	6159
715.966	6088
716.452	6116
716.938	6134
717.424	5929
717.91	6060
718.397	5981
718.883	5950
719.369	5973
719.856	5903
720.342	5976
720.829	5888
721.315	5903
721.802	5848
722.288	5892
722.775	5656
723.262	5500
723.748	5740
724.235	5721
724.722	5806
725.208	5678
725.695	5671
726.182	5664
726.669	5608
727.156	5676
727.643	5632
728.13	5596
728.617	5525
729.104	5533
729.591	5490
730.078	5523
730.565	5530
731.052	5446
731.539	5461
732.027	5422
732.514	5342
733.001	5386
733.488	5352
733.976	5351
734.463	5312
734.951	5311
735.438	5360
735.926	5289
736.413	5332
736.901	5291
737.388	5329
737.876	5308
738.364	5265
738.851	5308
739.339	5315
739.827	5364
740.314	5178
740.802	5199
741.29	5209
741.778	5149
742.266	5155
742.754	5177
743.242	5240
743.73	5151
744.218	5133
744.706	5077
745.194	5156
745.682	5139
746.17	5133
746.659	5142
747.147	5012
747.635	5016
748.123	4996
748.612	4923
749.1	4865
749.589	4900
750.077	4887
750.566	4867
751.054	4890
751.543	4914
752.031	4795
752.52	4764
753.008	4670
753.497	4685
753.986	4686
754.474	4685
754.963	4730
755.452	4622
755.941	4592
756.43	4578
756.919	4554
757.408	4511
757.896	4539
758.385	4574
758.875	4529
759.364	4472
759.853	4434
760.342	4354
760.831	4450
761.32	4414
761.809	4331
762.299	4359
762.788	4369
763.277	4386
763.767	4321
764.256	4345
764.745	4279
765.235	4346
765.724	4219
766.214	4283
766.703	4238
767.193	4165
767.683	4156
768.172	4062
768.662	4094
769.152	4081
769.641	4083
770.131	3959
770.621	4011
771.111	3949
771.601	3944
772.09	3887
772.58	3848
773.07	3865
773.56	3871
774.05	3787
774.54	3768
775.031	3727
775.521	3716
776.011	3725
776.501	3767
776.991	3667
777.482	3708
777.972	3617
778.462	3607
778.953	3632
779.443	3614
779.933	3618
780.424	3581
780.914	3623
781.405	3631
781.895	3608
782.386	3606
782.877	3582
783.367	3515
783.858	3501
784.349	3498
784.839	3453
785.33	3481
785.821	3475
786.312	3453
786.803	3464
787.293	3462
787.784	3418
788.275	3369
788.766	3349
789.257	3399
789.748	3313
790.24	3271
790.731	3276
791.222	3216
791.713	3193
792.204	3213
792.696	3120
793.187	3149
793.678	3110
794.169	3021
794.661	3060
795.152	3000
795.644	2970
796.135	2970
796.627	2986
797.118	2936
797.61	2906
798.101	2866
798.593	2894
799.085	2837
799.576	2868
800.068	2843
800.56	2860
801.052	2796
801.544	2798
802.035	2788
802.527	2749
803.019	2712
803.511	2697
804.003	2678
804.495	2694
804.987	2675
805.479	2622
805.971	2638
806.464	2642
806.956	2579
807.448	2563
807.94	2566
808.433	2536
808.925	2529
809.417	2515
809.91	2508
810.402	2434
810.894	2459
811.387	2484
811.879	2448
812.372	2450
812.865	2415
813.357	2404
813.85	2387
814.342	2364
814.835	2363
815.328	2362
815.821	2321
816.313	2311
816.806	2317
817.299	2288
817.792	2302
818.285	2263
818.778	2292
819.271	2281
819.764	2242
820.257	2261
820.75	2264
821.243	2258
821.736	2223
822.229	2252
822.722	2235
823.216	2266
