Data from lamp4helium_sterk_Subt2__26__126.txt Node

Date: Wed Apr 09 11:06:57 CEST 2025
User: fys-lab-0081
Spectrometer: S04999
Trigger mode: 0
Resolution mode: 1024 pixels
Integration Time (sec): 1.000000E-1
Scans to average: 1
Nonlinearity correction enabled: false
Boxcar width: 0
Baseline correction enabled: true
XAxis mode: Wavelengths
Number of Pixels in Spectrum: 1024
>>>>>Begin Spectral Data<<<<<
336.42	4
336.877	2
337.334	5
337.792	4
338.249	5
338.706	3
339.164	6
339.621	4
340.079	9
340.536	5
340.994	4
341.452	9
341.909	9
342.367	3
342.825	3
343.283	4
343.741	4
344.198	9
344.656	3
345.114	5
345.572	10
346.03	5
346.488	6
346.947	4
347.405	8
347.863	7
348.321	4
348.779	7
349.238	3
349.696	7
350.154	7
350.613	5
351.071	7
351.53	9
351.988	12
352.447	9
352.905	6
353.364	7
353.823	9
354.282	11
354.74	7
355.199	10
355.658	12
356.117	8
356.576	12
357.035	8
357.494	7
357.953	11
358.412	16
358.871	11
359.33	12
359.789	6
360.249	11
360.708	15
361.167	17
361.626	15
362.086	14
362.545	16
363.005	17
363.464	15
363.924	17
364.383	13
364.843	20
365.303	23
365.762	25
366.222	19
366.682	18
367.142	18
367.601	20
368.061	24
368.521	22
368.981	16
369.441	28
369.901	26
370.361	24
370.821	22
371.282	28
371.742	25
372.202	28
372.662	26
373.123	26
373.583	29
374.043	32
374.504	25
374.964	26
375.425	33
375.885	33
376.346	36
376.806	33
377.267	35
377.728	42
378.188	39
378.649	34
379.11	39
379.571	35
380.032	40
380.493	44
380.954	44
381.414	40
381.876	44
382.337	46
382.798	50
383.259	49
383.72	53
384.181	51
384.642	51
385.104	55
385.565	61
386.026	64
386.488	65
386.949	65
387.411	62
387.872	72
388.334	71
388.795	76
389.257	73
389.719	74
390.181	71
390.642	76
391.104	77
391.566	82
392.028	83
392.49	91
392.952	88
393.414	90
393.876	94
394.338	93
394.8	95
395.262	89
395.724	103
396.186	101
396.648	105
397.111	100
397.573	110
398.035	107
398.498	109
398.96	117
399.423	107
399.885	116
400.348	118
400.81	120
401.273	120
401.736	122
402.198	133
402.661	136
403.124	127
403.587	138
404.049	140.5
404.512	143
404.975	146
405.438	147
405.901	157
406.364	154
406.827	153
407.29	158
407.754	151
408.217	154
408.68	153
409.143	166
409.607	164
410.07	164
410.533	158
410.997	167
411.46	174
411.924	178
412.387	180
412.851	177
413.314	178
413.778	185
414.242	190
414.705	201
415.169	198
415.633	199
416.097	192
416.561	199
417.024	202
417.488	201
417.952	201
418.416	202
418.88	202
419.344	198
419.809	207
420.273	212
420.737	211
421.201	217
421.665	220
422.13	226
422.594	233
423.059	235
423.523	240
423.987	235
424.452	246
424.916	252
425.381	262
425.846	258
426.31	264
426.775	274
427.24	277
427.704	270
428.169	273
428.634	281
429.099	279
429.564	277
430.029	280
430.494	276
430.959	278
431.424	281
431.889	292
432.354	296
432.819	289
433.284	311
433.75	308
434.215	320
434.68	318
435.146	321
435.611	336
436.077	345
436.542	350
437.008	360
437.473	365
437.939	371
438.404	376
438.87	386
439.336	379
439.801	378
440.267	393
440.733	395
441.199	397
441.665	398
442.131	410
442.596	399
443.062	413
443.529	433
443.995	444
444.461	447
444.927	466
445.393	471
445.859	493
446.325	499
446.792	532
447.258	527
447.724	543
448.191	562
448.657	564
449.124	576
449.59	574
450.057	609
450.523	618
450.99	625
451.457	617
451.923	640
452.39	629
452.857	647
453.324	642
453.791	647
454.257	650
454.724	664
455.191	664
455.658	667
456.125	689
456.592	679
457.059	688
457.527	704
457.994	719
458.461	720
458.928	737
459.396	737
459.863	760
460.33	756
460.798	756
461.265	773
461.732	763
462.2	785
462.668	772
463.135	797
463.603	767
464.07	797
464.538	771
465.006	790
465.474	781
465.941	780
466.409	790
466.877	776
467.345	795
467.813	777
468.281	797
468.749	802
469.217	807
469.685	821
470.153	839
470.621	834
471.09	841
471.558	879
472.026	878
472.494	902
472.963	913
473.431	939
473.9	956
474.368	978
474.837	995
475.305	1011
475.774	1025
476.242	1054
476.711	1054
477.18	1081
477.648	1073
478.117	1084
478.586	1083
479.055	1086
479.524	1097
479.993	1095
480.462	1084
480.93	1093
481.399	1095
481.869	1104
482.338	1088
482.807	1112
483.276	1112
483.745	1105
484.214	1143
484.684	1162
485.153	1167
485.622	1181
486.092	1212
486.561	1188
487.031	1230
487.5	1250
487.97	1261
488.439	1294
488.909	1325
489.378	1371
489.848	1376
490.318	1403
490.787	1471
491.257	1477
491.727	1485
492.197	1508
492.667	1511
493.137	1534
493.607	1541
494.077	1561
494.547	1540
495.017	1529
495.487	1561
495.957	1597
496.427	1556
496.897	1565
497.368	1579
497.838	1574
498.308	1606
498.779	1623
499.249	1629
499.719	1646
500.19	1666
500.66	1678
501.131	1678
501.602	1715
502.072	1709
502.543	1733
503.014	1799
503.484	1789
503.955	1841
504.426	1909
504.897	1913
505.368	1951
505.838	2001
506.309	2053
506.78	2116
507.251	2151
507.722	2194
508.194	2238
508.665	2278
509.136	2271
509.607	2341
510.078	2362
510.549	2378
511.021	2445
511.492	2443
511.964	2477
512.435	2506
512.906	2481
513.378	2501
513.849	2561
514.321	2575
514.793	2601
515.264	2639
515.736	2661
516.208	2705
516.679	2724
517.151	2738
517.623	2773
518.095	2823
518.567	2839
519.038	2892
519.51	2882
519.982	2916
520.454	2945
520.927	3005
521.399	3054
521.871	3081
522.343	3097
522.815	3114
523.287	3101
523.76	3133
524.232	3172
524.704	3191
525.177	3152
525.649	3171
526.122	3209
526.594	3139
527.067	3205
527.539	3250
528.012	3229
528.484	3226
528.957	3246
529.43	3245
529.903	3227
530.375	3340
530.848	3275
531.321	3321
531.794	3329
532.267	3393
532.74	3343
533.213	3339
533.686	3400
534.159	3382
534.632	3454
535.105	3447
535.578	3536
536.051	3542
536.525	3539
536.998	3547
537.471	3631
537.945	3586
538.418	3645
538.891	3659
539.365	3707
539.838	3732
540.312	3720
540.786	3737
541.259	3748
541.733	3814
542.206	3829
542.68	3747
543.154	3757
543.628	3777
544.101	3843
544.575	3786
545.049	3686
545.523	3757
545.997	3746
546.471	3777
546.945	3752
547.419	3810
547.893	3674
548.367	3760
548.842	3720
549.316	3740
549.79	3758
550.264	3732
550.739	3787
551.213	3800
551.687	3804
552.162	3830
552.636	3793
553.111	3797
553.585	3911
554.06	3850
554.534	3907
555.009	3902
555.484	3965
555.958	3999
556.433	4012
556.908	4064
557.383	4031
557.858	4113
558.333	4118
558.807	4115
559.282	4166
559.757	4265
560.232	4254
560.708	4171
561.183	4154
561.658	4231
562.133	4223
562.608	4182
563.083	4295
563.559	4211
564.034	4223
564.509	4210
564.985	4230
565.46	4184
565.936	4263
566.411	4254
566.887	4199
567.362	4220
567.838	4247
568.313	4286
568.789	4217
569.265	4222
569.74	4242
570.216	4215
570.692	4263
571.168	4265
571.644	4262
572.12	4271
572.596	4298
573.071	4315
573.547	4465
574.024	4504
574.5	4544
574.976	4553
575.452	4617
575.928	4683
576.404	4699
576.881	4835
577.357	4753
577.833	4787
578.31	4906
578.786	4947
579.262	5015
579.739	4951
580.215	5114
580.692	5127
581.169	5068
581.645	5075
582.122	5212
582.598	5203
583.075	5189
583.552	5205
584.029	5180
584.506	5180
584.982	5150
585.459	5251
585.936	5168
586.413	5223
586.89	5337
587.367	5285
587.844	5383
588.321	5326
588.799	5349
589.276	5295
589.753	5372
590.23	5405
590.707	5404
591.185	5421
591.662	5442
592.139	5500
592.617	5567
593.094	5539
593.572	5582
594.049	5628
594.527	5647
595.004	5674
595.482	5845
595.96	5800
596.437	5766
596.915	5895
597.393	5823
597.871	5966
598.349	5907
598.826	6011
599.304	6020
599.782	6146
600.26	6101
600.738	6242
601.216	6205
601.694	6236
602.173	6262
602.651	6301
603.129	6263
603.607	6295
604.085	6297
604.564	6328
605.042	6367
605.52	6320
605.999	6450
606.477	6276
606.956	6312
607.434	6386
607.913	6460
608.391	6433
608.87	6367
609.348	6277
609.827	6322
610.306	6365
610.785	6358
611.263	6359
611.742	6308
612.221	6234
612.7	6317
613.179	6362
613.658	6287
614.137	6380
614.616	6452
615.095	6350
615.574	6427
616.053	6453
616.532	6398
617.011	6421
617.491	6464
617.97	6429
618.449	6517
618.928	6574
619.408	6514
619.887	6567
620.367	6618
620.846	6672
621.326	6605
621.805	6759
622.285	6770
622.764	6842
623.244	6850
623.724	6869
624.203	6925
624.683	6790
625.163	6925
625.643	6896
626.123	6846
626.602	6998
627.082	6860
627.562	6846
628.042	6977
628.522	6920
629.002	6877
629.482	6910
629.963	6918
630.443	6827
630.923	6827
631.403	6881
631.883	6872
632.364	6902
632.844	6875
633.324	6881
633.805	6867
634.285	6775
634.766	6740
635.246	6759
635.727	6787
636.207	6792
636.688	6753
637.168	6724
637.649	6695
638.13	6719
638.611	6784
639.091	6742
639.572	6703
640.053	6652
640.534	6696
641.015	6679
641.496	6584
641.977	6710
642.458	6649
642.939	6661
643.42	6672
643.901	6676
644.382	6770
644.863	6743
645.345	6729
645.826	6731
646.307	6722
646.788	6846
647.27	6738
647.751	6739
648.233	6796
648.714	6645
649.196	6802
649.677	6759
650.159	6773
650.64	6707
651.122	6820
651.603	6714
652.085	6783
652.567	6840
653.049	6781
653.53	6784
654.012	6893
654.494	6778
654.976	6863
655.458	6813
655.94	6788
656.422	6887
656.904	6743
657.386	6657
657.868	6667
658.35	6624
658.833	6675
659.315	6686
659.797	6582
660.279	6570
660.762	6593
661.244	6514
661.726	6476
662.209	6501
662.691	6507
663.174	6368
663.656	6414
664.139	6433
664.621	6383
665.104	6344
665.587	6409
666.069	6446
666.552	6428
667.035	6352
667.517	6380
668	6460
668.483	6449
668.966	6380
669.449	6346
669.932	6357
670.415	6415
670.898	6365
671.381	6398
671.864	6401
672.347	6298
672.83	6298
673.313	6301
673.797	6291
674.28	6412
674.763	6417
675.247	6413
675.73	6353
676.213	6400
676.697	6476
677.18	6471
677.664	6480
678.147	6471
678.631	6529
679.114	6591
679.598	6603
680.082	6664
680.565	6651
681.049	6614
681.533	6578
682.017	6624
682.5	6601
682.984	6609
683.468	6615
683.952	6510
684.436	6661
684.92	6588
685.404	6624
685.888	6640
686.372	6576
686.856	6575
687.341	6638
687.825	6538
688.309	6567
688.793	6580
689.278	6524
689.762	6572
690.246	6528
690.731	6515
691.215	6544
691.7	6379
692.184	6477
692.669	6442
693.153	6445
693.638	6343
694.122	6361
694.607	6421
695.092	6337
695.577	6410
696.061	6300
696.546	6324
697.031	6278
697.516	6337
698.001	6363
698.486	6334
698.971	6385
699.456	6232
699.941	6216
700.426	6203
700.911	6278
701.396	6251
701.881	6282
702.366	6230
702.852	6219
703.337	6219
703.822	6193
704.308	6179
704.793	6211
705.278	6230
705.764	6240
706.249	6187
706.735	6175
707.22	6245
707.706	6162
708.191	6229
708.677	6233
709.163	6158
709.648	6200
710.134	6310
710.62	6269
711.106	6279
711.592	6335
712.077	6269
712.563	6084
713.049	6078
713.535	6226
714.021	6215
714.507	6199
714.993	6102
715.479	6145
715.966	6065
716.452	6089
716.938	6100
717.424	5908
717.91	6026
718.397	5962
718.883	5919
719.369	5954
719.856	5883
720.342	5949
720.829	5866
721.315	5881
721.802	5838
722.288	5863
722.775	5632
723.262	5484
723.748	5733
724.235	5700
724.722	5793
725.208	5644
725.695	5650
726.182	5644
726.669	5583
727.156	5652
727.643	5614
728.13	5584
728.617	5490
729.104	5503
729.591	5473
730.078	5508
730.565	5504
731.052	5426
731.539	5440
732.027	5402
732.514	5318
733.001	5365
733.488	5326
733.976	5322
734.463	5310
734.951	5292
735.438	5333
735.926	5272
736.413	5314
736.901	5258
737.388	5298
737.876	5279
738.364	5249
738.851	5283
739.339	5296
739.827	5342
740.314	5154
740.802	5186
741.29	5191
741.778	5124
742.266	5131
742.754	5163
743.242	5218
743.73	5128
744.218	5105
744.706	5053
745.194	5133
745.682	5108
746.17	5125
746.659	5121
747.147	4998
747.635	5010
748.123	4982
748.612	4908
749.1	4849
749.589	4868
750.077	4861
750.566	4852
751.054	4873
751.543	4895
752.031	4768
752.52	4740
753.008	4649
753.497	4653
753.986	4665
754.474	4674
754.963	4708
755.452	4614
755.941	4576
756.43	4561
756.919	4533
757.408	4502
757.896	4521
758.385	4561
758.875	4509
759.364	4467
759.853	4412
760.342	4338
760.831	4433
761.32	4395
761.809	4315
762.299	4346
762.788	4359
763.277	4364
763.767	4313
764.256	4319
764.745	4268
765.235	4325
765.724	4191
766.214	4275
766.703	4218
767.193	4141
767.683	4144
768.172	4046
768.662	4080
769.152	4059
769.641	4072
770.131	3951
770.621	3998
771.111	3940
771.601	3916
772.09	3872
772.58	3835
773.07	3839
773.56	3858
774.05	3770
774.54	3743
775.031	3716
775.521	3712
776.011	3709
776.501	3746
776.991	3657
777.482	3691
777.972	3610
778.462	3598
778.953	3612
779.443	3601
779.933	3597
780.424	3572
780.914	3612
781.405	3618
781.895	3596
782.386	3599
782.877	3567
783.367	3502
783.858	3487
784.349	3483
784.839	3445
785.33	3457
785.821	3454
786.312	3428
786.803	3456
787.293	3450
787.784	3402
788.275	3350
788.766	3337
789.257	3388
789.748	3291
790.24	3257
790.731	3258
791.222	3211
791.713	3189
792.204	3195
792.696	3107
793.187	3130
793.678	3101
794.169	3006
794.661	3044
795.152	2988
795.644	2966
796.135	2966
796.627	2978
797.118	2922
797.61	2893
798.101	2851
798.593	2891
799.085	2832
799.576	2856
800.068	2834
800.56	2856
801.052	2787
801.544	2779
802.035	2779
802.527	2743
803.019	2707
803.511	2687
804.003	2671
804.495	2684
804.987	2665
805.479	2614
805.971	2628
806.464	2626
806.956	2563
807.448	2551
807.94	2555
808.433	2535
808.925	2521
809.417	2499
809.91	2493
810.402	2429
810.894	2442
811.387	2472
811.879	2434
812.372	2445
812.865	2406
813.357	2395
813.85	2379
814.342	2353
814.835	2355
815.328	2348
815.821	2313
816.313	2307
816.806	2310
817.299	2284
817.792	2291
818.285	2251
818.778	2277
819.271	2268
819.764	2239
820.257	2255
820.75	2251
821.243	2247
821.736	2222
822.229	2243
822.722	2224
823.216	2265
