Data from lamp4helium_sterk_Subt2__95__195.txt Node

Date: Wed Apr 09 11:07:06 CEST 2025
User: fys-lab-0081
Spectrometer: S04999
Trigger mode: 0
Resolution mode: 1024 pixels
Integration Time (sec): 1.000000E-1
Scans to average: 1
Nonlinearity correction enabled: false
Boxcar width: 0
Baseline correction enabled: true
XAxis mode: Wavelengths
Number of Pixels in Spectrum: 1024
>>>>>Begin Spectral Data<<<<<
336.42	2
336.877	1
337.334	5
337.792	7
338.249	7
338.706	7
339.164	0
339.621	2
340.079	6
340.536	7
340.994	6
341.452	5
341.909	9
342.367	3
342.825	1
343.283	8
343.741	2
344.198	6
344.656	7
345.114	3
345.572	4
346.03	6
346.488	2
346.947	4
347.405	7
347.863	2
348.321	5
348.779	9
349.238	8
349.696	8
350.154	6
350.613	9
351.071	9
351.53	8
351.988	12
352.447	8
352.905	8
353.364	10
353.823	10
354.282	7
354.74	8
355.199	12
355.658	14
356.117	12
356.576	13
357.035	10
357.494	11
357.953	10
358.412	9
358.871	15
359.33	7
359.789	14
360.249	12
360.708	11
361.167	14
361.626	14
362.086	15
362.545	13
363.005	15
363.464	16
363.924	15
364.383	15
364.843	20
365.303	21
365.762	23
366.222	19
366.682	18
367.142	22
367.601	21
368.061	19
368.521	21
368.981	25
369.441	27
369.901	27
370.361	26
370.821	23
371.282	26
371.742	23
372.202	27
372.662	24
373.123	24
373.583	27
374.043	33
374.504	27
374.964	29
375.425	26
375.885	32
376.346	33
376.806	36
377.267	35
377.728	38
378.188	39
378.649	35
379.11	43
379.571	29
380.032	39
380.493	39
380.954	44
381.414	40
381.876	44
382.337	45
382.798	49
383.259	52
383.72	52
384.181	49
384.642	51
385.104	56
385.565	58
386.026	65
386.488	58
386.949	64
387.411	65
387.872	66
388.334	70
388.795	70
389.257	70
389.719	73
390.181	73
390.642	75
391.104	79
391.566	80
392.028	86
392.49	90
392.952	94
393.414	92
393.876	92
394.338	89
394.8	94
395.262	89
395.724	100
396.186	101
396.648	102
397.111	101
397.573	105
398.035	106
398.498	108
398.96	111
399.423	113
399.885	109
400.348	118
400.81	122
401.273	121
401.736	120
402.198	130
402.661	137
403.124	132
403.587	138
404.049	141
404.512	144
404.975	144
405.438	144
405.901	150
406.364	153
406.827	152
407.29	149
407.754	150
408.217	152
408.68	156
409.143	160
409.607	167
410.07	161
410.533	159
410.997	165
411.46	169
411.924	177
412.387	179
412.851	178
413.314	181
413.778	180
414.242	187
414.705	193
415.169	197
415.633	191
416.097	192
416.561	199
417.024	203
417.488	197
417.952	202
418.416	199
418.88	198
419.344	199
419.809	205
420.273	208
420.737	208
421.201	214
421.665	216
422.13	225
422.594	228
423.059	232
423.523	234
423.987	233
424.452	248
424.916	249
425.381	256
425.846	254
426.31	264
426.775	273
427.24	274
427.704	267
428.169	272
428.634	272
429.099	273
429.564	274
430.029	276
430.494	276
430.959	275
431.424	278
431.889	290
432.354	297
432.819	286
433.284	297
433.75	304
434.215	316
434.68	311
435.146	321
435.611	332
436.077	348
436.542	348
437.008	359
437.473	361
437.939	364
438.404	374
438.87	386
439.336	375
439.801	373
440.267	383
440.733	396
441.199	393
441.665	390
442.131	404
442.596	395
443.062	412
443.529	427
443.995	436
444.461	444
444.927	464
445.393	472
445.859	482
446.325	494
446.792	525
447.258	524
447.724	538
448.191	559
448.657	559
449.124	576
449.59	568
450.057	603
450.523	612
450.99	622
451.457	611
451.923	632
452.39	626
452.857	642
453.324	636
453.791	646
454.257	648
454.724	657
455.191	661
455.658	660
456.125	686
456.592	670
457.059	682
457.527	692
457.994	713
458.461	719
458.928	732
459.396	726
459.863	760
460.33	750
460.798	752
461.265	764
461.732	755
462.2	777
462.668	775
463.135	784
463.603	761
464.07	785
464.538	765
465.006	788
465.474	772
465.941	775
466.409	784
466.877	770
467.345	789
467.813	776
468.281	795
468.749	801
469.217	801
469.685	813
470.153	832
470.621	827
471.09	829
471.558	868
472.026	869
472.494	901
472.963	908
473.431	929
473.9	952
474.368	965
474.837	983
475.305	1001
475.774	1013
476.242	1043
476.711	1043
477.18	1069
477.648	1063
478.117	1074
478.586	1071
479.055	1077
479.524	1086
479.993	1087
480.462	1080
480.93	1085
481.399	1089
481.869	1092
482.338	1083
482.807	1099
483.276	1095
483.745	1101
484.214	1129
484.684	1151
485.153	1155
485.622	1165
486.092	1196
486.561	1184
487.031	1221
487.5	1239
487.97	1250
488.439	1276
488.909	1312
489.378	1364
489.848	1367
490.318	1394
490.787	1458
491.257	1471
491.727	1478
492.197	1500
492.667	1499
493.137	1524
493.607	1530
494.077	1544
494.547	1528
495.017	1519
495.487	1547
495.957	1589
496.427	1544
496.897	1551
497.368	1575
497.838	1567
498.308	1590
498.779	1611
499.249	1617
499.719	1632
500.19	1656
500.66	1659
501.131	1666
501.602	1703
502.072	1699
502.543	1721
503.014	1786
503.484	1774
503.955	1828
504.426	1888
504.897	1898
505.368	1936
505.838	1984
506.309	2030
506.78	2099
507.251	2131
507.722	2175
508.194	2228
508.665	2256
509.136	2257
509.607	2327
510.078	2338
510.549	2359
511.021	2429
511.492	2422
511.964	2460
512.435	2490
512.906	2458
513.378	2479
513.849	2545
514.321	2554
514.793	2578
515.264	2615
515.736	2636
516.208	2689
516.679	2707
517.151	2718
517.623	2749
518.095	2792
518.567	2819
519.038	2871
519.51	2865
519.982	2898
520.454	2925
520.927	2981
521.399	3027
521.871	3057
522.343	3062
522.815	3083
523.287	3079
523.76	3105
524.232	3155
524.704	3180
525.177	3119
525.649	3155
526.122	3188
526.594	3115
527.067	3186
527.539	3219
528.012	3210
528.484	3200
528.957	3230
529.43	3216
529.903	3203
530.375	3319
530.848	3252
531.321	3297
531.794	3303
532.267	3377
532.74	3319
533.213	3314
533.686	3373
534.159	3357
534.632	3432
535.105	3434
535.578	3499
536.051	3516
536.525	3530
536.998	3527
537.471	3611
537.945	3556
538.418	3606
538.891	3631
539.365	3682
539.838	3701
540.312	3687
540.786	3710
541.259	3721
541.733	3780
542.206	3786
542.68	3724
543.154	3727
543.628	3750
544.101	3814
544.575	3757
545.049	3661
545.523	3742
545.997	3705
546.471	3746
546.945	3726
547.419	3785
547.893	3661
548.367	3730
548.842	3690
549.316	3715
549.79	3741
550.264	3705
550.739	3755
551.213	3778
551.687	3782
552.162	3803
552.636	3773
553.111	3761
553.585	3878
554.06	3825
554.534	3877
555.009	3867
555.484	3934
555.958	3963
556.433	3976
556.908	4037
557.383	4000
557.858	4086
558.333	4101
558.807	4085
559.282	4125
559.757	4236
560.232	4227
560.708	4144
561.183	4130
561.658	4199
562.133	4194
562.608	4163
563.083	4267
563.559	4177
564.034	4181
564.509	4182
564.985	4195
565.46	4154
565.936	4238
566.411	4217
566.887	4161
567.362	4200
567.838	4211
568.313	4255
568.789	4182
569.265	4195
569.74	4214
570.216	4181
570.692	4240
571.168	4238
571.644	4239
572.12	4240
572.596	4275
573.071	4283
573.547	4422
574.024	4478
574.5	4502
574.976	4520
575.452	4584
575.928	4643
576.404	4660
576.881	4792
577.357	4715
577.833	4741
578.31	4873
578.786	4917
579.262	4966
579.739	4921
580.215	5072
580.692	5094
581.169	5030
581.645	5040
582.122	5182
582.598	5181
583.075	5144
583.552	5166
584.029	5148
584.506	5141
584.982	5112
585.459	5209
585.936	5133
586.413	5202
586.89	5294
587.367	5251
587.844	5351
588.321	5296
588.799	5310
589.276	5255
589.753	5333
590.23	5370
590.707	5357
591.185	5379
591.662	5393
592.139	5466
592.617	5537
593.094	5498
593.572	5530
594.049	5577
594.527	5614
595.004	5637
595.482	5811
595.96	5745
596.437	5720
596.915	5847
597.393	5785
597.871	5917
598.349	5856
598.826	5971
599.304	5979
599.782	6105
600.26	6073
600.738	6183
601.216	6150
601.694	6205
602.173	6217
602.651	6267
603.129	6205
603.607	6249
604.085	6265
604.564	6293
605.042	6329
605.52	6287
605.999	6401
606.477	6234
606.956	6276
607.434	6340
607.913	6404
608.391	6394
608.87	6327
609.348	6248
609.827	6284
610.306	6323
610.785	6329
611.263	6323
611.742	6272
612.221	6196
612.7	6279
613.179	6319
613.658	6239
614.137	6336
614.616	6398
615.095	6309
615.574	6394
616.053	6417
616.532	6364
617.011	6391
617.491	6412
617.97	6386
618.449	6458
618.928	6526
619.408	6476
619.887	6519
620.367	6558
620.846	6629
621.326	6566
621.805	6706
622.285	6724
622.764	6784
623.244	6789
623.724	6827
624.203	6875
624.683	6742
625.163	6880
625.643	6846
626.123	6789
626.602	6951
627.082	6819
627.562	6800
628.042	6923
628.522	6870
629.002	6833
629.482	6865
629.963	6858
630.443	6778
630.923	6792
631.403	6847
631.883	6817
632.364	6859
632.844	6838
633.324	6846
633.805	6820
634.285	6731
634.766	6692
635.246	6712
635.727	6734
636.207	6752
636.688	6714
637.168	6690
637.649	6657
638.13	6674
638.611	6734
639.091	6704
639.572	6655
640.053	6603
640.534	6658
641.015	6643
641.496	6545
641.977	6675
642.458	6599
642.939	6622
643.42	6628
643.901	6629
644.382	6718
644.863	6707
645.345	6689
645.826	6685
646.307	6673
646.788	6800
647.27	6696
647.751	6701
648.233	6754
648.714	6590
649.196	6760
649.677	6704
650.159	6724
650.64	6653
651.122	6784
651.603	6680
652.085	6750
652.567	6797
653.049	6731
653.53	6742
654.012	6836
654.494	6722
654.976	6809
655.458	6770
655.94	6738
656.422	6840
656.904	6697
657.386	6614
657.868	6616
658.35	6581
658.833	6624
659.315	6634
659.797	6534
660.279	6525
660.762	6543
661.244	6482
661.726	6444
662.209	6463
662.691	6463
663.174	6330
663.656	6375
664.139	6392
664.621	6340
665.104	6303
665.587	6365
666.069	6404
666.552	6397
667.035	6308
667.517	6344
668	6417
668.483	6407
668.966	6337
669.449	6307
669.932	6307
670.415	6372
670.898	6328
671.381	6355
671.864	6366
672.347	6250
672.83	6260
673.313	6262
673.797	6257
674.28	6370
674.763	6368
675.247	6373
675.73	6303
676.213	6352
676.697	6433
677.18	6444
677.664	6445
678.147	6419
678.631	6480
679.114	6562
679.598	6556
680.082	6607
680.565	6595
681.049	6565
681.533	6544
682.017	6576
682.5	6558
682.984	6577
683.468	6576
683.952	6467
684.436	6612
684.92	6544
685.404	6583
685.888	6604
686.372	6528
686.856	6529
687.341	6590
687.825	6491
688.309	6522
688.793	6541
689.278	6477
689.762	6544
690.246	6488
690.731	6468
691.215	6501
691.7	6329
692.184	6440
692.669	6395
693.153	6414
693.638	6298
694.122	6316
694.607	6396
695.092	6306
695.577	6361
696.061	6255
696.546	6277
697.031	6243
697.516	6304
698.001	6317
698.486	6283
698.971	6356
699.456	6183
699.941	6169
700.426	6161
700.911	6231
701.396	6213
701.881	6241
702.366	6199
702.852	6178
703.337	6175
703.822	6147
704.308	6136
704.793	6185
705.278	6184
705.764	6203
706.249	6152
706.735	6145
707.22	6204
707.706	6114
708.191	6194
708.677	6194
709.163	6143
709.648	6160
710.134	6278
710.62	6233
711.106	6238
711.592	6290
712.077	6230
712.563	6051
713.049	6040
713.535	6189
714.021	6180
714.507	6148
714.993	6058
715.479	6094
715.966	6018
716.452	6058
716.938	6059
717.424	5863
717.91	5996
718.397	5926
718.883	5892
719.369	5920
719.856	5835
720.342	5917
720.829	5834
721.315	5848
721.802	5792
722.288	5817
722.775	5595
723.262	5451
723.748	5692
724.235	5663
724.722	5746
725.208	5622
725.695	5616
726.182	5603
726.669	5547
727.156	5622
727.643	5583
728.13	5546
728.617	5466
729.104	5475
729.591	5432
730.078	5476
730.565	5471
731.052	5384
731.539	5399
732.027	5355
732.514	5285
733.001	5333
733.488	5291
733.976	5290
734.463	5266
734.951	5255
735.438	5304
735.926	5240
736.413	5274
736.901	5236
737.388	5262
737.876	5254
738.364	5215
738.851	5249
739.339	5262
739.827	5311
740.314	5120
740.802	5142
741.29	5166
741.778	5092
742.266	5097
742.754	5117
743.242	5178
743.73	5089
744.218	5074
744.706	5020
745.194	5099
745.682	5081
746.17	5088
746.659	5090
747.147	4968
747.635	4977
748.123	4942
748.612	4873
749.1	4826
749.589	4836
750.077	4840
750.566	4824
751.054	4835
751.543	4858
752.031	4745
752.52	4720
753.008	4616
753.497	4636
753.986	4641
754.474	4646
754.963	4677
755.452	4582
755.941	4545
756.43	4522
756.919	4507
757.408	4472
757.896	4495
758.385	4520
758.875	4481
759.364	4424
759.853	4384
760.342	4316
760.831	4407
761.32	4365
761.809	4292
762.299	4318
762.788	4328
763.277	4341
763.767	4283
764.256	4299
764.745	4242
765.235	4297
765.724	4174
766.214	4243
766.703	4187
767.193	4115
767.683	4118
768.172	4011
768.662	4060
769.152	4039
769.641	4048
770.131	3923
770.621	3976
771.111	3921
771.601	3905
772.09	3853
772.58	3812
773.07	3814
773.56	3838
774.05	3751
774.54	3725
775.031	3692
775.521	3685
776.011	3686
776.501	3719
776.991	3631
777.482	3667
777.972	3580
778.462	3571
778.953	3595
779.443	3580
779.933	3589
780.424	3547
780.914	3594
781.405	3595
781.895	3576
782.386	3570
782.877	3555
783.367	3484
783.858	3460
784.349	3461
784.839	3430
785.33	3433
785.821	3432
786.312	3415
786.803	3426
787.293	3434
787.784	3391
788.275	3338
788.766	3314
789.257	3356
789.748	3275
790.24	3238
790.731	3245
791.222	3190
791.713	3168
792.204	3184
792.696	3089
793.187	3117
793.678	3079
794.169	2982
794.661	3021
795.152	2964
795.644	2941
796.135	2945
796.627	2965
797.118	2903
797.61	2870
798.101	2841
798.593	2868
799.085	2818
799.576	2827
800.068	2810
800.56	2835
801.052	2773
801.544	2763
802.035	2769
802.527	2724
803.019	2688
803.511	2663
804.003	2650
804.495	2661
804.987	2653
805.479	2597
805.971	2613
806.464	2607
806.956	2546
807.448	2533
807.94	2541
808.433	2521
808.925	2503
809.417	2487
809.91	2487
810.402	2414
810.894	2429
811.387	2456
811.879	2420
812.372	2431
812.865	2391
813.357	2385
813.85	2370
814.342	2343
814.835	2338
815.328	2329
815.821	2294
816.313	2292
816.806	2293
817.299	2268
817.792	2279
818.285	2240
818.778	2272
819.271	2256
819.764	2232
820.257	2237
820.75	2235
821.243	2238
821.736	2206
822.229	2221
822.722	2205
823.216	2250
