Data from lamp4helium_sterk_Subt2__12__112.txt Node

Date: Wed Apr 09 11:06:56 CEST 2025
User: fys-lab-0081
Spectrometer: S04999
Trigger mode: 0
Resolution mode: 1024 pixels
Integration Time (sec): 1.000000E-1
Scans to average: 1
Nonlinearity correction enabled: false
Boxcar width: 0
Baseline correction enabled: true
XAxis mode: Wavelengths
Number of Pixels in Spectrum: 1024
>>>>>Begin Spectral Data<<<<<
336.42	2
336.877	4
337.334	5
337.792	2
338.249	5
338.706	7
339.164	7
339.621	5
340.079	6
340.536	5
340.994	5
341.452	10
341.909	9
342.367	3
342.825	0
343.283	8
343.741	9
344.198	4
344.656	3
345.114	2
345.572	7
346.03	5
346.488	5
346.947	2
347.405	9
347.863	7
348.321	6
348.779	8
349.238	6
349.696	11
350.154	3
350.613	4
351.071	8
351.53	10
351.988	12
352.447	8
352.905	5
353.364	6
353.823	9
354.282	10
354.74	6
355.199	15
355.658	17
356.117	11
356.576	12
357.035	8
357.494	11
357.953	12
358.412	14
358.871	13
359.33	13
359.789	7
360.249	16
360.708	12
361.167	18
361.626	16
362.086	14
362.545	17
363.005	19
363.464	13
363.924	15
364.383	16
364.843	17
365.303	24
365.762	22
366.222	22
366.682	17
367.142	25
367.601	23
368.061	19
368.521	24
368.981	20
369.441	26
369.901	27
370.361	18
370.821	22
371.282	22
371.742	24
372.202	25
372.662	27
373.123	24
373.583	25
374.043	31
374.504	26
374.964	31
375.425	29
375.885	32
376.346	32
376.806	39
377.267	34
377.728	37
378.188	36
378.649	34
379.11	38
379.571	34
380.032	41
380.493	39
380.954	47
381.414	42
381.876	42
382.337	48
382.798	50
383.259	50
383.72	51
384.181	49
384.642	55
385.104	58
385.565	60
386.026	63
386.488	65
386.949	64
387.411	62
387.872	66
388.334	70
388.795	72
389.257	75
389.719	75
390.181	74
390.642	74
391.104	76
391.566	80
392.028	84
392.49	94
392.952	91
393.414	94
393.876	96
394.338	93
394.8	95
395.262	93
395.724	102
396.186	101
396.648	105
397.111	109
397.573	110
398.035	106
398.498	109
398.96	116
399.423	116
399.885	115
400.348	117
400.81	119
401.273	123
401.736	124
402.198	136
402.661	140
403.124	131
403.587	144
404.049	143.5
404.512	143
404.975	145
405.438	145
405.901	153
406.364	153
406.827	149
407.29	149
407.754	151
408.217	154
408.68	157
409.143	163
409.607	164
410.07	164
410.533	162
410.997	168
411.46	171
411.924	183
412.387	177
412.851	180
413.314	187
413.778	186
414.242	190
414.705	200
415.169	197
415.633	196
416.097	197
416.561	202
417.024	204
417.488	200
417.952	203
418.416	201
418.88	202
419.344	202
419.809	210
420.273	216
420.737	206
421.201	219
421.665	219
422.13	223
422.594	236
423.059	236
423.523	240
423.987	236
424.452	250
424.916	254
425.381	263
425.846	261
426.31	270
426.775	271
427.24	276
427.704	274
428.169	280
428.634	278
429.099	276
429.564	278
430.029	281
430.494	284
430.959	281
431.424	282
431.889	289
432.354	298
432.819	293
433.284	310
433.75	303
434.215	324
434.68	316
435.146	326
435.611	338
436.077	350
436.542	350
437.008	360
437.473	364
437.939	372
438.404	379
438.87	392
439.336	381
439.801	380
440.267	391
440.733	396
441.199	398
441.665	395
442.131	412
442.596	403
443.062	418
443.529	440
443.995	445
444.461	450
444.927	472
445.393	473
445.859	491
446.325	497
446.792	530
447.258	532
447.724	549
448.191	562
448.657	566
449.124	582
449.59	578
450.057	612
450.523	616
450.99	626
451.457	624
451.923	640
452.39	632
452.857	652
453.324	640
453.791	656
454.257	658
454.724	664
455.191	668
455.658	668
456.125	692
456.592	677
457.059	688
457.527	703
457.994	722
458.461	729
458.928	744
459.396	736
459.863	763
460.33	757
460.798	765
461.265	778
461.732	769
462.2	784
462.668	783
463.135	798
463.603	774
464.07	795
464.538	776
465.006	803
465.474	781
465.941	784
466.409	795
466.877	777
467.345	801
467.813	787
468.281	802
468.749	814
469.217	814
469.685	823
470.153	845
470.621	841
471.09	842
471.558	882
472.026	879
472.494	909
472.963	914
473.431	942
473.9	966
474.368	986
474.837	998
475.305	1009
475.774	1027
476.242	1057
476.711	1060
477.18	1087
477.648	1081
478.117	1085
478.586	1088
479.055	1092
479.524	1099
479.993	1100
480.462	1096
480.93	1098
481.399	1099
481.869	1107
482.338	1098
482.807	1121
483.276	1111
483.745	1109
484.214	1147
484.684	1169
485.153	1173
485.622	1182
486.092	1214
486.561	1191
487.031	1233
487.5	1256
487.97	1271
488.439	1300
488.909	1335
489.378	1376
489.848	1383
490.318	1408
490.787	1469
491.257	1484
491.727	1488
492.197	1517
492.667	1523
493.137	1541
493.607	1547
494.077	1562
494.547	1549
495.017	1541
495.487	1565
495.957	1605
496.427	1569
496.897	1574
497.368	1591
497.838	1585
498.308	1603
498.779	1624
499.249	1634
499.719	1652
500.19	1679
500.66	1680
501.131	1694
501.602	1721
502.072	1719
502.543	1748
503.014	1805
503.484	1799
503.955	1844
504.426	1918
504.897	1921
505.368	1964
505.838	2015
506.309	2059
506.78	2122
507.251	2161
507.722	2205
508.194	2247
508.665	2291
509.136	2277
509.607	2357
510.078	2371
510.549	2389
511.021	2450
511.492	2448
511.964	2494
512.435	2519
512.906	2494
513.378	2512
513.849	2571
514.321	2583
514.793	2612
515.264	2648
515.736	2679
516.208	2720
516.679	2733
517.151	2761
517.623	2786
518.095	2834
518.567	2847
519.038	2905
519.51	2898
519.982	2924
520.454	2964
520.927	3017
521.399	3059
521.871	3101
522.343	3103
522.815	3125
523.287	3115
523.76	3139
524.232	3185
524.704	3216
525.177	3162
525.649	3190
526.122	3218
526.594	3154
527.067	3220
527.539	3259
528.012	3251
528.484	3243
528.957	3252
529.43	3255
529.903	3245
530.375	3359
530.848	3293
531.321	3333
531.794	3345
532.267	3416
532.74	3352
533.213	3351
533.686	3417
534.159	3394
534.632	3466
535.105	3474
535.578	3544
536.051	3553
536.525	3566
536.998	3569
537.471	3654
537.945	3597
538.418	3651
538.891	3677
539.365	3722
539.838	3748
540.312	3723
540.786	3755
541.259	3764
541.733	3819
542.206	3833
542.68	3774
543.154	3779
543.628	3799
544.101	3858
544.575	3803
545.049	3708
545.523	3789
545.997	3764
546.471	3795
546.945	3772
547.419	3827
547.893	3700
548.367	3775
548.842	3739
549.316	3756
549.79	3779
550.264	3753
550.739	3800
551.213	3819
551.687	3820
552.162	3853
552.636	3802
553.111	3810
553.585	3921
554.06	3859
554.534	3933
555.009	3917
555.484	3981
555.958	4016
556.433	4030
556.908	4090
557.383	4052
557.858	4141
558.333	4138
558.807	4131
559.282	4179
559.757	4276
560.232	4269
560.708	4191
561.183	4178
561.658	4244
562.133	4233
562.608	4209
563.083	4313
563.559	4231
564.034	4232
564.509	4221
564.985	4246
565.46	4204
565.936	4280
566.411	4276
566.887	4215
567.362	4246
567.838	4266
568.313	4303
568.789	4230
569.265	4237
569.74	4266
570.216	4227
570.692	4285
571.168	4281
571.644	4294
572.12	4294
572.596	4320
573.071	4335
573.547	4474
574.024	4534
574.5	4565
574.976	4569
575.452	4638
575.928	4696
576.404	4721
576.881	4854
577.357	4772
577.833	4790
578.31	4926
578.786	4964
579.262	5027
579.739	4969
580.215	5130
580.692	5154
581.169	5084
581.645	5096
582.122	5237
582.598	5229
583.075	5213
583.552	5226
584.029	5206
584.506	5201
584.982	5162
585.459	5266
585.936	5197
586.413	5262
586.89	5367
587.367	5308
587.844	5402
588.321	5350
588.799	5369
589.276	5310
589.753	5399
590.23	5428
590.707	5431
591.185	5444
591.662	5466
592.139	5522
592.617	5589
593.094	5569
593.572	5599
594.049	5637
594.527	5682
595.004	5703
595.482	5868
595.96	5819
596.437	5782
596.915	5914
597.393	5846
597.871	5993
598.349	5930
598.826	6025
599.304	6051
599.782	6175
600.26	6146
600.738	6264
601.216	6218
601.694	6272
602.173	6289
602.651	6331
603.129	6280
603.607	6318
604.085	6335
604.564	6351
605.042	6397
605.52	6348
605.999	6473
606.477	6294
606.956	6334
607.434	6415
607.913	6496
608.391	6457
608.87	6409
609.348	6303
609.827	6347
610.306	6394
610.785	6406
611.263	6387
611.742	6346
612.221	6269
612.7	6345
613.179	6397
613.658	6304
614.137	6412
614.616	6476
615.095	6371
615.574	6451
616.053	6481
616.532	6433
617.011	6448
617.491	6492
617.97	6449
618.449	6533
618.928	6592
619.408	6542
619.887	6587
620.367	6634
620.846	6688
621.326	6638
621.805	6787
622.285	6797
622.764	6871
623.244	6875
623.724	6887
624.203	6943
624.683	6807
625.163	6955
625.643	6932
626.123	6858
626.602	7037
627.082	6897
627.562	6867
628.042	7008
628.522	6946
629.002	6906
629.482	6934
629.963	6931
630.443	6852
630.923	6853
631.403	6914
631.883	6892
632.364	6942
632.844	6898
633.324	6923
633.805	6888
634.285	6796
634.766	6758
635.246	6780
635.727	6809
636.207	6826
636.688	6788
637.168	6758
637.649	6730
638.13	6746
638.611	6807
639.091	6780
639.572	6728
640.053	6677
640.534	6727
641.015	6707
641.496	6616
641.977	6729
642.458	6673
642.939	6697
643.42	6711
643.901	6701
644.382	6791
644.863	6777
645.345	6756
645.826	6755
646.307	6751
646.788	6855
647.27	6767
647.751	6770
648.233	6821
648.714	6659
649.196	6822
649.677	6785
650.159	6796
650.64	6726
651.122	6855
651.603	6740
652.085	6806
652.567	6873
653.049	6813
653.53	6808
654.012	6918
654.494	6797
654.976	6878
655.458	6838
655.94	6805
656.422	6919
656.904	6784
657.386	6686
657.868	6673
658.35	6642
658.833	6699
659.315	6715
659.797	6603
660.279	6597
660.762	6617
661.244	6533
661.726	6495
662.209	6526
662.691	6523
663.174	6401
663.656	6438
664.139	6458
664.621	6414
665.104	6363
665.587	6425
666.069	6476
666.552	6457
667.035	6378
667.517	6412
668	6469
668.483	6467
668.966	6398
669.449	6382
669.932	6382
670.415	6442
670.898	6393
671.381	6422
671.864	6422
672.347	6318
672.83	6322
673.313	6320
673.797	6317
674.28	6427
674.763	6445
675.247	6430
675.73	6374
676.213	6417
676.697	6490
677.18	6496
677.664	6506
678.147	6500
678.631	6547
679.114	6624
679.598	6629
680.082	6680
680.565	6660
681.049	6623
681.533	6607
682.017	6659
682.5	6616
682.984	6639
683.468	6642
683.952	6552
684.436	6672
684.92	6603
685.404	6651
685.888	6680
686.372	6595
686.856	6616
687.341	6657
687.825	6558
688.309	6582
688.793	6612
689.278	6545
689.762	6603
690.246	6554
690.731	6540
691.215	6563
691.7	6408
692.184	6493
692.669	6469
693.153	6475
693.638	6356
694.122	6374
694.607	6450
695.092	6369
695.577	6434
696.061	6316
696.546	6334
697.031	6308
697.516	6362
698.001	6376
698.486	6350
698.971	6427
699.456	6249
699.941	6235
700.426	6223
700.911	6301
701.396	6279
701.881	6313
702.366	6256
702.852	6244
703.337	6232
703.822	6203
704.308	6203
704.793	6238
705.278	6239
705.764	6268
706.249	6210
706.735	6194
707.22	6265
707.706	6185
708.191	6254
708.677	6249
709.163	6191
709.648	6210
710.134	6332
710.62	6291
711.106	6297
711.592	6350
712.077	6290
712.563	6118
713.049	6097
713.535	6250
714.021	6233
714.507	6220
714.993	6114
715.479	6161
715.966	6089
716.452	6105
716.938	6131
717.424	5926
717.91	6053
718.397	5980
718.883	5956
719.369	5975
719.856	5894
720.342	5965
720.829	5886
721.315	5909
721.802	5854
722.288	5880
722.775	5647
723.262	5505
723.748	5746
724.235	5728
724.722	5815
725.208	5675
725.695	5674
726.182	5658
726.669	5611
727.156	5676
727.643	5637
728.13	5599
728.617	5520
729.104	5524
729.591	5477
730.078	5529
730.565	5524
731.052	5444
731.539	5459
732.027	5432
732.514	5333
733.001	5380
733.488	5341
733.976	5344
734.463	5320
734.951	5314
735.438	5359
735.926	5277
736.413	5329
736.901	5286
737.388	5325
737.876	5311
738.364	5265
738.851	5307
739.339	5317
739.827	5364
740.314	5178
740.802	5198
741.29	5214
741.778	5142
742.266	5148
742.754	5182
743.242	5233
743.73	5150
744.218	5130
744.706	5074
745.194	5145
745.682	5132
746.17	5144
746.659	5148
747.147	5017
747.635	5020
748.123	4997
748.612	4920
749.1	4861
749.589	4887
750.077	4880
750.566	4862
751.054	4891
751.543	4906
752.031	4797
752.52	4767
753.008	4659
753.497	4671
753.986	4675
754.474	4691
754.963	4726
755.452	4627
755.941	4587
756.43	4574
756.919	4546
757.408	4519
757.896	4543
758.385	4574
758.875	4521
759.364	4476
759.853	4432
760.342	4350
760.831	4445
761.32	4409
761.809	4329
762.299	4354
762.788	4368
763.277	4377
763.767	4334
764.256	4331
764.745	4281
765.235	4349
765.724	4216
766.214	4279
766.703	4237
767.193	4153
767.683	4153
768.172	4057
768.662	4095
769.152	4075
769.641	4078
770.131	3957
770.621	4008
771.111	3949
771.601	3938
772.09	3902
772.58	3846
773.07	3859
773.56	3866
774.05	3789
774.54	3756
775.031	3732
775.521	3723
776.011	3729
776.501	3767
776.991	3665
777.482	3703
777.972	3618
778.462	3611
778.953	3629
779.443	3608
779.933	3607
780.424	3571
780.914	3624
781.405	3637
781.895	3602
782.386	3606
782.877	3579
783.367	3521
783.858	3488
784.349	3496
784.839	3450
785.33	3475
785.821	3465
786.312	3452
786.803	3459
787.293	3468
787.784	3417
788.275	3374
788.766	3339
789.257	3390
789.748	3305
790.24	3268
790.731	3270
791.222	3211
791.713	3207
792.204	3211
792.696	3119
793.187	3146
793.678	3110
794.169	3018
794.661	3047
795.152	2999
795.644	2965
796.135	2974
796.627	2987
797.118	2925
797.61	2902
798.101	2863
798.593	2899
799.085	2844
799.576	2865
800.068	2842
800.56	2864
801.052	2795
801.544	2792
802.035	2795
802.527	2750
803.019	2718
803.511	2692
804.003	2679
804.495	2692
804.987	2665
805.479	2620
805.971	2631
806.464	2639
806.956	2573
807.448	2552
807.94	2559
808.433	2546
808.925	2525
809.417	2506
809.91	2502
810.402	2432
810.894	2459
811.387	2478
811.879	2441
812.372	2463
812.865	2413
813.357	2401
813.85	2386
814.342	2358
814.835	2366
815.328	2359
815.821	2325
816.313	2306
816.806	2319
817.299	2289
817.792	2298
818.285	2257
818.778	2280
819.271	2282
819.764	2246
820.257	2255
820.75	2260
821.243	2265
821.736	2227
822.229	2247
822.722	2237
823.216	2277
