Data from lamp4helium_sterk_Subt2__55__155.txt Node

Date: Wed Apr 09 11:07:01 CEST 2025
User: fys-lab-0081
Spectrometer: S04999
Trigger mode: 0
Resolution mode: 1024 pixels
Integration Time (sec): 1.000000E-1
Scans to average: 1
Nonlinearity correction enabled: false
Boxcar width: 0
Baseline correction enabled: true
XAxis mode: Wavelengths
Number of Pixels in Spectrum: 1024
>>>>>Begin Spectral Data<<<<<
336.42	1
336.877	8
337.334	0
337.792	4
338.249	3
338.706	3
339.164	4
339.621	2
340.079	3
340.536	4
340.994	5
341.452	6
341.909	11
342.367	2
342.825	1
343.283	12
343.741	5
344.198	6
344.656	4
345.114	5
345.572	6
346.03	4
346.488	2
346.947	4
347.405	6
347.863	8
348.321	3
348.779	7
349.238	4
349.696	11
350.154	7
350.613	7
351.071	8
351.53	13
351.988	12
352.447	7
352.905	5
353.364	8
353.823	12
354.282	6
354.74	7
355.199	10
355.658	16
356.117	11
356.576	9
357.035	10
357.494	15
357.953	8
358.412	14
358.871	10
359.33	11
359.789	12
360.249	14
360.708	13
361.167	16
361.626	12
362.086	12
362.545	18
363.005	18
363.464	12
363.924	18
364.383	15
364.843	15
365.303	17
365.762	21
366.222	19
366.682	20
367.142	22
367.601	21
368.061	17
368.521	21
368.981	24
369.441	23
369.901	27
370.361	22
370.821	24
371.282	23
371.742	26
372.202	23
372.662	30
373.123	27
373.583	33
374.043	34
374.504	27
374.964	31
375.425	32
375.885	29
376.346	34
376.806	37
377.267	38
377.728	39
378.188	35
378.649	37
379.11	41
379.571	35
380.032	39
380.493	37
380.954	44
381.414	42
381.876	44
382.337	43
382.798	49
383.259	49
383.72	51
384.181	49
384.642	54
385.104	55
385.565	61
386.026	62
386.488	62
386.949	62
387.411	62
387.872	67
388.334	72
388.795	72
389.257	72
389.719	72
390.181	78
390.642	73
391.104	78
391.566	82
392.028	85
392.49	89
392.952	88
393.414	90
393.876	96
394.338	91
394.8	91
395.262	89
395.724	100
396.186	102
396.648	101
397.111	103
397.573	104
398.035	105
398.498	108
398.96	111
399.423	111
399.885	109
400.348	123
400.81	121
401.273	119
401.736	120
402.198	134
402.661	137
403.124	134
403.587	140
404.049	142.5
404.512	145
404.975	143
405.438	145
405.901	156
406.364	151
406.827	154
407.29	149
407.754	150
408.217	154
408.68	150
409.143	161
409.607	162
410.07	163
410.533	163
410.997	166
411.46	170
411.924	177
412.387	177
412.851	177
413.314	183
413.778	182
414.242	188
414.705	199
415.169	191
415.633	192
416.097	193
416.561	197
417.024	200
417.488	198
417.952	202
418.416	199
418.88	199
419.344	198
419.809	205
420.273	212
420.737	205
421.201	216
421.665	221
422.13	223
422.594	232
423.059	234
423.523	235
423.987	232
424.452	243
424.916	248
425.381	255
425.846	257
426.31	263
426.775	270
427.24	273
427.704	273
428.169	274
428.634	278
429.099	276
429.564	272
430.029	274
430.494	275
430.959	278
431.424	277
431.889	291
432.354	300
432.819	289
433.284	307
433.75	305
434.215	318
434.68	316
435.146	316
435.611	336
436.077	345
436.542	345
437.008	364
437.473	360
437.939	367
438.404	373
438.87	387
439.336	378
439.801	371
440.267	387
440.733	395
441.199	394
441.665	399
442.131	409
442.596	391
443.062	416
443.529	432
443.995	438
444.461	442
444.927	464
445.393	470
445.859	488
446.325	499
446.792	524
447.258	527
447.724	536
448.191	556
448.657	560
449.124	574
449.59	574
450.057	606
450.523	609
450.99	624
451.457	619
451.923	637
452.39	629
452.857	643
453.324	636
453.791	646
454.257	656
454.724	661
455.191	661
455.658	663
456.125	683
456.592	675
457.059	683
457.527	693
457.994	715
458.461	719
458.928	737
459.396	732
459.863	752
460.33	748
460.798	753
461.265	767
461.732	755
462.2	776
462.668	773
463.135	787
463.603	759
464.07	788
464.538	770
465.006	787
465.474	775
465.941	775
466.409	787
466.877	776
467.345	794
467.813	777
468.281	796
468.749	804
469.217	804
469.685	819
470.153	833
470.621	829
471.09	829
471.558	874
472.026	870
472.494	896
472.963	906
473.431	933
473.9	949
474.368	972
474.837	988
475.305	1000
475.774	1016
476.242	1052
476.711	1049
477.18	1072
477.648	1071
478.117	1077
478.586	1076
479.055	1083
479.524	1088
479.993	1088
480.462	1086
480.93	1087
481.399	1085
481.869	1099
482.338	1085
482.807	1105
483.276	1102
483.745	1103
484.214	1133
484.684	1154
485.153	1164
485.622	1166
486.092	1201
486.561	1180
487.031	1222
487.5	1248
487.97	1256
488.439	1291
488.909	1318
489.378	1368
489.848	1367
490.318	1396
490.787	1455
491.257	1472
491.727	1486
492.197	1501
492.667	1508
493.137	1525
493.607	1529
494.077	1552
494.547	1535
495.017	1526
495.487	1549
495.957	1593
496.427	1555
496.897	1553
497.368	1574
497.838	1569
498.308	1592
498.779	1614
499.249	1623
499.719	1632
500.19	1653
500.66	1663
501.131	1676
501.602	1703
502.072	1701
502.543	1731
503.014	1792
503.484	1775
503.955	1833
504.426	1896
504.897	1909
505.368	1940
505.838	1996
506.309	2034
506.78	2103
507.251	2141
507.722	2176
508.194	2229
508.665	2263
509.136	2267
509.607	2335
510.078	2352
510.549	2361
511.021	2427
511.492	2430
511.964	2460
512.435	2494
512.906	2470
513.378	2494
513.849	2553
514.321	2559
514.793	2587
515.264	2632
515.736	2647
516.208	2697
516.679	2704
517.151	2734
517.623	2752
518.095	2804
518.567	2826
519.038	2881
519.51	2869
519.982	2899
520.454	2932
520.927	2987
521.399	3037
521.871	3064
522.343	3074
522.815	3088
523.287	3097
523.76	3109
524.232	3158
524.704	3175
525.177	3136
525.649	3159
526.122	3186
526.594	3117
527.067	3189
527.539	3230
528.012	3220
528.484	3209
528.957	3223
529.43	3223
529.903	3213
530.375	3322
530.848	3255
531.321	3303
531.794	3309
532.267	3380
532.74	3324
533.213	3324
533.686	3379
534.159	3372
534.632	3446
535.105	3427
535.578	3506
536.051	3525
536.525	3524
536.998	3537
537.471	3622
537.945	3567
538.418	3620
538.891	3651
539.365	3695
539.838	3713
540.312	3695
540.786	3726
541.259	3733
541.733	3785
542.206	3797
542.68	3730
543.154	3736
543.628	3762
544.101	3825
544.575	3770
545.049	3671
545.523	3749
545.997	3726
546.471	3763
546.945	3736
547.419	3789
547.893	3667
548.367	3741
548.842	3704
549.316	3736
549.79	3749
550.264	3720
550.739	3770
551.213	3778
551.687	3788
552.162	3816
552.636	3773
553.111	3773
553.585	3880
554.06	3823
554.534	3889
555.009	3882
555.484	3945
555.958	3984
556.433	3981
556.908	4043
557.383	4013
557.858	4099
558.333	4105
558.807	4081
559.282	4138
559.757	4235
560.232	4231
560.708	4149
561.183	4144
561.658	4210
562.133	4203
562.608	4173
563.083	4278
563.559	4189
564.034	4190
564.509	4185
564.985	4205
565.46	4171
565.936	4243
566.411	4230
566.887	4177
567.362	4204
567.838	4223
568.313	4261
568.789	4199
569.265	4206
569.74	4231
570.216	4181
570.692	4246
571.168	4243
571.644	4256
572.12	4260
572.596	4279
573.071	4294
573.547	4434
574.024	4483
574.5	4519
574.976	4525
575.452	4598
575.928	4664
576.404	4672
576.881	4810
577.357	4733
577.833	4757
578.31	4881
578.786	4920
579.262	4988
579.739	4930
580.215	5079
580.692	5108
581.169	5045
581.645	5051
582.122	5183
582.598	5179
583.075	5169
583.552	5171
584.029	5162
584.506	5155
584.982	5111
585.459	5220
585.936	5146
586.413	5206
586.89	5305
587.367	5267
587.844	5347
588.321	5308
588.799	5321
589.276	5263
589.753	5351
590.23	5381
590.707	5381
591.185	5394
591.662	5416
592.139	5477
592.617	5533
593.094	5516
593.572	5541
594.049	5593
594.527	5618
595.004	5646
595.482	5820
595.96	5768
596.437	5729
596.915	5871
597.393	5790
597.871	5940
598.349	5880
598.826	5983
599.304	5998
599.782	6125
600.26	6078
600.738	6205
601.216	6173
601.694	6216
602.173	6239
602.651	6268
603.129	6226
603.607	6267
604.085	6283
604.564	6299
605.042	6339
605.52	6298
605.999	6415
606.477	6261
606.956	6286
607.434	6358
607.913	6430
608.391	6401
608.87	6342
609.348	6255
609.827	6290
610.306	6334
610.785	6342
611.263	6332
611.742	6295
612.221	6210
612.7	6307
613.179	6352
613.658	6250
614.137	6349
614.616	6419
615.095	6324
615.574	6406
616.053	6436
616.532	6381
617.011	6399
617.491	6437
617.97	6394
618.449	6480
618.928	6532
619.408	6485
619.887	6534
620.367	6564
620.846	6638
621.326	6577
621.805	6723
622.285	6735
622.764	6795
623.244	6826
623.724	6850
624.203	6884
624.683	6753
625.163	6882
625.643	6864
626.123	6812
626.602	6980
627.082	6834
627.562	6820
628.042	6939
628.522	6893
629.002	6843
629.482	6883
629.963	6883
630.443	6805
630.923	6791
631.403	6852
631.883	6857
632.364	6880
632.844	6839
633.324	6850
633.805	6845
634.285	6746
634.766	6711
635.246	6728
635.727	6754
636.207	6770
636.688	6734
637.168	6701
637.649	6671
638.13	6691
638.611	6750
639.091	6720
639.572	6673
640.053	6627
640.534	6673
641.015	6656
641.496	6562
641.977	6681
642.458	6616
642.939	6635
643.42	6645
643.901	6653
644.382	6732
644.863	6719
645.345	6688
645.826	6698
646.307	6699
646.788	6813
647.27	6695
647.751	6721
648.233	6768
648.714	6609
649.196	6768
649.677	6732
650.159	6746
650.64	6683
651.122	6803
651.603	6688
652.085	6753
652.567	6810
653.049	6755
653.53	6761
654.012	6862
654.494	6740
654.976	6825
655.458	6793
655.94	6762
656.422	6852
656.904	6715
657.386	6630
657.868	6632
658.35	6589
658.833	6635
659.315	6657
659.797	6544
660.279	6553
660.762	6559
661.244	6484
661.726	6448
662.209	6478
662.691	6475
663.174	6341
663.656	6380
664.139	6408
664.621	6362
665.104	6315
665.587	6387
666.069	6431
666.552	6405
667.035	6323
667.517	6358
668	6429
668.483	6422
668.966	6357
669.449	6319
669.932	6328
670.415	6386
670.898	6342
671.381	6370
671.864	6374
672.347	6271
672.83	6271
673.313	6276
673.797	6262
674.28	6388
674.763	6398
675.247	6396
675.73	6328
676.213	6364
676.697	6439
677.18	6439
677.664	6457
678.147	6449
678.631	6508
679.114	6580
679.598	6568
680.082	6627
680.565	6615
681.049	6580
681.533	6554
682.017	6605
682.5	6561
682.984	6594
683.468	6597
683.952	6480
684.436	6629
684.92	6555
685.404	6595
685.888	6613
686.372	6554
686.856	6557
687.341	6612
687.825	6515
688.309	6547
688.793	6562
689.278	6479
689.762	6562
690.246	6499
690.731	6500
691.215	6518
691.7	6355
692.184	6452
692.669	6417
693.153	6428
693.638	6312
694.122	6331
694.607	6402
695.092	6314
695.577	6393
696.061	6272
696.546	6293
697.031	6256
697.516	6312
698.001	6330
698.486	6310
698.971	6367
699.456	6191
699.941	6184
700.426	6177
700.911	6247
701.396	6233
701.881	6265
702.366	6211
702.852	6191
703.337	6189
703.822	6162
704.308	6156
704.793	6176
705.278	6198
705.764	6216
706.249	6161
706.735	6160
707.22	6218
707.706	6132
708.191	6219
708.677	6204
709.163	6145
709.648	6172
710.134	6275
710.62	6243
711.106	6260
711.592	6308
712.077	6239
712.563	6065
713.049	6047
713.535	6204
714.021	6194
714.507	6171
714.993	6076
715.479	6104
715.966	6038
716.452	6064
716.938	6083
717.424	5889
717.91	5999
718.397	5925
718.883	5906
719.369	5928
719.856	5852
720.342	5935
720.829	5839
721.315	5862
721.802	5811
722.288	5837
722.775	5612
723.262	5456
723.748	5698
724.235	5674
724.722	5765
725.208	5627
725.695	5625
726.182	5613
726.669	5566
727.156	5640
727.643	5592
728.13	5561
728.617	5479
729.104	5481
729.591	5446
730.078	5484
730.565	5479
731.052	5399
731.539	5417
732.027	5373
732.514	5295
733.001	5337
733.488	5306
733.976	5302
734.463	5282
734.951	5265
735.438	5319
735.926	5246
736.413	5284
736.901	5243
737.388	5287
737.876	5261
738.364	5229
738.851	5261
739.339	5271
739.827	5324
740.314	5133
740.802	5156
741.29	5175
741.778	5109
742.266	5111
742.754	5137
743.242	5192
743.73	5106
744.218	5086
744.706	5050
745.194	5109
745.682	5097
746.17	5103
746.659	5096
747.147	4977
747.635	4981
748.123	4963
748.612	4884
749.1	4826
749.589	4857
750.077	4841
750.566	4832
751.054	4849
751.543	4870
752.031	4763
752.52	4727
753.008	4637
753.497	4656
753.986	4654
754.474	4651
754.963	4690
755.452	4590
755.941	4552
756.43	4525
756.919	4525
757.408	4488
757.896	4515
758.385	4537
758.875	4489
759.364	4448
759.853	4398
760.342	4313
760.831	4411
761.32	4369
761.809	4298
762.299	4323
762.788	4343
763.277	4337
763.767	4297
764.256	4302
764.745	4251
765.235	4310
765.724	4180
766.214	4255
766.703	4203
767.193	4130
767.683	4126
768.172	4034
768.662	4067
769.152	4051
769.641	4050
770.131	3928
770.621	3985
771.111	3933
771.601	3917
772.09	3863
772.58	3818
773.07	3827
773.56	3843
774.05	3761
774.54	3735
775.031	3700
775.521	3693
776.011	3705
776.501	3735
776.991	3652
777.482	3678
777.972	3584
778.462	3583
778.953	3603
779.443	3589
779.933	3592
780.424	3559
780.914	3599
781.405	3611
781.895	3579
782.386	3576
782.877	3549
783.367	3486
783.858	3466
784.349	3466
784.839	3435
785.33	3447
785.821	3440
786.312	3421
786.803	3440
787.293	3448
787.784	3391
788.275	3342
788.766	3321
789.257	3367
789.748	3286
790.24	3241
790.731	3247
791.222	3187
791.713	3179
792.204	3193
792.696	3094
793.187	3124
793.678	3088
794.169	2993
794.661	3029
795.152	2981
795.644	2947
796.135	2952
796.627	2963
797.118	2905
797.61	2883
798.101	2841
798.593	2878
799.085	2820
799.576	2834
800.068	2816
800.56	2841
801.052	2778
801.544	2772
802.035	2775
802.527	2727
803.019	2696
803.511	2676
804.003	2657
804.495	2671
804.987	2654
805.479	2607
805.971	2621
806.464	2619
806.956	2551
807.448	2537
807.94	2541
808.433	2523
808.925	2509
809.417	2488
809.91	2487
810.402	2416
810.894	2438
811.387	2473
811.879	2432
812.372	2438
812.865	2395
813.357	2384
813.85	2373
814.342	2351
814.835	2356
815.328	2340
815.821	2302
816.313	2293
816.806	2299
817.299	2280
817.792	2286
818.285	2239
818.778	2273
819.271	2264
819.764	2234
820.257	2236
820.75	2236
821.243	2243
821.736	2214
822.229	2236
822.722	2222
823.216	2250
